#statistical_std_by_pixel_rest_UV-bands_median_H-alpha_noDC.txt
#
#Rest-frame Wavelength (A) | Luminosity 1-Sigma Uncertainty (erg/s/A)
#
1110.00000	0.00000e+00
1110.80630	2.90051e+59
1111.61260	1.88914e+59
1112.41890	1.45566e+59
1113.22520	1.22864e+59
1114.03150	1.22496e+59
1114.83780	1.25501e+59
1115.64410	9.54801e+58
1116.45040	1.20488e+59
1117.25670	8.94045e+58
1118.06300	8.17162e+58
1118.86930	6.65909e+58
1119.67560	5.40988e+58
1120.48190	4.82988e+58
1121.28820	4.60995e+58
1122.09450	4.75619e+58
1122.90080	4.72807e+58
1123.70710	3.84911e+58
1124.51340	3.88940e+58
1125.31970	3.44925e+58
1126.12600	3.09796e+58
1126.93230	2.24122e+58
1127.73860	2.92422e+58
1128.54490	2.66143e+58
1129.35120	2.24020e+58
1130.15750	2.31774e+58
1130.96380	2.14018e+58
1131.77010	2.18931e+58
1132.57640	2.05842e+58
1133.38270	1.84224e+58
1134.18900	1.44908e+58
1134.99530	1.69293e+58
1135.80160	1.52454e+58
1136.60790	1.14438e+58
1137.41420	1.33274e+58
1138.22050	1.32629e+58
1139.02680	1.16411e+58
1139.83310	1.07311e+58
1140.63940	9.42535e+57
1141.44570	1.21213e+58
1142.25200	1.19603e+58
1143.05830	1.04590e+58
1143.86460	1.10127e+58
1144.67090	1.05701e+58
1145.47720	7.62032e+57
1146.28350	7.20263e+57
1147.08980	6.43088e+57
1147.89610	6.82054e+57
1148.70240	6.99712e+57
1149.50870	5.99927e+57
1150.31500	6.27044e+57
1151.12130	6.66236e+57
1151.92760	6.37141e+57
1152.73390	7.03008e+57
1153.54020	6.46194e+57
1154.34650	4.75436e+57
1155.15280	5.35658e+57
1155.95910	5.87835e+57
1156.76540	6.80947e+57
1157.57170	5.83052e+57
1158.37800	5.61870e+57
1159.18430	4.80704e+57
1159.99060	5.22729e+57
1160.79690	5.03475e+57
1161.60320	5.07390e+57
1162.40950	4.53558e+57
1163.21580	5.72454e+57
1164.02210	4.46345e+57
1164.82840	4.79085e+57
1165.63470	4.62717e+57
1166.44100	4.27025e+57
1167.24730	4.52407e+57
1168.05360	3.64929e+57
1168.85990	3.81010e+57
1169.66620	4.40583e+57
1170.47250	4.60291e+57
1171.27880	4.92922e+57
1172.08510	5.41230e+57
1172.89140	5.10610e+57
1173.69770	3.93023e+57
1174.50400	3.61528e+57
1175.31030	3.27968e+57
1176.11660	3.19080e+57
1176.92290	2.33349e+57
1177.72920	2.37584e+57
1178.53550	2.77816e+57
1179.34180	3.22316e+57
1180.14810	3.26186e+57
1180.95440	3.01534e+57
1181.76070	2.80866e+57
1182.56700	2.67291e+57
1183.37330	2.45574e+57
1184.17960	2.39205e+57
1184.98590	2.55650e+57
1185.79220	2.71834e+57
1186.59850	2.82972e+57
1187.40480	2.82730e+57
1188.21110	3.12434e+57
1189.01740	2.91188e+57
1189.82370	3.37342e+57
1190.63000	2.99199e+57
1191.43630	2.89836e+57
1192.24260	2.63278e+57
1193.04890	2.24053e+57
1193.85520	2.51816e+57
1194.66150	3.05927e+57
1195.46780	3.12221e+57
1196.27410	2.77777e+57
1197.08040	2.56314e+57
1197.88670	2.17388e+57
1198.69300	1.99818e+57
1199.49930	2.15696e+57
1200.30560	2.22158e+57
1201.11190	2.34590e+57
1201.91820	2.28704e+57
1202.72450	2.03610e+57
1203.53080	2.29607e+57
1204.33710	2.06404e+57
1205.14340	2.15223e+57
1205.94970	1.98788e+57
1206.75600	1.85745e+57
1207.56230	1.93515e+57
1208.36860	2.15352e+57
1209.17490	1.96280e+57
1209.98120	2.04526e+57
1210.78750	2.37765e+57
1211.59380	2.27697e+57
1212.40010	1.96071e+57
1213.20640	1.84721e+57
1214.01270	1.80784e+57
1214.81900	1.96317e+57
1215.62530	2.26187e+57
1216.43160	2.46425e+57
1217.23790	2.37534e+57
1218.04420	2.79302e+57
1218.85050	2.81577e+57
1219.65680	2.77796e+57
1220.46310	2.58976e+57
1221.26940	2.12997e+57
1222.07570	2.14900e+57
1222.88200	2.08768e+57
1223.68830	1.86566e+57
1224.49460	1.65576e+57
1225.30090	1.51942e+57
1226.10720	1.56589e+57
1226.91350	1.62744e+57
1227.71980	1.80700e+57
1228.52610	1.64368e+57
1229.33240	2.03768e+57
1230.13870	1.94292e+57
1230.94500	1.70510e+57
1231.75130	1.39995e+57
1232.55760	1.43680e+57
1233.36390	1.20091e+57
1234.17020	1.34240e+57
1234.97650	1.38236e+57
1235.78280	1.34778e+57
1236.58910	1.39660e+57
1237.39540	1.35683e+57
1238.20170	1.41908e+57
1239.00800	1.49516e+57
1239.81430	1.57705e+57
1240.62060	1.58925e+57
1241.42690	1.38099e+57
1242.23320	1.37174e+57
1243.03950	1.23147e+57
1243.84580	1.30552e+57
1244.65210	1.39079e+57
1245.45840	1.53994e+57
1246.26470	1.53353e+57
1247.07100	1.63431e+57
1247.87730	1.51290e+57
1248.68360	1.53592e+57
1249.48990	1.96586e+57
1250.29620	1.98770e+57
1251.10250	1.75247e+57
1251.90880	1.63833e+57
1252.71510	1.43512e+57
1253.52140	1.37372e+57
1254.32770	1.24677e+57
1255.13400	1.27697e+57
1255.94030	1.26675e+57
1256.74660	1.14115e+57
1257.55290	1.25023e+57
1258.35920	1.34046e+57
1259.16550	1.26814e+57
1259.97180	1.04149e+57
1260.77810	1.28152e+57
1261.58440	1.41404e+57
1262.39070	1.35699e+57
1263.19700	1.21676e+57
1264.00330	1.12143e+57
1264.80960	1.16827e+57
1265.61590	1.17527e+57
1266.42220	1.10010e+57
1267.22850	1.10648e+57
1268.03480	1.09759e+57
1268.84110	1.14137e+57
1269.64740	1.20661e+57
1270.45370	1.22409e+57
1271.26000	1.34519e+57
1272.06630	1.46083e+57
1272.87260	1.35557e+57
1273.67890	1.32283e+57
1274.48520	1.24104e+57
1275.29150	1.25392e+57
1276.09780	1.21450e+57
1276.90410	1.20051e+57
1277.71040	1.21363e+57
1278.51670	1.16415e+57
1279.32300	1.15629e+57
1280.12930	1.06113e+57
1280.93560	1.11521e+57
1281.74190	1.18067e+57
1282.54820	1.22977e+57
1283.35450	1.20317e+57
1284.16080	1.35026e+57
1284.96710	1.33135e+57
1285.77340	1.23612e+57
1286.57970	1.34526e+57
1287.38600	1.42311e+57
1288.19230	1.43773e+57
1288.99860	1.37407e+57
1289.80490	1.24798e+57
1290.61120	1.08199e+57
1291.41750	1.15348e+57
1292.22380	1.10818e+57
1293.03010	1.09151e+57
1293.83640	1.11139e+57
1294.64270	1.08973e+57
1295.44900	1.11849e+57
1296.25530	1.08174e+57
1297.06160	1.13044e+57
1297.86790	1.24383e+57
1298.67420	1.20852e+57
1299.48050	1.10637e+57
1300.28680	1.00753e+57
1301.09310	1.00983e+57
1301.89940	8.69359e+56
1302.70570	9.04253e+56
1303.51200	8.61520e+56
1304.31830	8.25826e+56
1305.12460	8.07151e+56
1305.93090	8.57647e+56
1306.73720	8.51072e+56
1307.54350	8.84235e+56
1308.34980	9.60762e+56
1309.15610	1.07760e+57
1309.96240	1.25199e+57
1310.76870	1.34064e+57
1311.57500	1.53477e+57
1312.38130	1.50054e+57
1313.18760	1.46081e+57
1313.99390	1.36581e+57
1314.80020	1.15578e+57
1315.60650	1.23945e+57
1316.41280	1.22600e+57
1317.21910	1.14534e+57
1318.02540	1.01686e+57
1318.83170	9.30936e+56
1319.63800	8.67311e+56
1320.44430	9.03168e+56
1321.25060	8.78737e+56
1322.05690	8.78062e+56
1322.86320	8.28170e+56
1323.66950	8.35598e+56
1324.47580	8.33025e+56
1325.28210	8.25180e+56
1326.08840	9.20527e+56
1326.89470	9.98626e+56
1327.70100	9.36918e+56
1328.50730	9.35155e+56
1329.31360	1.02626e+57
1330.11990	9.16440e+56
1330.92620	8.72037e+56
1331.73250	8.09072e+56
1332.53880	8.44856e+56
1333.34510	7.79214e+56
1334.15140	7.34430e+56
1334.95770	7.41664e+56
1335.76400	7.80599e+56
1336.57030	7.71206e+56
1337.37660	8.41806e+56
1338.18290	8.72113e+56
1338.98920	8.41292e+56
1339.79550	9.01899e+56
1340.60180	9.11408e+56
1341.40810	9.83998e+56
1342.21440	9.28662e+56
1343.02070	1.03093e+57
1343.82700	1.10843e+57
1344.63330	1.06039e+57
1345.43960	1.19097e+57
1346.24590	1.11248e+57
1347.05220	1.03063e+57
1347.85850	9.82153e+56
1348.66480	9.75819e+56
1349.47110	9.11033e+56
1350.27740	8.96431e+56
1351.08370	8.21508e+56
1351.89000	8.54137e+56
1352.69630	8.22663e+56
1353.50260	8.35810e+56
1354.30890	7.70853e+56
1355.11520	7.98744e+56
1355.92150	7.84326e+56
1356.72780	7.79030e+56
1357.53410	7.66329e+56
1358.34040	7.66328e+56
1359.14670	7.74770e+56
1359.95300	7.85927e+56
1360.75930	7.68447e+56
1361.56560	7.94676e+56
1362.37190	7.90987e+56
1363.17820	8.11204e+56
1363.98450	9.14931e+56
1364.79080	9.18459e+56
1365.59710	9.42069e+56
1366.40340	9.20755e+56
1367.20970	9.36112e+56
1368.01600	9.20858e+56
1368.82230	9.39124e+56
1369.62860	1.00442e+57
1370.43490	9.16574e+56
1371.24120	8.52113e+56
1372.04750	8.98321e+56
1372.85380	8.81334e+56
1373.66010	8.45686e+56
1374.46640	7.86045e+56
1375.27270	7.54333e+56
1376.07900	7.15714e+56
1376.88530	7.08885e+56
1377.69160	7.36318e+56
1378.49790	7.12305e+56
1379.30420	7.53501e+56
1380.11050	8.23464e+56
1380.91680	8.47088e+56
1381.72310	8.46208e+56
1382.52940	8.46521e+56
1383.33570	9.22366e+56
1384.14200	9.23985e+56
1384.94830	8.71616e+56
1385.75460	9.19682e+56
1386.56090	9.09644e+56
1387.36720	9.21015e+56
1388.17350	9.74433e+56
1388.97980	9.37450e+56
1389.78610	9.38422e+56
1390.59240	8.71823e+56
1391.39870	8.85380e+56
1392.20500	7.96801e+56
1393.01130	7.67226e+56
1393.81760	7.85377e+56
1394.62390	7.57459e+56
1395.43020	7.33776e+56
1396.23650	7.48296e+56
1397.04280	7.66845e+56
1397.84910	7.39707e+56
1398.65540	7.14679e+56
1399.46170	7.39582e+56
1400.26800	7.54398e+56
1401.07430	7.21275e+56
1401.88060	6.81514e+56
1402.68690	6.46957e+56
1403.49320	6.41962e+56
1404.29950	7.05252e+56
1405.10580	6.54408e+56
1405.91210	6.60317e+56
1406.71840	6.91710e+56
1407.52470	6.75823e+56
1408.33100	6.85791e+56
1409.13730	6.95650e+56
1409.94360	6.99066e+56
1410.74990	7.23665e+56
1411.55620	7.03509e+56
1412.36250	6.88514e+56
1413.16880	7.47606e+56
1413.97510	7.44594e+56
1414.78140	7.91306e+56
1415.58770	8.02001e+56
1416.39400	9.03144e+56
1417.20030	9.16864e+56
1418.00660	9.28090e+56
1418.81290	9.40663e+56
1419.61920	9.22472e+56
1420.42550	8.48459e+56
1421.23180	8.76240e+56
1422.03810	8.26983e+56
1422.84440	8.59275e+56
1423.65070	8.58126e+56
1424.45700	7.82275e+56
1425.26330	7.57371e+56
1426.06960	7.28839e+56
1426.87590	6.69517e+56
1427.68220	6.71878e+56
1428.48850	6.68866e+56
1429.29480	6.95699e+56
1430.10110	6.56153e+56
1430.90740	6.12800e+56
1431.71370	6.27167e+56
1432.52000	6.19454e+56
1433.32630	5.61876e+56
1434.13260	5.30246e+56
1434.93890	5.58533e+56
1435.74520	5.43304e+56
1436.55150	5.46167e+56
1437.35780	5.45695e+56
1438.16410	5.67332e+56
1438.97040	5.59995e+56
1439.77670	5.76604e+56
1440.58300	5.81206e+56
1441.38930	5.88147e+56
1442.19560	5.84584e+56
1443.00190	6.35408e+56
1443.80820	6.45463e+56
1444.61450	6.47264e+56
1445.42080	6.87230e+56
1446.22710	6.91388e+56
1447.03340	6.64512e+56
1447.83970	6.46704e+56
1448.64600	6.64692e+56
1449.45230	6.59916e+56
1450.25860	6.64697e+56
1451.06490	6.61521e+56
1451.87120	5.90283e+56
1452.67750	5.49237e+56
1453.48380	5.93270e+56
1454.29010	5.57589e+56
1455.09640	5.89581e+56
1455.90270	6.50683e+56
1456.70900	6.21925e+56
1457.51530	6.83173e+56
1458.32160	7.02998e+56
1459.12790	7.37410e+56
1459.93420	7.33399e+56
1460.74050	7.07504e+56
1461.54680	6.70523e+56
1462.35310	7.08257e+56
1463.15940	7.33084e+56
1463.96570	7.70636e+56
1464.77200	7.34406e+56
1465.57830	6.67439e+56
1466.38460	6.26900e+56
1467.19090	6.09921e+56
1467.99720	6.07449e+56
1468.80350	6.20047e+56
1469.60980	6.64012e+56
1470.41610	6.85108e+56
1471.22240	6.56071e+56
1472.02870	6.86058e+56
1472.83500	6.58990e+56
1473.64130	6.62421e+56
1474.44760	6.80131e+56
1475.25390	6.63432e+56
1476.06020	6.74743e+56
1476.86650	6.34970e+56
1477.67280	6.51847e+56
1478.47910	6.16360e+56
1479.28540	6.17834e+56
1480.09170	6.36749e+56
1480.89800	6.38018e+56
1481.70430	6.34166e+56
1482.51060	6.70099e+56
1483.31690	6.51957e+56
1484.12320	6.89655e+56
1484.92950	6.30505e+56
1485.73580	6.49098e+56
1486.54210	6.44636e+56
1487.34840	6.18784e+56
1488.15470	6.59503e+56
1488.96100	6.36602e+56
1489.76730	6.44004e+56
1490.57360	5.67489e+56
1491.37990	5.67078e+56
1492.18620	5.61790e+56
1492.99250	5.77681e+56
1493.79880	6.03275e+56
1494.60510	6.01227e+56
1495.41140	6.34346e+56
1496.21770	6.28868e+56
1497.02400	6.35643e+56
1497.83030	5.63045e+56
1498.63660	5.53068e+56
1499.44290	5.81841e+56
1500.24920	5.74737e+56
1501.05550	5.86532e+56
1501.86180	6.01056e+56
1502.66810	5.90983e+56
1503.47440	6.15241e+56
1504.28070	6.23098e+56
1505.08700	6.48820e+56
1505.89330	5.91185e+56
1506.69960	5.85444e+56
1507.50590	5.83904e+56
1508.31220	6.16550e+56
1509.11850	5.96703e+56
1509.92480	5.47277e+56
1510.73110	5.53557e+56
1511.53740	5.37223e+56
1512.34370	5.59917e+56
1513.15000	5.37915e+56
1513.95630	5.36758e+56
1514.76260	5.25057e+56
1515.56890	5.62017e+56
1516.37520	5.39266e+56
1517.18150	5.25420e+56
1517.98780	5.32879e+56
1518.79410	5.26572e+56
1519.60040	5.46473e+56
1520.40670	5.54086e+56
1521.21300	5.55603e+56
1522.01930	5.41616e+56
1522.82560	5.37382e+56
1523.63190	5.22362e+56
1524.43820	5.42462e+56
1525.24450	5.52320e+56
1526.05080	5.40037e+56
1526.85710	5.28689e+56
1527.66340	5.21209e+56
1528.46970	5.43765e+56
1529.27600	5.66053e+56
1530.08230	5.42026e+56
1530.88860	5.26856e+56
1531.69490	5.23509e+56
1532.50120	5.31778e+56
1533.30750	4.96973e+56
1534.11380	4.98425e+56
1534.92010	5.19093e+56
1535.72640	5.17180e+56
1536.53270	5.41252e+56
1537.33900	5.51837e+56
1538.14530	5.31037e+56
1538.95160	6.25863e+56
1539.75790	5.78718e+56
1540.56420	6.20108e+56
1541.37050	5.76865e+56
1542.17680	5.98625e+56
1542.98310	5.96028e+56
1543.78940	5.88575e+56
1544.59570	6.00769e+56
1545.40200	5.69634e+56
1546.20830	5.60706e+56
1547.01460	5.42402e+56
1547.82090	5.08868e+56
1548.62720	4.83053e+56
1549.43350	5.46923e+56
1550.23980	5.70508e+56
1551.04610	5.40116e+56
1551.85240	5.67583e+56
1552.65870	5.30401e+56
1553.46500	5.15615e+56
1554.27130	5.26796e+56
1555.07760	5.20460e+56
1555.88390	5.14694e+56
1556.69020	4.91485e+56
1557.49650	5.17593e+56
1558.30280	5.33285e+56
1559.10910	5.15007e+56
1559.91540	4.91889e+56
1560.72170	5.03151e+56
1561.52800	5.35185e+56
1562.33430	5.25571e+56
1563.14060	5.32327e+56
1563.94690	4.91384e+56
1564.75320	4.77397e+56
1565.55950	4.56429e+56
1566.36580	4.89150e+56
1567.17210	4.97083e+56
1567.97840	4.95491e+56
1568.78470	5.03954e+56
1569.59100	4.92773e+56
1570.39730	5.20174e+56
1571.20360	4.87908e+56
1572.00990	4.90818e+56
1572.81620	5.03024e+56
1573.62250	5.30293e+56
1574.42880	5.14034e+56
1575.23510	4.96390e+56
1576.04140	5.14696e+56
1576.84770	5.18523e+56
1577.65400	4.95782e+56
1578.46030	5.28697e+56
1579.26660	5.11804e+56
1580.07290	4.88081e+56
1580.87920	4.74921e+56
1581.68550	4.85869e+56
1582.49180	4.90313e+56
1583.29810	4.87304e+56
1584.10440	5.05992e+56
1584.91070	5.27373e+56
1585.71700	5.02222e+56
1586.52330	4.88979e+56
1587.32960	4.79881e+56
1588.13590	4.91296e+56
1588.94220	4.82783e+56
1589.74850	4.88213e+56
1590.55480	4.74405e+56
1591.36110	4.77124e+56
1592.16740	4.57030e+56
1592.97370	4.69582e+56
1593.78000	4.80174e+56
1594.58630	4.83012e+56
1595.39260	4.93972e+56
1596.19890	5.30527e+56
1597.00520	5.32369e+56
1597.81150	4.84985e+56
1598.61780	5.24966e+56
1599.42410	5.12030e+56
1600.23040	4.90153e+56
1601.03670	5.05074e+56
1601.84300	5.08759e+56
1602.64930	5.31942e+56
1603.45560	5.31063e+56
1604.26190	5.10612e+56
1605.06820	4.87305e+56
1605.87450	5.09417e+56
1606.68080	4.99821e+56
1607.48710	5.10708e+56
1608.29340	5.17882e+56
1609.09970	5.15731e+56
1609.90600	5.50191e+56
1610.71230	5.95103e+56
1611.51860	5.68571e+56
1612.32490	5.42378e+56
1613.13120	5.46231e+56
1613.93750	5.22743e+56
1614.74380	5.69391e+56
1615.55010	5.57557e+56
1616.35640	5.68771e+56
1617.16270	5.93493e+56
1617.96900	5.72427e+56
1618.77530	5.97599e+56
1619.58160	6.22838e+56
1620.38790	6.15276e+56
1621.19420	5.94647e+56
1622.00050	6.05216e+56
1622.80680	5.72623e+56
1623.61310	5.99315e+56
1624.41940	6.07433e+56
1625.22570	6.07206e+56
1626.03200	6.29547e+56
1626.83830	6.41188e+56
1627.64460	6.59929e+56
1628.45090	6.97437e+56
1629.25720	6.81154e+56
1630.06350	6.80857e+56
1630.86980	7.07827e+56
1631.67610	7.14129e+56
1632.48240	6.84063e+56
1633.28870	7.07349e+56
1634.09500	7.53818e+56
1634.90130	7.19573e+56
1635.70760	7.40015e+56
1636.51390	6.89972e+56
1637.32020	6.46994e+56
1638.12650	6.79678e+56
1638.93280	6.60965e+56
1639.73910	6.85061e+56
1640.54540	6.99604e+56
1641.35170	6.49999e+56
1642.15800	6.51700e+56
1642.96430	6.55105e+56
1643.77060	6.50962e+56
1644.57690	6.77747e+56
1645.38320	6.44321e+56
1646.18950	6.02712e+56
1646.99580	5.76292e+56
1647.80210	5.80778e+56
1648.60840	5.68642e+56
1649.41470	5.51647e+56
1650.22100	5.20011e+56
1651.02730	5.21990e+56
1651.83360	5.27998e+56
1652.63990	5.42898e+56
1653.44620	5.51992e+56
1654.25250	5.39750e+56
1655.05880	5.12795e+56
1655.86510	5.14553e+56
1656.67140	5.20951e+56
1657.47770	5.12026e+56
1658.28400	4.96318e+56
1659.09030	4.59905e+56
1659.89660	5.25355e+56
1660.70290	5.19901e+56
1661.50920	5.14720e+56
1662.31550	5.11307e+56
1663.12180	5.03590e+56
1663.92810	5.03423e+56
1664.73440	5.24160e+56
1665.54070	5.32843e+56
1666.34700	4.99513e+56
1667.15330	5.13760e+56
1667.95960	5.05093e+56
1668.76590	5.08743e+56
1669.57220	4.97703e+56
1670.37850	5.06257e+56
1671.18480	5.02090e+56
1671.99110	5.15261e+56
1672.79740	5.03017e+56
1673.60370	4.90693e+56
1674.41000	5.22243e+56
1675.21630	5.06462e+56
1676.02260	5.38971e+56
1676.82890	4.95882e+56
1677.63520	5.17837e+56
1678.44150	5.37390e+56
1679.24780	5.25592e+56
1680.05410	5.34550e+56
1680.86040	5.61690e+56
1681.66670	5.64867e+56
1682.47300	5.75269e+56
1683.27930	5.43307e+56
1684.08560	5.07070e+56
1684.89190	5.11501e+56
1685.69820	5.08336e+56
1686.50450	5.05123e+56
1687.31080	5.21227e+56
1688.11710	5.68386e+56
1688.92340	5.62203e+56
1689.72970	5.56575e+56
1690.53600	5.67486e+56
1691.34230	5.53092e+56
1692.14860	5.77225e+56
1692.95490	5.91935e+56
1693.76120	6.10565e+56
1694.56750	5.86095e+56
1695.37380	6.21100e+56
1696.18010	5.92456e+56
1696.98640	6.06957e+56
1697.79270	6.40842e+56
1698.59900	6.00952e+56
1699.40530	6.18646e+56
1700.21160	6.53360e+56
1701.01790	6.41449e+56
1701.82420	6.47021e+56
1702.63050	6.59490e+56
1703.43680	6.70106e+56
1704.24310	6.65432e+56
1705.04940	6.28718e+56
1705.85570	6.28583e+56
1706.66200	6.21441e+56
1707.46830	6.05030e+56
1708.27460	5.96100e+56
1709.08090	5.98945e+56
1709.88720	5.96656e+56
1710.69350	5.97223e+56
1711.49980	5.85704e+56
1712.30610	5.51924e+56
1713.11240	5.52046e+56
1713.91870	5.53100e+56
1714.72500	5.68260e+56
1715.53130	5.85131e+56
1716.33760	5.90110e+56
1717.14390	5.78241e+56
1717.95020	5.53215e+56
1718.75650	5.56537e+56
1719.56280	5.24675e+56
1720.36910	5.15973e+56
1721.17540	5.06595e+56
1721.98170	5.08895e+56
1722.78800	5.10486e+56
1723.59430	5.23538e+56
1724.40060	5.43272e+56
1725.20690	5.17389e+56
1726.01320	5.27686e+56
1726.81950	5.04694e+56
1727.62580	4.98998e+56
1728.43210	5.06281e+56
1729.23840	4.74906e+56
1730.04470	4.93652e+56
1730.85100	4.98289e+56
1731.65730	5.06578e+56
1732.46360	4.85171e+56
1733.26990	4.92063e+56
1734.07620	4.88209e+56
1734.88250	4.93804e+56
1735.68880	4.86268e+56
1736.49510	4.86716e+56
1737.30140	4.91954e+56
1738.10770	5.10835e+56
1738.91400	4.61746e+56
1739.72030	5.05184e+56
1740.52660	5.16811e+56
1741.33290	4.89040e+56
1742.13920	5.07688e+56
1742.94550	4.91515e+56
1743.75180	5.19951e+56
1744.55810	5.42132e+56
1745.36440	5.74875e+56
1746.17070	5.80055e+56
1746.97700	5.89957e+56
1747.78330	5.26276e+56
1748.58960	5.57321e+56
1749.39590	5.45731e+56
1750.20220	5.95465e+56
1751.00850	5.59839e+56
1751.81480	5.91473e+56
1752.62110	5.66051e+56
1753.42740	5.91943e+56
1754.23370	6.31937e+56
1755.04000	6.61071e+56
1755.84630	6.19584e+56
1756.65260	6.62976e+56
1757.45890	6.42395e+56
1758.26520	6.63860e+56
1759.07150	6.57027e+56
1759.87780	6.16303e+56
1760.68410	6.33887e+56
1761.49040	6.01122e+56
1762.29670	5.91395e+56
1763.10300	5.84823e+56
1763.90930	5.70133e+56
1764.71560	5.58449e+56
1765.52190	5.39786e+56
1766.32820	5.51487e+56
1767.13450	5.24053e+56
1767.94080	5.63655e+56
1768.74710	5.62094e+56
1769.55340	5.52985e+56
1770.35970	5.18796e+56
1771.16600	5.19089e+56
1771.97230	5.22344e+56
1772.77860	5.32201e+56
1773.58490	5.39158e+56
1774.39120	5.29490e+56
1775.19750	5.56594e+56
1776.00380	5.04273e+56
1776.81010	4.63882e+56
1777.61640	4.89395e+56
1778.42270	5.32411e+56
1779.22900	5.04377e+56
1780.03530	5.39123e+56
1780.84160	5.02920e+56
1781.64790	5.33817e+56
1782.45420	5.16548e+56
1783.26050	5.30235e+56
1784.06680	5.11990e+56
1784.87310	5.31951e+56
1785.67940	5.45334e+56
1786.48570	5.25699e+56
1787.29200	5.39205e+56
1788.09830	5.20526e+56
1788.90460	5.15347e+56
1789.71090	5.18479e+56
1790.51720	5.01465e+56
1791.32350	5.41807e+56
1792.12980	5.29002e+56
1792.93610	5.22659e+56
1793.74240	5.08446e+56
1794.54870	5.32710e+56
1795.35500	5.32912e+56
1796.16130	5.20018e+56
1796.96760	5.41973e+56
1797.77390	5.46822e+56
1798.58020	5.27531e+56
1799.38650	5.70832e+56
1800.19280	5.57554e+56
1800.99910	5.57745e+56
1801.80540	5.78488e+56
1802.61170	6.07641e+56
1803.41800	5.50514e+56
1804.22430	5.93698e+56
1805.03060	6.23563e+56
