#sample_217_stacked_spectrum_rest_UV-bands_median_H-alpha_noDC.txt
#median Lum: 1.70894e+42
#Rest-frame wavelength (A) | Luminosity (erg/s/A)
#
          1110.00000	         0.00000e+00
          1110.80630	         3.60572e+59
          1111.61260	         2.90755e+59
          1112.41890	         3.55566e+59
          1113.22520	        -8.01331e+58
          1114.03150	        -1.40357e+59
          1114.83780	         2.18496e+59
          1115.64410	         7.85240e+58
          1116.45040	         1.99901e+59
          1117.25670	        -2.33127e+58
          1118.06300	        -1.22809e+59
          1118.86930	        -1.87252e+58
          1119.67560	         8.12368e+58
          1120.48190	         4.66681e+58
          1121.28820	        -2.55489e+58
          1122.09450	         3.99401e+57
          1122.90080	         4.84260e+58
          1123.70710	         5.86088e+58
          1124.51340	         2.14591e+58
          1125.31970	        -2.20761e+58
          1126.12600	        -9.46911e+57
          1126.93230	        -1.84866e+58
          1127.73860	        -8.14327e+58
          1128.54490	        -4.13929e+58
          1129.35120	         5.80706e+57
          1130.15750	        -1.70434e+57
          1130.96380	        -3.58457e+58
          1131.77010	         3.13997e+58
          1132.57640	         5.51286e+58
          1133.38270	         3.41416e+58
          1134.18900	         1.28549e+57
          1134.99530	         2.44171e+58
          1135.80160	         6.54097e+57
          1136.60790	         2.22573e+58
          1137.41420	        -3.21561e+57
          1138.22050	         2.20067e+58
          1139.02680	         1.45837e+58
          1139.83310	         3.22894e+58
          1140.63940	         1.39683e+58
          1141.44570	         3.54170e+56
          1142.25200	        -1.66168e+57
          1143.05830	         2.02793e+58
          1143.86460	         1.92008e+58
          1144.67090	         1.68342e+58
          1145.47720	         4.02901e+57
          1146.28350	         5.77318e+57
          1147.08980	         1.21377e+58
          1147.89610	         1.65650e+58
          1148.70240	         2.02119e+58
          1149.50870	         1.72240e+58
          1150.31500	         1.66876e+58
          1151.12130	         2.24808e+57
          1151.92760	        -9.79850e+57
          1152.73390	        -1.65564e+58
          1153.54020	        -1.24571e+58
          1154.34650	         2.14427e+58
          1155.15280	         1.64124e+58
          1155.95910	        -1.18240e+58
          1156.76540	         4.85583e+57
          1157.57170	         4.67618e+57
          1158.37800	         5.55231e+57
          1159.18430	         4.74971e+56
          1159.99060	         7.98301e+57
          1160.79690	         8.32045e+57
          1161.60320	         1.49056e+58
          1162.40950	         1.13960e+58
          1163.21580	         2.13396e+58
          1164.02210	         1.30733e+58
          1164.82840	         3.15731e+57
          1165.63470	         2.71794e+58
          1166.44100	         3.46230e+58
          1167.24730	         1.80161e+58
          1168.05360	         1.08535e+58
          1168.85990	         3.60533e+57
          1169.66620	         9.97732e+57
          1170.47250	         1.08429e+58
          1171.27880	         5.33047e+57
          1172.08510	         1.99773e+58
          1172.89140	         1.94830e+58
          1173.69770	         4.32117e+57
          1174.50400	         6.84799e+57
          1175.31030	         1.75933e+58
          1176.11660	         1.93645e+58
          1176.92290	         1.50008e+58
          1177.72920	         1.67033e+58
          1178.53550	         4.72115e+57
          1179.34180	         1.21633e+57
          1180.14810	         4.58505e+57
          1180.95440	         7.68490e+57
          1181.76070	         9.77449e+57
          1182.56700	         8.58302e+57
          1183.37330	         4.97363e+57
          1184.17960	         1.19162e+58
          1184.98590	         1.24140e+58
          1185.79220	         9.37015e+57
          1186.59850	         1.29621e+58
          1187.40480	         1.11566e+58
          1188.21110	         1.26501e+58
          1189.01740	         7.61834e+57
          1189.82370	         1.38847e+58
          1190.63000	         1.61622e+58
          1191.43630	         1.23585e+58
          1192.24260	         1.06048e+58
          1193.04890	         1.49049e+58
          1193.85520	         1.69939e+58
          1194.66150	         1.06246e+58
          1195.46780	         1.39470e+58
          1196.27410	         1.38372e+58
          1197.08040	         9.53480e+57
          1197.88670	         1.19355e+58
          1198.69300	         1.44569e+58
          1199.49930	         1.64342e+58
          1200.30560	         1.38885e+58
          1201.11190	         1.21486e+58
          1201.91820	         1.03346e+58
          1202.72450	         7.14344e+57
          1203.53080	         1.37603e+58
          1204.33710	         9.87912e+57
          1205.14340	         8.48055e+57
          1205.94970	         8.17770e+57
          1206.75600	         8.47720e+57
          1207.56230	         5.98172e+57
          1208.36860	         5.62115e+57
          1209.17490	         3.38852e+57
          1209.98120	         4.40726e+57
          1210.78750	         5.04485e+57
          1211.59380	         1.07659e+58
          1212.40010	         1.80899e+58
          1213.20640	         1.88768e+58
          1214.01270	         1.98535e+58
          1214.81900	         2.62215e+58
          1215.62530	         4.52667e+58
          1216.43160	         8.99574e+58
          1217.23790	         1.49735e+59
          1218.04420	         1.09219e+59
          1218.85050	         8.47532e+58
          1219.65680	         5.61993e+58
          1220.46310	         3.18015e+58
          1221.26940	         2.44348e+58
          1222.07570	         1.61758e+58
          1222.88200	         1.39994e+58
          1223.68830	         1.06401e+58
          1224.49460	         4.01444e+57
          1225.30090	         5.36705e+57
          1226.10720	         5.41101e+57
          1226.91350	         4.34050e+57
          1227.71980	         6.75758e+57
          1228.52610	         1.16193e+58
          1229.33240	         8.33633e+57
          1230.13870	         7.41332e+57
          1230.94500	         8.36089e+57
          1231.75130	         7.59892e+57
          1232.55760	         8.15393e+57
          1233.36390	         9.14906e+57
          1234.17020	         9.13853e+57
          1234.97650	         6.57295e+57
          1235.78280	         6.45338e+57
          1236.58910	         8.04368e+57
          1237.39540	         1.05931e+58
          1238.20170	         1.22799e+58
          1239.00800	         1.41548e+58
          1239.81430	         1.67459e+58
          1240.62060	         1.04138e+58
          1241.42690	         8.65891e+57
          1242.23320	         1.10018e+58
          1243.03950	         7.26238e+57
          1243.84580	         8.37364e+57
          1244.65210	         1.07972e+58
          1245.45840	         1.02705e+58
          1246.26470	         8.37316e+57
          1247.07100	         5.84755e+57
          1247.87730	         3.96528e+57
          1248.68360	         1.94491e+57
          1249.48990	         4.26407e+57
          1250.29620	         7.88931e+57
          1251.10250	         5.99057e+57
          1251.90880	         3.66318e+57
          1252.71510	         5.68237e+57
          1253.52140	         6.92146e+57
          1254.32770	         6.49921e+57
          1255.13400	         1.10599e+58
          1255.94030	         1.18090e+58
          1256.74660	         9.03872e+57
          1257.55290	         1.17111e+58
          1258.35920	         9.82564e+57
          1259.16550	         4.92741e+57
          1259.97180	         5.95738e+57
          1260.77810	         8.46092e+57
          1261.58440	         9.71708e+57
          1262.39070	         7.44767e+57
          1263.19700	         7.74103e+57
          1264.00330	         1.23680e+58
          1264.80960	         1.23760e+58
          1265.61590	         1.18492e+58
          1266.42220	         1.28345e+58
          1267.22850	         1.15366e+58
          1268.03480	         1.43586e+58
          1268.84110	         1.66602e+58
          1269.64740	         1.49484e+58
          1270.45370	         1.24082e+58
          1271.26000	         1.07748e+58
          1272.06630	         1.23125e+58
          1272.87260	         1.26145e+58
          1273.67890	         1.20996e+58
          1274.48520	         1.19687e+58
          1275.29150	         1.43070e+58
          1276.09780	         1.36959e+58
          1276.90410	         1.37355e+58
          1277.71040	         1.17423e+58
          1278.51670	         1.17411e+58
          1279.32300	         1.29823e+58
          1280.12930	         1.20101e+58
          1280.93560	         9.85995e+57
          1281.74190	         9.87173e+57
          1282.54820	         1.15052e+58
          1283.35450	         1.04047e+58
          1284.16080	         9.51927e+57
          1284.96710	         1.10241e+58
          1285.77340	         1.08942e+58
          1286.57970	         1.16426e+58
          1287.38600	         1.41008e+58
          1288.19230	         1.72537e+58
          1288.99860	         1.47319e+58
          1289.80490	         8.46641e+57
          1290.61120	         1.18522e+58
          1291.41750	         1.56886e+58
          1292.22380	         1.33343e+58
          1293.03010	         1.03090e+58
          1293.83640	         1.09077e+58
          1294.64270	         1.03675e+58
          1295.44900	         7.64548e+57
          1296.25530	         7.73046e+57
          1297.06160	         9.45151e+57
          1297.86790	         9.49105e+57
          1298.67420	         9.66367e+57
          1299.48050	         1.07100e+58
          1300.28680	         1.03701e+58
          1301.09310	         7.88884e+57
          1301.89940	         4.81561e+57
          1302.70570	         7.48910e+57
          1303.51200	         8.45822e+57
          1304.31830	         1.06385e+58
          1305.12460	         1.13382e+58
          1305.93090	         1.05846e+58
          1306.73720	         1.22162e+58
          1307.54350	         1.55023e+58
          1308.34980	         1.51561e+58
          1309.15610	         1.49352e+58
          1309.96240	         1.62118e+58
          1310.76870	         1.33357e+58
          1311.57500	         1.20169e+58
          1312.38130	         1.26714e+58
          1313.18760	         1.28734e+58
          1313.99390	         1.38891e+58
          1314.80020	         1.56135e+58
          1315.60650	         1.38987e+58
          1316.41280	         1.05309e+58
          1317.21910	         9.16826e+57
          1318.02540	         1.19598e+58
          1318.83170	         1.39327e+58
          1319.63800	         1.25640e+58
          1320.44430	         1.24125e+58
          1321.25060	         1.30620e+58
          1322.05690	         1.33396e+58
          1322.86320	         1.18855e+58
          1323.66950	         1.10063e+58
          1324.47580	         8.81175e+57
          1325.28210	         9.05963e+57
          1326.08840	         9.60762e+57
          1326.89470	         1.05068e+58
          1327.70100	         9.89847e+57
          1328.50730	         7.97112e+57
          1329.31360	         9.33991e+57
          1330.11990	         1.03984e+58
          1330.92620	         1.03369e+58
          1331.73250	         1.25079e+58
          1332.53880	         1.15013e+58
          1333.34510	         8.55620e+57
          1334.15140	         8.10477e+57
          1334.95770	         8.77280e+57
          1335.76400	         1.00997e+58
          1336.57030	         1.03248e+58
          1337.37660	         9.75572e+57
          1338.18290	         1.04924e+58
          1338.98920	         1.13294e+58
          1339.79550	         9.96789e+57
          1340.60180	         9.85531e+57
          1341.40810	         1.21545e+58
          1342.21440	         1.15459e+58
          1343.02070	         1.19261e+58
          1343.82700	         1.48723e+58
          1344.63330	         1.36338e+58
          1345.43960	         1.37587e+58
          1346.24590	         1.17371e+58
          1347.05220	         1.10353e+58
          1347.85850	         1.12470e+58
          1348.66480	         1.24492e+58
          1349.47110	         1.32880e+58
          1350.27740	         1.18757e+58
          1351.08370	         1.20228e+58
          1351.89000	         1.13749e+58
          1352.69630	         1.02652e+58
          1353.50260	         1.09357e+58
          1354.30890	         1.16817e+58
          1355.11520	         1.25463e+58
          1355.92150	         1.14721e+58
          1356.72780	         1.02344e+58
          1357.53410	         1.13572e+58
          1358.34040	         1.25531e+58
          1359.14670	         1.14926e+58
          1359.95300	         1.05826e+58
          1360.75930	         1.10776e+58
          1361.56560	         1.15923e+58
          1362.37190	         1.25026e+58
          1363.17820	         1.14012e+58
          1363.98450	         1.17126e+58
          1364.79080	         1.23303e+58
          1365.59710	         1.15177e+58
          1366.40340	         1.21009e+58
          1367.20970	         1.02396e+58
          1368.01600	         1.01163e+58
          1368.82230	         1.15469e+58
          1369.62860	         1.14592e+58
          1370.43490	         8.96191e+57
          1371.24120	         9.91972e+57
          1372.04750	         1.00207e+58
          1372.85380	         9.68439e+57
          1373.66010	         1.05380e+58
          1374.46640	         1.00527e+58
          1375.27270	         9.72781e+57
          1376.07900	         9.07175e+57
          1376.88530	         8.81163e+57
          1377.69160	         7.90919e+57
          1378.49790	         6.60282e+57
          1379.30420	         8.16788e+57
          1380.11050	         9.66542e+57
          1380.91680	         8.84010e+57
          1381.72310	         7.58520e+57
          1382.52940	         8.21893e+57
          1383.33570	         8.77412e+57
          1384.14200	         1.10187e+58
          1384.94830	         1.26428e+58
          1385.75460	         1.14003e+58
          1386.56090	         1.03989e+58
          1387.36720	         1.06951e+58
          1388.17350	         1.30364e+58
          1388.97980	         1.18959e+58
          1389.78610	         1.06405e+58
          1390.59240	         9.38890e+57
          1391.39870	         6.41906e+57
          1392.20500	         7.85512e+57
          1393.01130	         7.71840e+57
          1393.81760	         8.21273e+57
          1394.62390	         8.50831e+57
          1395.43020	         6.21166e+57
          1396.23650	         6.52666e+57
          1397.04280	         8.31502e+57
          1397.84910	         8.56053e+57
          1398.65540	         9.20212e+57
          1399.46170	         1.00118e+58
          1400.26800	         8.31126e+57
          1401.07430	         7.64732e+57
          1401.88060	         7.90401e+57
          1402.68690	         9.55079e+57
          1403.49320	         9.81936e+57
          1404.29950	         8.96196e+57
          1405.10580	         9.83084e+57
          1405.91210	         1.14408e+58
          1406.71840	         1.15991e+58
          1407.52470	         1.00988e+58
          1408.33100	         9.80047e+57
          1409.13730	         1.17723e+58
          1409.94360	         1.22239e+58
          1410.74990	         1.08228e+58
          1411.55620	         9.43581e+57
          1412.36250	         8.01726e+57
          1413.16880	         8.26283e+57
          1413.97510	         8.04798e+57
          1414.78140	         7.97934e+57
          1415.58770	         1.06857e+58
          1416.39400	         1.14177e+58
          1417.20030	         1.21101e+58
          1418.00660	         1.06916e+58
          1418.81290	         1.04432e+58
          1419.61920	         1.11677e+58
          1420.42550	         1.32712e+58
          1421.23180	         1.36275e+58
          1422.03810	         1.25747e+58
          1422.84440	         1.09655e+58
          1423.65070	         1.15531e+58
          1424.45700	         1.10054e+58
          1425.26330	         8.22326e+57
          1426.06960	         8.21053e+57
          1426.87590	         1.01638e+58
          1427.68220	         1.00399e+58
          1428.48850	         1.04615e+58
          1429.29480	         9.85679e+57
          1430.10110	         9.37656e+57
          1430.90740	         8.57238e+57
          1431.71370	         9.15792e+57
          1432.52000	         8.10260e+57
          1433.32630	         8.01734e+57
          1434.13260	         8.38541e+57
          1434.93890	         7.64985e+57
          1435.74520	         9.30830e+57
          1436.55150	         1.01047e+58
          1437.35780	         8.64496e+57
          1438.16410	         8.60840e+57
          1438.97040	         8.23633e+57
          1439.77670	         8.89845e+57
          1440.58300	         9.05418e+57
          1441.38930	         8.02074e+57
          1442.19560	         9.14267e+57
          1443.00190	         1.00125e+58
          1443.80820	         1.05635e+58
          1444.61450	         9.18317e+57
          1445.42080	         7.84524e+57
          1446.22710	         8.99975e+57
          1447.03340	         8.69390e+57
          1447.83970	         1.03727e+58
          1448.64600	         1.10012e+58
          1449.45230	         9.77488e+57
          1450.25860	         9.44877e+57
          1451.06490	         9.36839e+57
          1451.87120	         8.54817e+57
          1452.67750	         7.50409e+57
          1453.48380	         8.24358e+57
          1454.29010	         7.99558e+57
          1455.09640	         7.31004e+57
          1455.90270	         8.50142e+57
          1456.70900	         9.11279e+57
          1457.51530	         1.01032e+58
          1458.32160	         1.20942e+58
          1459.12790	         1.19462e+58
          1459.93420	         9.85019e+57
          1460.74050	         6.93457e+57
          1461.54680	         7.28762e+57
          1462.35310	         7.91904e+57
          1463.15940	         1.02350e+58
          1463.96570	         1.22053e+58
          1464.77200	         1.19013e+58
          1465.57830	         9.98568e+57
          1466.38460	         8.01822e+57
          1467.19090	         8.15551e+57
          1467.99720	         9.84404e+57
          1468.80350	         9.75994e+57
          1469.60980	         1.00362e+58
          1470.41610	         1.00476e+58
          1471.22240	         8.41812e+57
          1472.02870	         9.16899e+57
          1472.83500	         9.48665e+57
          1473.64130	         8.73751e+57
          1474.44760	         8.44432e+57
          1475.25390	         8.19025e+57
          1476.06020	         8.19499e+57
          1476.86650	         8.15685e+57
          1477.67280	         7.96868e+57
          1478.47910	         7.36088e+57
          1479.28540	         7.17937e+57
          1480.09170	         9.06737e+57
          1480.89800	         9.59579e+57
          1481.70430	         9.67735e+57
          1482.51060	         8.80248e+57
          1483.31690	         7.80024e+57
          1484.12320	         8.95723e+57
          1484.92950	         9.61416e+57
          1485.73580	         9.38474e+57
          1486.54210	         9.17241e+57
          1487.34840	         8.16194e+57
          1488.15470	         8.31304e+57
          1488.96100	         9.17708e+57
          1489.76730	         8.98727e+57
