#sample_105_stacked_spectrum_rest_UV-bands_median_H-alpha_noDC.txt
#median Lum: 1.68542e+42
#Rest-frame wavelength (A) | Luminosity (erg/s/A)
#
          1110.00000	         0.00000e+00
          1110.80630	        -1.74295e+59
          1111.61260	         4.73912e+58
          1112.41890	         6.59815e+58
          1113.22520	        -6.69877e+58
          1114.03150	         1.33123e+59
          1114.83780	         2.48167e+59
          1115.64410	         1.35656e+59
          1116.45040	         7.36283e+58
          1117.25670	        -1.63945e+57
          1118.06300	        -1.28076e+58
          1118.86930	        -4.53028e+58
          1119.67560	         1.01954e+59
          1120.48190	        -3.19804e+58
          1121.28820	        -1.23166e+59
          1122.09450	        -2.72908e+58
          1122.90080	        -1.45947e+58
          1123.70710	         4.01835e+58
          1124.51340	         5.61514e+58
          1125.31970	         1.05222e+58
          1126.12600	         3.66250e+58
          1126.93230	        -4.34041e+58
          1127.73860	        -9.24854e+58
          1128.54490	        -5.19632e+58
          1129.35120	        -2.72317e+58
          1130.15750	        -1.91949e+58
          1130.96380	        -2.37918e+58
          1131.77010	         4.72218e+58
          1132.57640	         7.28086e+58
          1133.38270	         1.88911e+58
          1134.18900	         3.40887e+58
          1134.99530	         1.81609e+58
          1135.80160	         3.75278e+58
          1136.60790	         2.60217e+58
          1137.41420	         2.55626e+58
          1138.22050	         6.50483e+58
          1139.02680	         3.60285e+58
          1139.83310	         2.69469e+57
          1140.63940	         9.96213e+57
          1141.44570	         1.40664e+58
          1142.25200	        -2.85860e+57
          1143.05830	         2.74661e+58
          1143.86460	         5.29905e+58
          1144.67090	         2.45067e+58
          1145.47720	         1.02319e+58
          1146.28350	         1.53444e+58
          1147.08980	         1.89920e+58
          1147.89610	         1.63593e+58
          1148.70240	         2.55645e+58
          1149.50870	         2.64460e+58
          1150.31500	         1.37927e+58
          1151.12130	         1.27977e+58
          1151.92760	         1.46697e+58
          1152.73390	        -2.49239e+57
          1153.54020	        -5.49230e+57
          1154.34650	         1.44773e+58
          1155.15280	         2.20352e+58
          1155.95910	         9.76070e+56
          1156.76540	         2.59324e+56
          1157.57170	         1.07522e+58
          1158.37800	         4.65327e+57
          1159.18430	         3.02270e+56
          1159.99060	         1.09256e+58
          1160.79690	         4.42208e+57
          1161.60320	         1.95673e+58
          1162.40950	         1.52402e+58
          1163.21580	         1.29142e+58
          1164.02210	         1.60786e+58
          1164.82840	         1.39032e+58
          1165.63470	         1.67823e+58
          1166.44100	         3.24991e+58
          1167.24730	         2.64102e+58
          1168.05360	         8.90719e+57
          1168.85990	         3.63681e+55
          1169.66620	        -4.58478e+56
          1170.47250	         8.13351e+57
          1171.27880	         4.76668e+57
          1172.08510	         2.71683e+57
          1172.89140	         9.26576e+57
          1173.69770	         7.90853e+57
          1174.50400	         6.02965e+57
          1175.31030	         1.42765e+58
          1176.11660	         1.40539e+58
          1176.92290	         1.61584e+58
          1177.72920	         1.25652e+58
          1178.53550	         5.45089e+57
          1179.34180	         3.10557e+57
          1180.14810	         9.22465e+57
          1180.95440	         9.75038e+57
          1181.76070	         7.13356e+57
          1182.56700	         1.22329e+58
          1183.37330	         1.18527e+58
          1184.17960	         1.10953e+58
          1184.98590	         8.30383e+57
          1185.79220	         5.60579e+57
          1186.59850	         8.43985e+57
          1187.40480	         1.50383e+58
          1188.21110	         1.75337e+58
          1189.01740	         1.47372e+58
          1189.82370	         1.72788e+58
          1190.63000	         1.08874e+58
          1191.43630	         1.66093e+58
          1192.24260	         1.12257e+58
          1193.04890	         1.26066e+58
          1193.85520	         9.76117e+57
          1194.66150	         9.76530e+56
          1195.46780	         1.13625e+58
          1196.27410	         1.67106e+58
          1197.08040	         1.43076e+58
          1197.88670	         1.38358e+58
          1198.69300	         1.68108e+58
          1199.49930	         2.00962e+58
          1200.30560	         1.40456e+58
          1201.11190	         1.22506e+58
          1201.91820	         1.11263e+58
          1202.72450	         8.90632e+57
          1203.53080	         1.44916e+58
          1204.33710	         9.87241e+57
          1205.14340	         4.76087e+57
          1205.94970	         6.82649e+57
          1206.75600	         5.16550e+57
          1207.56230	         5.34341e+57
          1208.36860	         6.08599e+57
          1209.17490	         3.39412e+57
          1209.98120	         3.82729e+57
          1210.78750	         4.75015e+57
          1211.59380	         8.91110e+57
          1212.40010	         1.81928e+58
          1213.20640	         2.08664e+58
          1214.01270	         2.31402e+58
          1214.81900	         2.88032e+58
          1215.62530	         4.71676e+58
          1216.43160	         9.19621e+58
          1217.23790	         1.52603e+59
          1218.04420	         1.09719e+59
          1218.85050	         8.74483e+58
          1219.65680	         6.13001e+58
          1220.46310	         3.68338e+58
          1221.26940	         2.61905e+58
          1222.07570	         1.47219e+58
          1222.88200	         1.14962e+58
          1223.68830	         1.00546e+58
          1224.49460	         7.93038e+57
          1225.30090	         6.06470e+57
          1226.10720	         4.38692e+57
          1226.91350	         5.18370e+57
          1227.71980	         6.58126e+57
          1228.52610	         1.28750e+58
          1229.33240	         1.19285e+58
          1230.13870	         1.14518e+58
          1230.94500	         9.96101e+57
          1231.75130	         5.49057e+57
          1232.55760	         7.85494e+57
          1233.36390	         8.78811e+57
          1234.17020	         7.35581e+57
          1234.97650	         7.50736e+57
          1235.78280	         8.46573e+57
          1236.58910	         8.56576e+57
          1237.39540	         9.29403e+57
          1238.20170	         8.83837e+57
          1239.00800	         1.03675e+58
          1239.81430	         1.33220e+58
          1240.62060	         1.28913e+58
          1241.42690	         1.31275e+58
          1242.23320	         1.30411e+58
          1243.03950	         8.76761e+57
          1243.84580	         7.13927e+57
          1244.65210	         1.11648e+58
          1245.45840	         9.81395e+57
          1246.26470	         7.74115e+57
          1247.07100	         4.90777e+57
          1247.87730	         5.56793e+57
          1248.68360	         5.14224e+57
          1249.48990	         8.11930e+57
          1250.29620	         9.21212e+57
          1251.10250	         7.16960e+57
          1251.90880	         5.56000e+57
          1252.71510	         7.95407e+57
          1253.52140	         9.39612e+57
          1254.32770	         1.16169e+58
          1255.13400	         1.38472e+58
          1255.94030	         8.68861e+57
          1256.74660	         9.93583e+57
          1257.55290	         1.22739e+58
          1258.35920	         9.73286e+57
          1259.16550	         4.87603e+57
          1259.97180	         3.50214e+57
          1260.77810	         7.14836e+57
          1261.58440	         9.47388e+57
          1262.39070	         7.78561e+57
          1263.19700	         7.67018e+57
          1264.00330	         9.28910e+57
          1264.80960	         1.13578e+58
          1265.61590	         1.16677e+58
          1266.42220	         9.29558e+57
          1267.22850	         1.00633e+58
          1268.03480	         1.40012e+58
          1268.84110	         1.60084e+58
          1269.64740	         1.51154e+58
          1270.45370	         1.46226e+58
          1271.26000	         1.24220e+58
          1272.06630	         1.19393e+58
          1272.87260	         1.23387e+58
          1273.67890	         1.38509e+58
          1274.48520	         1.22923e+58
          1275.29150	         1.37459e+58
          1276.09780	         1.35681e+58
          1276.90410	         1.51451e+58
          1277.71040	         1.37758e+58
          1278.51670	         1.13157e+58
          1279.32300	         1.29585e+58
          1280.12930	         1.22758e+58
          1280.93560	         1.12895e+58
          1281.74190	         1.11197e+58
          1282.54820	         1.19279e+58
          1283.35450	         1.11899e+58
          1284.16080	         1.38212e+58
          1284.96710	         1.47611e+58
          1285.77340	         1.15561e+58
          1286.57970	         1.07046e+58
          1287.38600	         1.49858e+58
          1288.19230	         1.61141e+58
          1288.99860	         1.38976e+58
          1289.80490	         1.28890e+58
          1290.61120	         1.23263e+58
          1291.41750	         1.35931e+58
          1292.22380	         1.21855e+58
          1293.03010	         9.54995e+57
          1293.83640	         1.04361e+58
          1294.64270	         9.77806e+57
          1295.44900	         6.58855e+57
          1296.25530	         7.77016e+57
          1297.06160	         1.06511e+58
          1297.86790	         9.33173e+57
          1298.67420	         7.25105e+57
          1299.48050	         8.80660e+57
          1300.28680	         1.00595e+58
          1301.09310	         6.98267e+57
          1301.89940	         3.76531e+57
          1302.70570	         6.05058e+57
          1303.51200	         6.74754e+57
          1304.31830	         7.90867e+57
          1305.12460	         1.07522e+58
          1305.93090	         1.14983e+58
          1306.73720	         1.21042e+58
          1307.54350	         1.43213e+58
          1308.34980	         1.64288e+58
          1309.15610	         1.73042e+58
          1309.96240	         1.64235e+58
          1310.76870	         1.45514e+58
          1311.57500	         1.25355e+58
          1312.38130	         1.06292e+58
          1313.18760	         1.30225e+58
          1313.99390	         1.40330e+58
          1314.80020	         1.44578e+58
          1315.60650	         1.52241e+58
          1316.41280	         1.39918e+58
          1317.21910	         1.02434e+58
          1318.02540	         1.10011e+58
          1318.83170	         1.40031e+58
          1319.63800	         1.30704e+58
          1320.44430	         9.53539e+57
          1321.25060	         1.20346e+58
          1322.05690	         1.29898e+58
          1322.86320	         1.18350e+58
          1323.66950	         1.15246e+58
          1324.47580	         9.13269e+57
          1325.28210	         7.61859e+57
          1326.08840	         9.44683e+57
          1326.89470	         1.27582e+58
          1327.70100	         1.15816e+58
          1328.50730	         9.79364e+57
          1329.31360	         9.58395e+57
          1330.11990	         8.69390e+57
          1330.92620	         9.00830e+57
          1331.73250	         1.10060e+58
          1332.53880	         9.72981e+57
          1333.34510	         8.60119e+57
          1334.15140	         1.01752e+58
          1334.95770	         1.00256e+58
          1335.76400	         1.07197e+58
          1336.57030	         1.14496e+58
          1337.37660	         1.06199e+58
          1338.18290	         1.01546e+58
          1338.98920	         1.17384e+58
          1339.79550	         1.20508e+58
          1340.60180	         1.16671e+58
          1341.40810	         1.33454e+58
          1342.21440	         1.28541e+58
          1343.02070	         1.41213e+58
          1343.82700	         1.37345e+58
          1344.63330	         1.10490e+58
          1345.43960	         1.15314e+58
          1346.24590	         1.21294e+58
          1347.05220	         1.19100e+58
          1347.85850	         9.30426e+57
          1348.66480	         1.10334e+58
          1349.47110	         1.34050e+58
          1350.27740	         1.22302e+58
          1351.08370	         1.23790e+58
          1351.89000	         1.18434e+58
          1352.69630	         1.15365e+58
          1353.50260	         1.13768e+58
          1354.30890	         1.18749e+58
          1355.11520	         1.18685e+58
          1355.92150	         1.13416e+58
          1356.72780	         1.00621e+58
          1357.53410	         1.00555e+58
          1358.34040	         1.17792e+58
          1359.14670	         1.01896e+58
          1359.95300	         1.11927e+58
          1360.75930	         1.20050e+58
          1361.56560	         1.19380e+58
          1362.37190	         1.28526e+58
          1363.17820	         1.13146e+58
          1363.98450	         1.24654e+58
          1364.79080	         1.33161e+58
          1365.59710	         1.23082e+58
          1366.40340	         1.25847e+58
          1367.20970	         9.78942e+57
          1368.01600	         8.71434e+57
          1368.82230	         9.46749e+57
          1369.62860	         9.27189e+57
          1370.43490	         9.31249e+57
          1371.24120	         9.65913e+57
          1372.04750	         1.09645e+58
          1372.85380	         1.07769e+58
          1373.66010	         1.10450e+58
          1374.46640	         1.13930e+58
          1375.27270	         1.00425e+58
          1376.07900	         9.06151e+57
          1376.88530	         8.30826e+57
          1377.69160	         8.82782e+57
          1378.49790	         7.91031e+57
          1379.30420	         7.46319e+57
          1380.11050	         9.41661e+57
          1380.91680	         8.28691e+57
          1381.72310	         6.98079e+57
          1382.52940	         7.00550e+57
          1383.33570	         8.54476e+57
          1384.14200	         1.11114e+58
          1384.94830	         1.14823e+58
          1385.75460	         1.12800e+58
          1386.56090	         1.09716e+58
          1387.36720	         1.03987e+58
          1388.17350	         1.23413e+58
          1388.97980	         1.12677e+58
          1389.78610	         9.59755e+57
          1390.59240	         8.38332e+57
          1391.39870	         7.33533e+57
          1392.20500	         9.63468e+57
          1393.01130	         7.51666e+57
          1393.81760	         7.47739e+57
          1394.62390	         8.56393e+57
          1395.43020	         8.22960e+57
          1396.23650	         8.10643e+57
          1397.04280	         7.38783e+57
          1397.84910	         8.70741e+57
          1398.65540	         1.08575e+58
          1399.46170	         1.12557e+58
          1400.26800	         9.16730e+57
          1401.07430	         7.05724e+57
          1401.88060	         7.69033e+57
          1402.68690	         8.73442e+57
          1403.49320	         9.51077e+57
          1404.29950	         9.84251e+57
          1405.10580	         1.11265e+58
          1405.91210	         1.14632e+58
          1406.71840	         1.10593e+58
          1407.52470	         1.12752e+58
          1408.33100	         8.93398e+57
          1409.13730	         1.10790e+58
          1409.94360	         1.25212e+58
          1410.74990	         1.18942e+58
          1411.55620	         1.04992e+58
          1412.36250	         9.38022e+57
          1413.16880	         9.05048e+57
          1413.97510	         8.16481e+57
          1414.78140	         8.96624e+57
          1415.58770	         1.00059e+58
          1416.39400	         9.22775e+57
          1417.20030	         9.51604e+57
          1418.00660	         8.60899e+57
          1418.81290	         8.49379e+57
          1419.61920	         9.34913e+57
          1420.42550	         1.34061e+58
          1421.23180	         1.41690e+58
          1422.03810	         1.27676e+58
          1422.84440	         1.13920e+58
          1423.65070	         1.16779e+58
          1424.45700	         1.03889e+58
          1425.26330	         8.59419e+57
          1426.06960	         9.23223e+57
          1426.87590	         9.61735e+57
          1427.68220	         9.78627e+57
          1428.48850	         1.11295e+58
          1429.29480	         1.14607e+58
          1430.10110	         1.03441e+58
          1430.90740	         7.88667e+57
          1431.71370	         8.78396e+57
          1432.52000	         1.00382e+58
          1433.32630	         8.84297e+57
          1434.13260	         8.41617e+57
          1434.93890	         8.90322e+57
          1435.74520	         9.57757e+57
          1436.55150	         1.02995e+58
          1437.35780	         1.02163e+58
          1438.16410	         9.82663e+57
          1438.97040	         9.49433e+57
          1439.77670	         9.06685e+57
          1440.58300	         8.76043e+57
          1441.38930	         9.61768e+57
          1442.19560	         1.01055e+58
          1443.00190	         1.01551e+58
          1443.80820	         1.11424e+58
          1444.61450	         9.83315e+57
          1445.42080	         8.47614e+57
          1446.22710	         9.61925e+57
          1447.03340	         8.42305e+57
          1447.83970	         9.05930e+57
          1448.64600	         1.11874e+58
          1449.45230	         1.02157e+58
          1450.25860	         8.75487e+57
          1451.06490	         8.55982e+57
          1451.87120	         8.36685e+57
          1452.67750	         7.97065e+57
          1453.48380	         9.59126e+57
          1454.29010	         8.31898e+57
          1455.09640	         7.81874e+57
          1455.90270	         8.86733e+57
          1456.70900	         9.29332e+57
          1457.51530	         9.88927e+57
          1458.32160	         1.20685e+58
          1459.12790	         1.20839e+58
          1459.93420	         9.71517e+57
          1460.74050	         6.62337e+57
          1461.54680	         6.53596e+57
          1462.35310	         6.58964e+57
          1463.15940	         1.00715e+58
          1463.96570	         1.18395e+58
          1464.77200	         1.14847e+58
          1465.57830	         1.12965e+58
          1466.38460	         9.29474e+57
          1467.19090	         8.85262e+57
          1467.99720	         9.23945e+57
          1468.80350	         9.45354e+57
          1469.60980	         1.02161e+58
          1470.41610	         1.09431e+58
          1471.22240	         8.91404e+57
          1472.02870	         8.78960e+57
          1472.83500	         9.93317e+57
          1473.64130	         1.00158e+58
          1474.44760	         1.03846e+58
          1475.25390	         9.49839e+57
          1476.06020	         8.10270e+57
          1476.86650	         7.60869e+57
          1477.67280	         8.15771e+57
          1478.47910	         7.09984e+57
          1479.28540	         7.26278e+57
          1480.09170	         8.79656e+57
          1480.89800	         7.93050e+57
          1481.70430	         8.49883e+57
          1482.51060	         8.43044e+57
          1483.31690	         7.46107e+57
          1484.12320	         7.03466e+57
          1484.92950	         8.63652e+57
          1485.73580	         9.49025e+57
          1486.54210	         9.48218e+57
          1487.34840	         9.27937e+57
          1488.15470	         7.51544e+57
          1488.96100	         8.73580e+57
          1489.76730	         9.28726e+57
