#sample_87_stacked_spectrum_rest_UV-bands_median_H-alpha_noDC.txt
#median Lum: 1.71318e+42
#Rest-frame wavelength (A) | Luminosity (erg/s/A)
#
          1110.00000	         0.00000e+00
          1110.80630	         2.34705e+59
          1111.61260	         6.45645e+58
          1112.41890	         2.38486e+59
          1113.22520	        -3.67153e+57
          1114.03150	        -3.09834e+58
          1114.83780	         2.41669e+59
          1115.64410	         7.34573e+57
          1116.45040	         3.73949e+58
          1117.25670	         2.40594e+59
          1118.06300	         6.44217e+57
          1118.86930	        -1.63478e+58
          1119.67560	         1.51123e+59
          1120.48190	         8.06478e+58
          1121.28820	        -1.08868e+59
          1122.09450	         5.00423e+57
          1122.90080	         1.72356e+58
          1123.70710	         4.28317e+58
          1124.51340	         5.21515e+58
          1125.31970	         1.15461e+58
          1126.12600	         1.68812e+58
          1126.93230	        -2.22447e+58
          1127.73860	        -3.83908e+58
          1128.54490	        -8.08419e+57
          1129.35120	        -5.44843e+57
          1130.15750	        -3.02551e+58
          1130.96380	        -1.36970e+58
          1131.77010	         8.15802e+58
          1132.57640	         1.72142e+58
          1133.38270	         4.46687e+58
          1134.18900	         1.32033e+58
          1134.99530	         1.74838e+57
          1135.80160	         1.47129e+58
          1136.60790	         9.33962e+57
          1137.41420	        -1.07608e+58
          1138.22050	         3.04653e+58
          1139.02680	         3.38992e+58
          1139.83310	         1.77183e+58
          1140.63940	         1.86088e+58
          1141.44570	        -2.53065e+58
          1142.25200	         2.92844e+57
          1143.05830	         2.84216e+58
          1143.86460	         2.97100e+58
          1144.67090	         2.37777e+58
          1145.47720	         1.62137e+58
          1146.28350	         1.25465e+58
          1147.08980	         1.35812e+58
          1147.89610	         2.13760e+58
          1148.70240	         2.28355e+58
          1149.50870	         2.47795e+58
          1150.31500	         1.67115e+58
          1151.12130	         1.33787e+58
          1151.92760	         1.85784e+57
          1152.73390	         3.42342e+56
          1153.54020	         4.06750e+57
          1154.34650	         2.51295e+58
          1155.15280	         2.83775e+58
          1155.95910	         1.50176e+58
          1156.76540	         1.81391e+58
          1157.57170	         8.45792e+57
          1158.37800	        -9.36932e+56
          1159.18430	        -8.06287e+56
          1159.99060	         5.67652e+57
          1160.79690	         1.86340e+57
          1161.60320	         6.56195e+57
          1162.40950	         1.83765e+58
          1163.21580	         1.78020e+58
          1164.02210	         4.15279e+57
          1164.82840	         3.80046e+57
          1165.63470	         1.96178e+58
          1166.44100	         3.03225e+58
          1167.24730	         1.62205e+58
          1168.05360	         2.64449e+57
          1168.85990	         5.50364e+57
          1169.66620	         9.12156e+57
          1170.47250	         1.21163e+58
          1171.27880	         1.18826e+58
          1172.08510	         1.55231e+58
          1172.89140	         1.61518e+58
          1173.69770	         6.54836e+57
          1174.50400	         1.01575e+58
          1175.31030	         1.14264e+58
          1176.11660	         1.75553e+58
          1176.92290	         1.79467e+58
          1177.72920	         1.64555e+58
          1178.53550	         6.09353e+57
          1179.34180	         2.81179e+57
          1180.14810	         8.81758e+57
          1180.95440	         9.43569e+57
          1181.76070	         7.25817e+57
          1182.56700	         8.79630e+57
          1183.37330	         6.41524e+57
          1184.17960	         1.07738e+58
          1184.98590	         1.27839e+58
          1185.79220	         9.34115e+57
          1186.59850	         1.08516e+58
          1187.40480	         1.20496e+58
          1188.21110	         1.13412e+58
          1189.01740	         8.54152e+57
          1189.82370	         7.18189e+57
          1190.63000	         1.04321e+58
          1191.43630	         1.52896e+58
          1192.24260	         1.10972e+58
          1193.04890	         1.16135e+58
          1193.85520	         8.09547e+57
          1194.66150	         7.15643e+57
          1195.46780	         3.47944e+57
          1196.27410	         7.72968e+57
          1197.08040	         8.65058e+57
          1197.88670	         1.00358e+58
          1198.69300	         1.47371e+58
          1199.49930	         1.51293e+58
          1200.30560	         1.17781e+58
          1201.11190	         1.23708e+58
          1201.91820	         9.39229e+57
          1202.72450	         7.72528e+57
          1203.53080	         1.02644e+58
          1204.33710	         6.70847e+57
          1205.14340	         6.42742e+57
          1205.94970	         7.55883e+57
          1206.75600	         1.22026e+58
          1207.56230	         4.25697e+57
          1208.36860	         7.33542e+57
          1209.17490	         3.43904e+57
          1209.98120	         7.60009e+57
          1210.78750	         9.40004e+57
          1211.59380	         1.71502e+58
          1212.40010	         1.86180e+58
          1213.20640	         1.92064e+58
          1214.01270	         2.01253e+58
          1214.81900	         2.38415e+58
          1215.62530	         4.49215e+58
          1216.43160	         9.25658e+58
          1217.23790	         1.55548e+59
          1218.04420	         1.15190e+59
          1218.85050	         8.53269e+58
          1219.65680	         5.56366e+58
          1220.46310	         3.48620e+58
          1221.26940	         2.28706e+58
          1222.07570	         1.30849e+58
          1222.88200	         1.15455e+58
          1223.68830	         1.35884e+58
          1224.49460	         8.46177e+57
          1225.30090	         6.99283e+57
          1226.10720	         8.46695e+57
          1226.91350	         6.93040e+57
          1227.71980	         9.33454e+57
          1228.52610	         1.10392e+58
          1229.33240	         1.33567e+58
          1230.13870	         1.05431e+58
          1230.94500	         6.29514e+57
          1231.75130	         5.50457e+57
          1232.55760	         8.29422e+57
          1233.36390	         9.60112e+57
          1234.17020	         7.44657e+57
          1234.97650	         1.03633e+58
          1235.78280	         1.00310e+58
          1236.58910	         8.85019e+57
          1237.39540	         9.98394e+57
          1238.20170	         9.71487e+57
          1239.00800	         1.26459e+58
          1239.81430	         1.38399e+58
          1240.62060	         1.09249e+58
          1241.42690	         1.16344e+58
          1242.23320	         1.08217e+58
          1243.03950	         7.58727e+57
          1243.84580	         8.32237e+57
          1244.65210	         9.56324e+57
          1245.45840	         9.89954e+57
          1246.26470	         1.12383e+58
          1247.07100	         7.51323e+57
          1247.87730	         9.31304e+57
          1248.68360	         3.51495e+57
          1249.48990	         7.08256e+57
          1250.29620	         1.19755e+58
          1251.10250	         9.05191e+57
          1251.90880	         4.78073e+57
          1252.71510	         4.36392e+57
          1253.52140	         6.08714e+57
          1254.32770	         8.86889e+57
          1255.13400	         1.33891e+58
          1255.94030	         1.22271e+58
          1256.74660	         8.82878e+57
          1257.55290	         9.29242e+57
          1258.35920	         8.73392e+57
          1259.16550	         4.88972e+57
          1259.97180	         4.41323e+57
          1260.77810	         9.12015e+57
          1261.58440	         1.25048e+58
          1262.39070	         7.90312e+57
          1263.19700	         5.92402e+57
          1264.00330	         8.44105e+57
          1264.80960	         1.00274e+58
          1265.61590	         1.04495e+58
          1266.42220	         1.08788e+58
          1267.22850	         1.10578e+58
          1268.03480	         1.51428e+58
          1268.84110	         1.67607e+58
          1269.64740	         1.24585e+58
          1270.45370	         1.25088e+58
          1271.26000	         1.21482e+58
          1272.06630	         1.21477e+58
          1272.87260	         1.17679e+58
          1273.67890	         1.04735e+58
          1274.48520	         1.19726e+58
          1275.29150	         1.31999e+58
          1276.09780	         1.12753e+58
          1276.90410	         1.45443e+58
          1277.71040	         1.41663e+58
          1278.51670	         1.16055e+58
          1279.32300	         1.35860e+58
          1280.12930	         1.21944e+58
          1280.93560	         1.17851e+58
          1281.74190	         1.28937e+58
          1282.54820	         1.30756e+58
          1283.35450	         1.01784e+58
          1284.16080	         1.11983e+58
          1284.96710	         1.49989e+58
          1285.77340	         1.34494e+58
          1286.57970	         1.21331e+58
          1287.38600	         1.46112e+58
          1288.19230	         1.54126e+58
          1288.99860	         1.45678e+58
          1289.80490	         1.20530e+58
          1290.61120	         1.14770e+58
          1291.41750	         1.22946e+58
          1292.22380	         1.29590e+58
          1293.03010	         1.24276e+58
          1293.83640	         1.26858e+58
          1294.64270	         1.03542e+58
          1295.44900	         6.35200e+57
          1296.25530	         6.60160e+57
          1297.06160	         8.61288e+57
          1297.86790	         9.77704e+57
          1298.67420	         9.21670e+57
          1299.48050	         1.03565e+58
          1300.28680	         1.09919e+58
          1301.09310	         9.37361e+57
          1301.89940	         5.25691e+57
          1302.70570	         6.64356e+57
          1303.51200	         8.02098e+57
          1304.31830	         9.99433e+57
          1305.12460	         1.02594e+58
          1305.93090	         9.56147e+57
          1306.73720	         9.22414e+57
          1307.54350	         1.28478e+58
          1308.34980	         1.51698e+58
          1309.15610	         1.59220e+58
          1309.96240	         1.45797e+58
          1310.76870	         1.39353e+58
          1311.57500	         1.30482e+58
          1312.38130	         1.19840e+58
          1313.18760	         1.49260e+58
          1313.99390	         1.60510e+58
          1314.80020	         1.71066e+58
          1315.60650	         1.61680e+58
          1316.41280	         1.25298e+58
          1317.21910	         1.06673e+58
          1318.02540	         1.03129e+58
          1318.83170	         1.14389e+58
          1319.63800	         1.19148e+58
          1320.44430	         1.18291e+58
          1321.25060	         1.21876e+58
          1322.05690	         1.33189e+58
          1322.86320	         1.28289e+58
          1323.66950	         1.12313e+58
          1324.47580	         9.24683e+57
          1325.28210	         9.95142e+57
          1326.08840	         1.23303e+58
          1326.89470	         1.22951e+58
          1327.70100	         9.89705e+57
          1328.50730	         6.80450e+57
          1329.31360	         9.23449e+57
          1330.11990	         9.58173e+57
          1330.92620	         8.69204e+57
          1331.73250	         9.66140e+57
          1332.53880	         9.57905e+57
          1333.34510	         9.10438e+57
          1334.15140	         8.13142e+57
          1334.95770	         8.28771e+57
          1335.76400	         9.35887e+57
          1336.57030	         1.01928e+58
          1337.37660	         1.09022e+58
          1338.18290	         1.04657e+58
          1338.98920	         1.09178e+58
          1339.79550	         1.20370e+58
          1340.60180	         1.35372e+58
          1341.40810	         1.38174e+58
          1342.21440	         1.18599e+58
          1343.02070	         1.27859e+58
          1343.82700	         1.45170e+58
          1344.63330	         1.33165e+58
          1345.43960	         1.21060e+58
          1346.24590	         1.23424e+58
          1347.05220	         1.24578e+58
          1347.85850	         1.07757e+58
          1348.66480	         1.15447e+58
          1349.47110	         1.27616e+58
          1350.27740	         1.15039e+58
          1351.08370	         1.08170e+58
          1351.89000	         1.09586e+58
          1352.69630	         1.28754e+58
          1353.50260	         1.20277e+58
          1354.30890	         1.25205e+58
          1355.11520	         1.23463e+58
          1355.92150	         1.07598e+58
          1356.72780	         1.07543e+58
          1357.53410	         1.20458e+58
          1358.34040	         1.18343e+58
          1359.14670	         1.07018e+58
          1359.95300	         1.12736e+58
          1360.75930	         1.11184e+58
          1361.56560	         1.06218e+58
          1362.37190	         1.11431e+58
          1363.17820	         1.18338e+58
          1363.98450	         1.16740e+58
          1364.79080	         1.10627e+58
          1365.59710	         1.22453e+58
          1366.40340	         1.27047e+58
          1367.20970	         1.10368e+58
          1368.01600	         9.78455e+57
          1368.82230	         9.54859e+57
          1369.62860	         1.07915e+58
          1370.43490	         9.78996e+57
          1371.24120	         9.05754e+57
          1372.04750	         8.71716e+57
          1372.85380	         1.06370e+58
          1373.66010	         1.04343e+58
          1374.46640	         1.04972e+58
          1375.27270	         1.12610e+58
          1376.07900	         8.88170e+57
          1376.88530	         8.14913e+57
          1377.69160	         8.83939e+57
          1378.49790	         8.14199e+57
          1379.30420	         7.58017e+57
          1380.11050	         8.35886e+57
          1380.91680	         6.42333e+57
          1381.72310	         7.41946e+57
          1382.52940	         9.46811e+57
          1383.33570	         9.99765e+57
          1384.14200	         1.13238e+58
          1384.94830	         1.11741e+58
          1385.75460	         1.14479e+58
          1386.56090	         1.04522e+58
          1387.36720	         1.02953e+58
          1388.17350	         1.24216e+58
          1388.97980	         1.16683e+58
          1389.78610	         1.00567e+58
          1390.59240	         9.40913e+57
          1391.39870	         8.25714e+57
          1392.20500	         9.46014e+57
          1393.01130	         8.38772e+57
          1393.81760	         7.14678e+57
          1394.62390	         8.12411e+57
          1395.43020	         8.27519e+57
          1396.23650	         6.71468e+57
          1397.04280	         7.02379e+57
          1397.84910	         8.07999e+57
          1398.65540	         8.40323e+57
          1399.46170	         9.03845e+57
          1400.26800	         8.55963e+57
          1401.07430	         7.50103e+57
          1401.88060	         9.56622e+57
          1402.68690	         9.83122e+57
          1403.49320	         9.40094e+57
          1404.29950	         8.78886e+57
          1405.10580	         9.93488e+57
          1405.91210	         1.06790e+58
          1406.71840	         1.05611e+58
          1407.52470	         9.88819e+57
          1408.33100	         9.80377e+57
          1409.13730	         1.07413e+58
          1409.94360	         1.12646e+58
          1410.74990	         1.13363e+58
          1411.55620	         1.09000e+58
          1412.36250	         9.44474e+57
          1413.16880	         8.64007e+57
          1413.97510	         7.99171e+57
          1414.78140	         8.85400e+57
          1415.58770	         1.04576e+58
          1416.39400	         1.03043e+58
          1417.20030	         9.99556e+57
          1418.00660	         9.51179e+57
          1418.81290	         9.97016e+57
          1419.61920	         1.01260e+58
          1420.42550	         1.21902e+58
          1421.23180	         1.34037e+58
          1422.03810	         1.35155e+58
          1422.84440	         1.25125e+58
          1423.65070	         1.28116e+58
          1424.45700	         1.16842e+58
          1425.26330	         8.08287e+57
          1426.06960	         8.63520e+57
          1426.87590	         1.06720e+58
          1427.68220	         1.06231e+58
          1428.48850	         1.07257e+58
          1429.29480	         1.10334e+58
          1430.10110	         1.03071e+58
          1430.90740	         9.07077e+57
          1431.71370	         9.25583e+57
          1432.52000	         8.96417e+57
          1433.32630	         8.45972e+57
          1434.13260	         8.69236e+57
          1434.93890	         8.90808e+57
          1435.74520	         1.00969e+58
          1436.55150	         1.00053e+58
          1437.35780	         8.84163e+57
          1438.16410	         9.01971e+57
          1438.97040	         8.35641e+57
          1439.77670	         8.78694e+57
          1440.58300	         9.46953e+57
          1441.38930	         9.87642e+57
          1442.19560	         1.09190e+58
          1443.00190	         1.01882e+58
          1443.80820	         1.06914e+58
          1444.61450	         1.01420e+58
          1445.42080	         9.55863e+57
          1446.22710	         1.15221e+58
          1447.03340	         1.08869e+58
          1447.83970	         1.03223e+58
          1448.64600	         1.01853e+58
          1449.45230	         9.63164e+57
          1450.25860	         1.01292e+58
          1451.06490	         9.42667e+57
          1451.87120	         7.85756e+57
          1452.67750	         7.28399e+57
          1453.48380	         8.90032e+57
          1454.29010	         8.00074e+57
          1455.09640	         7.80555e+57
          1455.90270	         9.73743e+57
          1456.70900	         8.61267e+57
          1457.51530	         9.11608e+57
          1458.32160	         1.12000e+58
          1459.12790	         1.16779e+58
          1459.93420	         9.64964e+57
          1460.74050	         8.32813e+57
          1461.54680	         8.21346e+57
          1462.35310	         7.99063e+57
          1463.15940	         1.04525e+58
          1463.96570	         1.16877e+58
          1464.77200	         1.23783e+58
          1465.57830	         1.14321e+58
          1466.38460	         9.17177e+57
          1467.19090	         8.41937e+57
          1467.99720	         8.89571e+57
          1468.80350	         8.64015e+57
          1469.60980	         8.97561e+57
          1470.41610	         1.11898e+58
          1471.22240	         1.11202e+58
          1472.02870	         9.48209e+57
          1472.83500	         9.99829e+57
          1473.64130	         1.06703e+58
          1474.44760	         1.03248e+58
          1475.25390	         1.04111e+58
          1476.06020	         1.06280e+58
          1476.86650	         9.95430e+57
          1477.67280	         8.73657e+57
          1478.47910	         7.83281e+57
          1479.28540	         7.90386e+57
          1480.09170	         9.13442e+57
          1480.89800	         9.22443e+57
          1481.70430	         9.44874e+57
          1482.51060	         8.00872e+57
          1483.31690	         7.53679e+57
          1484.12320	         7.45642e+57
          1484.92950	         8.25926e+57
          1485.73580	         8.81505e+57
          1486.54210	         8.32163e+57
          1487.34840	         8.82630e+57
          1488.15470	         8.10284e+57
          1488.96100	         7.91979e+57
          1489.76730	         8.73699e+57
