#sample_371_stacked_spectrum_rest_UV-bands_median_H-alpha_noDC.txt
#median Lum: 1.69120e+42
#Rest-frame wavelength (A) | Luminosity (erg/s/A)
#
          1110.00000	         0.00000e+00
          1110.80630	         3.47428e+58
          1111.61260	        -3.52669e+58
          1112.41890	         2.77454e+58
          1113.22520	         1.06808e+59
          1114.03150	        -9.48443e+58
          1114.83780	         1.22359e+59
          1115.64410	         1.95372e+59
          1116.45040	         2.06106e+59
          1117.25670	         1.66529e+58
          1118.06300	         9.69644e+58
          1118.86930	         3.36325e+58
          1119.67560	         6.84322e+58
          1120.48190	         5.82110e+58
          1121.28820	        -1.29602e+59
          1122.09450	        -2.73447e+58
          1122.90080	         5.42881e+58
          1123.70710	         2.52697e+58
          1124.51340	         8.86835e+58
          1125.31970	        -1.04593e+58
          1126.12600	        -5.45154e+58
          1126.93230	        -6.30186e+58
          1127.73860	        -5.90344e+58
          1128.54490	        -5.26586e+57
          1129.35120	        -1.45046e+58
          1130.15750	         2.23586e+58
          1130.96380	         4.14511e+57
          1131.77010	         3.26229e+58
          1132.57640	         2.71868e+58
          1133.38270	         1.76124e+58
          1134.18900	         3.69660e+58
          1134.99530	         2.00002e+58
          1135.80160	         2.66509e+58
          1136.60790	         5.00194e+57
          1137.41420	         4.00363e+57
          1138.22050	         6.19717e+58
          1139.02680	         4.17515e+58
          1139.83310	         1.97559e+58
          1140.63940	         9.21229e+57
          1141.44570	        -2.07576e+58
          1142.25200	        -4.01462e+56
          1143.05830	         2.12661e+58
          1143.86460	         2.15099e+58
          1144.67090	         1.12751e+58
          1145.47720	         1.37300e+58
          1146.28350	         1.76618e+58
          1147.08980	         8.47816e+57
          1147.89610	         1.33345e+58
          1148.70240	         1.93854e+58
          1149.50870	         2.56380e+58
          1150.31500	         2.87399e+58
          1151.12130	         5.12379e+57
          1151.92760	         1.08737e+58
          1152.73390	         9.88112e+57
          1153.54020	         1.40022e+58
          1154.34650	         1.98909e+58
          1155.15280	         1.08478e+58
          1155.95910	         6.97358e+57
          1156.76540	         8.75641e+56
          1157.57170	         8.90161e+57
          1158.37800	         6.22439e+57
          1159.18430	         9.02996e+57
          1159.99060	         1.07208e+58
          1160.79690	         5.47118e+57
          1161.60320	         9.60440e+57
          1162.40950	         1.07209e+58
          1163.21580	         8.25969e+57
          1164.02210	         1.39766e+58
          1164.82840	         9.37585e+57
          1165.63470	         1.68221e+58
          1166.44100	         2.88619e+58
          1167.24730	         1.54187e+58
          1168.05360	         1.03598e+58
          1168.85990	         1.02083e+58
          1169.66620	         1.35960e+58
          1170.47250	         7.08795e+57
          1171.27880	         8.64663e+57
          1172.08510	         1.46404e+58
          1172.89140	         6.51499e+57
          1173.69770	         6.81132e+57
          1174.50400	         1.18595e+58
          1175.31030	         1.36243e+58
          1176.11660	         1.82031e+58
          1176.92290	         1.84842e+58
          1177.72920	         1.52936e+58
          1178.53550	         1.12848e+58
          1179.34180	         5.93380e+57
          1180.14810	         1.16654e+58
          1180.95440	         8.78036e+57
          1181.76070	         2.88284e+57
          1182.56700	         4.82579e+57
          1183.37330	         7.30705e+57
          1184.17960	         1.27827e+58
          1184.98590	         9.17357e+57
          1185.79220	         4.78985e+57
          1186.59850	         8.88594e+57
          1187.40480	         5.96534e+57
          1188.21110	         1.44751e+58
          1189.01740	         1.26491e+58
          1189.82370	         1.39234e+58
          1190.63000	         1.54032e+58
          1191.43630	         1.21722e+58
          1192.24260	         1.10394e+58
          1193.04890	         1.17688e+58
          1193.85520	         1.45077e+58
          1194.66150	         4.87317e+57
          1195.46780	         1.06337e+58
          1196.27410	         1.03595e+58
          1197.08040	         6.75902e+57
          1197.88670	         1.01829e+58
          1198.69300	         1.05329e+58
          1199.49930	         1.15817e+58
          1200.30560	         1.10539e+58
          1201.11190	         8.99163e+57
          1201.91820	         1.24786e+58
          1202.72450	         9.11991e+57
          1203.53080	         1.20236e+58
          1204.33710	         8.07009e+57
          1205.14340	         8.07808e+57
          1205.94970	         8.87639e+57
          1206.75600	         8.37292e+57
          1207.56230	         4.39870e+57
          1208.36860	         9.39372e+57
          1209.17490	         3.26176e+57
          1209.98120	         4.44504e+57
          1210.78750	         8.13909e+57
          1211.59380	         1.21919e+58
          1212.40010	         1.81995e+58
          1213.20640	         1.82431e+58
          1214.01270	         2.09931e+58
          1214.81900	         2.89102e+58
          1215.62530	         4.69287e+58
          1216.43160	         9.05252e+58
          1217.23790	         1.50413e+59
          1218.04420	         1.12458e+59
          1218.85050	         8.41683e+58
          1219.65680	         5.33567e+58
          1220.46310	         3.17298e+58
          1221.26940	         2.27061e+58
          1222.07570	         1.33669e+58
          1222.88200	         9.36650e+57
          1223.68830	         6.39447e+57
          1224.49460	         5.38009e+57
          1225.30090	         6.61907e+57
          1226.10720	         7.17637e+57
          1226.91350	         8.77832e+57
          1227.71980	         1.21559e+58
          1228.52610	         1.31483e+58
          1229.33240	         7.70873e+57
          1230.13870	         7.98983e+57
          1230.94500	         8.24369e+57
          1231.75130	         7.40421e+57
          1232.55760	         9.10560e+57
          1233.36390	         8.63939e+57
          1234.17020	         7.14292e+57
          1234.97650	         6.67988e+57
          1235.78280	         6.34283e+57
          1236.58910	         7.05211e+57
          1237.39540	         8.79114e+57
          1238.20170	         9.12676e+57
          1239.00800	         1.01665e+58
          1239.81430	         1.47281e+58
          1240.62060	         1.00777e+58
          1241.42690	         9.58263e+57
          1242.23320	         1.19437e+58
          1243.03950	         5.80146e+57
          1243.84580	         6.90551e+57
          1244.65210	         1.08761e+58
          1245.45840	         1.00423e+58
          1246.26470	         9.98815e+57
          1247.07100	         1.03201e+58
          1247.87730	         7.75321e+57
          1248.68360	         8.77877e+57
          1249.48990	         8.30936e+57
          1250.29620	         8.72318e+57
          1251.10250	         7.42507e+57
          1251.90880	         4.90611e+57
          1252.71510	         5.17623e+57
          1253.52140	         7.11232e+57
          1254.32770	         9.66796e+57
          1255.13400	         1.06478e+58
          1255.94030	         1.09164e+58
          1256.74660	         9.81808e+57
          1257.55290	         9.20920e+57
          1258.35920	         7.73195e+57
          1259.16550	         5.77149e+57
          1259.97180	         5.54435e+57
          1260.77810	         9.19454e+57
          1261.58440	         1.15343e+58
          1262.39070	         7.94021e+57
          1263.19700	         8.89081e+57
          1264.00330	         9.82192e+57
          1264.80960	         1.03871e+58
          1265.61590	         1.24797e+58
          1266.42220	         1.08488e+58
          1267.22850	         9.87961e+57
          1268.03480	         1.30209e+58
          1268.84110	         1.57761e+58
          1269.64740	         1.27751e+58
          1270.45370	         1.07249e+58
          1271.26000	         9.08703e+57
          1272.06630	         1.08604e+58
          1272.87260	         1.12027e+58
          1273.67890	         1.12088e+58
          1274.48520	         1.30176e+58
          1275.29150	         1.30502e+58
          1276.09780	         1.21178e+58
          1276.90410	         1.47712e+58
          1277.71040	         1.45747e+58
          1278.51670	         1.11837e+58
          1279.32300	         1.18767e+58
          1280.12930	         1.38078e+58
          1280.93560	         1.27355e+58
          1281.74190	         1.12630e+58
          1282.54820	         1.22399e+58
          1283.35450	         1.04959e+58
          1284.16080	         1.11717e+58
          1284.96710	         1.44740e+58
          1285.77340	         1.19654e+58
          1286.57970	         1.14222e+58
          1287.38600	         1.69864e+58
          1288.19230	         1.92785e+58
          1288.99860	         1.69180e+58
          1289.80490	         1.13001e+58
          1290.61120	         1.11160e+58
          1291.41750	         1.34017e+58
          1292.22380	         1.11867e+58
          1293.03010	         1.07635e+58
          1293.83640	         1.34963e+58
          1294.64270	         1.10874e+58
          1295.44900	         7.79320e+57
          1296.25530	         8.08127e+57
          1297.06160	         9.09404e+57
          1297.86790	         9.13440e+57
          1298.67420	         8.95310e+57
          1299.48050	         9.45055e+57
          1300.28680	         1.09167e+58
          1301.09310	         9.47790e+57
          1301.89940	         4.07940e+57
          1302.70570	         6.77411e+57
          1303.51200	         8.32156e+57
          1304.31830	         9.71475e+57
          1305.12460	         1.01148e+58
          1305.93090	         1.19226e+58
          1306.73720	         1.29393e+58
          1307.54350	         1.43676e+58
          1308.34980	         1.50029e+58
          1309.15610	         1.66606e+58
          1309.96240	         1.51927e+58
          1310.76870	         1.25444e+58
          1311.57500	         1.42056e+58
          1312.38130	         1.22056e+58
          1313.18760	         1.37943e+58
          1313.99390	         1.48337e+58
          1314.80020	         1.55511e+58
          1315.60650	         1.57597e+58
          1316.41280	         1.19407e+58
          1317.21910	         9.73251e+57
          1318.02540	         1.26320e+58
          1318.83170	         1.35955e+58
          1319.63800	         1.16405e+58
          1320.44430	         1.25134e+58
          1321.25060	         1.34367e+58
          1322.05690	         1.18533e+58
          1322.86320	         1.19672e+58
          1323.66950	         1.05749e+58
          1324.47580	         9.93392e+57
          1325.28210	         1.05267e+58
          1326.08840	         1.02753e+58
          1326.89470	         1.20458e+58
          1327.70100	         1.03023e+58
          1328.50730	         9.15966e+57
          1329.31360	         1.13994e+58
          1330.11990	         1.05303e+58
          1330.92620	         9.14981e+57
          1331.73250	         1.04795e+58
          1332.53880	         1.00648e+58
          1333.34510	         9.32964e+57
          1334.15140	         9.60620e+57
          1334.95770	         9.41321e+57
          1335.76400	         1.13526e+58
          1336.57030	         1.18046e+58
          1337.37660	         1.07782e+58
          1338.18290	         1.09990e+58
          1338.98920	         1.15824e+58
          1339.79550	         1.17251e+58
          1340.60180	         1.40268e+58
          1341.40810	         1.52166e+58
          1342.21440	         1.29248e+58
          1343.02070	         1.23582e+58
          1343.82700	         1.27205e+58
          1344.63330	         1.22205e+58
          1345.43960	         1.34506e+58
          1346.24590	         1.09620e+58
          1347.05220	         9.76556e+57
          1347.85850	         1.00790e+58
          1348.66480	         1.25519e+58
          1349.47110	         1.36117e+58
          1350.27740	         1.14423e+58
          1351.08370	         1.17024e+58
          1351.89000	         1.18208e+58
          1352.69630	         1.23521e+58
          1353.50260	         1.23079e+58
          1354.30890	         1.23273e+58
          1355.11520	         1.00342e+58
          1355.92150	         1.03674e+58
          1356.72780	         1.05603e+58
          1357.53410	         1.02972e+58
          1358.34040	         1.24643e+58
          1359.14670	         1.15476e+58
          1359.95300	         1.05926e+58
          1360.75930	         1.11436e+58
          1361.56560	         1.10688e+58
          1362.37190	         1.14211e+58
          1363.17820	         1.20122e+58
          1363.98450	         1.23921e+58
          1364.79080	         1.33468e+58
          1365.59710	         1.23072e+58
          1366.40340	         1.14006e+58
          1367.20970	         1.10000e+58
          1368.01600	         9.59479e+57
          1368.82230	         8.84890e+57
          1369.62860	         1.01036e+58
          1370.43490	         1.04859e+58
          1371.24120	         1.02964e+58
          1372.04750	         8.41446e+57
          1372.85380	         8.86794e+57
          1373.66010	         1.04963e+58
          1374.46640	         1.03966e+58
          1375.27270	         1.08485e+58
          1376.07900	         1.04963e+58
          1376.88530	         9.62442e+57
          1377.69160	         8.62794e+57
          1378.49790	         6.72885e+57
          1379.30420	         6.85886e+57
          1380.11050	         8.15130e+57
          1380.91680	         7.24302e+57
          1381.72310	         5.83516e+57
          1382.52940	         7.32127e+57
          1383.33570	         9.19180e+57
          1384.14200	         9.56294e+57
          1384.94830	         9.95190e+57
          1385.75460	         1.05877e+58
          1386.56090	         1.11995e+58
          1387.36720	         9.27548e+57
          1388.17350	         1.12052e+58
          1388.97980	         1.15153e+58
          1389.78610	         9.06732e+57
          1390.59240	         8.13753e+57
          1391.39870	         6.97430e+57
          1392.20500	         9.37264e+57
          1393.01130	         9.27660e+57
          1393.81760	         8.24544e+57
          1394.62390	         8.04416e+57
          1395.43020	         6.00192e+57
          1396.23650	         6.50620e+57
          1397.04280	         7.22397e+57
          1397.84910	         8.11796e+57
          1398.65540	         8.70385e+57
          1399.46170	         9.44371e+57
          1400.26800	         8.47877e+57
          1401.07430	         8.05259e+57
          1401.88060	         7.73651e+57
          1402.68690	         8.54862e+57
          1403.49320	         9.48284e+57
          1404.29950	         8.79765e+57
          1405.10580	         1.07861e+58
          1405.91210	         1.26797e+58
          1406.71840	         1.09041e+58
          1407.52470	         1.04127e+58
          1408.33100	         1.05171e+58
          1409.13730	         1.21242e+58
          1409.94360	         1.17876e+58
          1410.74990	         1.10893e+58
          1411.55620	         1.01809e+58
          1412.36250	         1.04631e+58
          1413.16880	         9.55667e+57
          1413.97510	         7.23401e+57
          1414.78140	         6.71729e+57
          1415.58770	         1.03282e+58
          1416.39400	         1.14272e+58
          1417.20030	         1.03259e+58
          1418.00660	         1.01064e+58
          1418.81290	         1.05544e+58
          1419.61920	         1.00583e+58
          1420.42550	         1.23586e+58
          1421.23180	         1.41115e+58
          1422.03810	         1.22153e+58
          1422.84440	         1.23113e+58
          1423.65070	         1.28564e+58
          1424.45700	         1.22398e+58
          1425.26330	         9.21603e+57
          1426.06960	         9.02850e+57
          1426.87590	         9.71624e+57
          1427.68220	         1.01489e+58
          1428.48850	         1.07163e+58
          1429.29480	         9.90464e+57
          1430.10110	         9.37749e+57
          1430.90740	         8.76133e+57
          1431.71370	         8.65070e+57
          1432.52000	         9.27244e+57
          1433.32630	         7.93866e+57
          1434.13260	         8.45051e+57
          1434.93890	         8.94413e+57
          1435.74520	         9.65895e+57
          1436.55150	         9.81769e+57
          1437.35780	         8.77799e+57
          1438.16410	         8.32301e+57
          1438.97040	         7.72812e+57
          1439.77670	         8.69209e+57
          1440.58300	         9.24834e+57
          1441.38930	         9.31794e+57
          1442.19560	         9.78560e+57
          1443.00190	         1.03739e+58
          1443.80820	         1.14247e+58
          1444.61450	         9.63834e+57
          1445.42080	         8.56326e+57
          1446.22710	         1.00461e+58
          1447.03340	         1.04265e+58
          1447.83970	         1.08495e+58
          1448.64600	         1.10085e+58
          1449.45230	         9.69976e+57
          1450.25860	         9.44594e+57
          1451.06490	         9.74440e+57
          1451.87120	         8.95417e+57
          1452.67750	         8.26052e+57
          1453.48380	         9.73049e+57
          1454.29010	         8.55881e+57
          1455.09640	         8.41987e+57
          1455.90270	         8.91775e+57
          1456.70900	         9.22596e+57
          1457.51530	         9.97789e+57
          1458.32160	         1.13072e+58
          1459.12790	         1.12966e+58
          1459.93420	         1.13409e+58
          1460.74050	         9.30991e+57
          1461.54680	         8.94573e+57
          1462.35310	         8.55587e+57
          1463.15940	         9.66346e+57
          1463.96570	         1.10855e+58
          1464.77200	         1.22293e+58
          1465.57830	         1.17531e+58
          1466.38460	         9.78371e+57
          1467.19090	         9.27103e+57
          1467.99720	         9.45847e+57
          1468.80350	         9.94791e+57
          1469.60980	         9.22239e+57
          1470.41610	         1.00036e+58
          1471.22240	         1.00614e+58
          1472.02870	         9.90923e+57
          1472.83500	         9.92595e+57
          1473.64130	         1.01622e+58
          1474.44760	         1.02290e+58
          1475.25390	         9.77683e+57
          1476.06020	         9.59305e+57
          1476.86650	         8.97214e+57
          1477.67280	         8.10401e+57
          1478.47910	         7.17889e+57
          1479.28540	         7.47245e+57
          1480.09170	         8.64412e+57
          1480.89800	         8.20328e+57
          1481.70430	         8.12234e+57
          1482.51060	         7.71960e+57
          1483.31690	         7.26247e+57
          1484.12320	         7.43245e+57
          1484.92950	         8.78905e+57
          1485.73580	         8.47328e+57
          1486.54210	         7.64167e+57
          1487.34840	         8.76842e+57
          1488.15470	         8.98423e+57
          1488.96100	         9.05200e+57
          1489.76730	         9.99983e+57
