#sample_9_stacked_spectrum_rest_UV-bands_median_H-alpha_noDC.txt
#median Lum: 1.69528e+42
#Rest-frame wavelength (A) | Luminosity (erg/s/A)
#
          1110.00000	         0.00000e+00
          1110.80630	        -2.17678e+59
          1111.61260	         6.39042e+58
          1112.41890	         2.39277e+59
          1113.22520	        -8.48104e+58
          1114.03150	        -1.75411e+59
          1114.83780	        -2.46570e+58
          1115.64410	         1.48629e+59
          1116.45040	         2.07242e+59
          1117.25670	         1.27920e+59
          1118.06300	         1.63543e+59
          1118.86930	         9.16910e+58
          1119.67560	         6.52203e+58
          1120.48190	        -9.69234e+58
          1121.28820	        -8.51991e+58
          1122.09450	         7.72719e+58
          1122.90080	         1.73881e+58
          1123.70710	         4.56005e+58
          1124.51340	         1.45601e+59
          1125.31970	         5.20218e+58
          1126.12600	         1.84559e+58
          1126.93230	         1.47445e+58
          1127.73860	        -3.76045e+58
          1128.54490	        -5.06919e+57
          1129.35120	         2.83217e+58
          1130.15750	         1.08771e+58
          1130.96380	        -1.23534e+58
          1131.77010	         8.08998e+58
          1132.57640	         4.16153e+58
          1133.38270	         2.81963e+58
          1134.18900	         4.79334e+58
          1134.99530	         3.12032e+58
          1135.80160	         2.44363e+58
          1136.60790	         2.39710e+57
          1137.41420	         4.09241e+56
          1138.22050	         3.41373e+58
          1139.02680	         3.45446e+58
          1139.83310	         1.89561e+58
          1140.63940	         6.92645e+57
          1141.44570	        -2.56898e+58
          1142.25200	        -2.33492e+58
          1143.05830	         1.47526e+58
          1143.86460	         2.73913e+58
          1144.67090	         4.58733e+57
          1145.47720	         2.71848e+58
          1146.28350	         2.54512e+55
          1147.08980	         9.46162e+57
          1147.89610	         1.19005e+58
          1148.70240	         2.41236e+58
          1149.50870	         2.87018e+58
          1150.31500	         1.50345e+58
          1151.12130	         1.16583e+58
          1151.92760	         4.65176e+57
          1152.73390	         1.07390e+57
          1153.54020	         1.44761e+58
          1154.34650	         2.75861e+58
          1155.15280	         1.80393e+58
          1155.95910	         1.53573e+58
          1156.76540	         5.93288e+57
          1157.57170	         6.66020e+56
          1158.37800	        -4.50240e+57
          1159.18430	        -9.73918e+56
          1159.99060	         1.36705e+58
          1160.79690	         5.82806e+57
          1161.60320	         7.05857e+57
          1162.40950	         1.67576e+58
          1163.21580	         2.03290e+58
          1164.02210	         2.34235e+58
          1164.82840	         1.55076e+58
          1165.63470	         1.76609e+58
          1166.44100	         3.01411e+58
          1167.24730	         1.37659e+58
          1168.05360	         3.21696e+57
          1168.85990	         3.31788e+57
          1169.66620	         7.76513e+57
          1170.47250	         4.47034e+57
          1171.27880	         5.75751e+57
          1172.08510	         1.70589e+58
          1172.89140	         1.66996e+58
          1173.69770	         1.29376e+58
          1174.50400	         1.58998e+58
          1175.31030	         1.31938e+58
          1176.11660	         1.69168e+58
          1176.92290	         1.56129e+58
          1177.72920	         1.04722e+58
          1178.53550	         5.27947e+57
          1179.34180	         4.75428e+57
          1180.14810	         6.66205e+57
          1180.95440	         7.79217e+57
          1181.76070	         6.56087e+57
          1182.56700	         8.63369e+57
          1183.37330	         7.40696e+57
          1184.17960	         1.38756e+58
          1184.98590	         1.30446e+58
          1185.79220	         7.32621e+57
          1186.59850	         1.46004e+58
          1187.40480	         1.13988e+58
          1188.21110	         1.22401e+58
          1189.01740	         9.57621e+57
          1189.82370	         9.50597e+57
          1190.63000	         1.02365e+58
          1191.43630	         1.49642e+58
          1192.24260	         1.46489e+58
          1193.04890	         1.37381e+58
          1193.85520	         1.34131e+58
          1194.66150	         3.98455e+57
          1195.46780	         1.27424e+58
          1196.27410	         1.55014e+58
          1197.08040	         1.16669e+58
          1197.88670	         1.51921e+58
          1198.69300	         1.49213e+58
          1199.49930	         1.49021e+58
          1200.30560	         1.41930e+58
          1201.11190	         1.39711e+58
          1201.91820	         8.74710e+57
          1202.72450	         6.94555e+57
          1203.53080	         1.57082e+58
          1204.33710	         9.45943e+57
          1205.14340	         5.71207e+57
          1205.94970	         7.18756e+57
          1206.75600	         1.07463e+58
          1207.56230	         7.18287e+57
          1208.36860	         1.02287e+58
          1209.17490	         4.95407e+57
          1209.98120	         5.71001e+57
          1210.78750	         5.48882e+57
          1211.59380	         1.23468e+58
          1212.40010	         1.93679e+58
          1213.20640	         2.14229e+58
          1214.01270	         1.62606e+58
          1214.81900	         2.15507e+58
          1215.62530	         4.17729e+58
          1216.43160	         9.05584e+58
          1217.23790	         1.52147e+59
          1218.04420	         1.13278e+59
          1218.85050	         8.87023e+58
          1219.65680	         5.86085e+58
          1220.46310	         3.23223e+58
          1221.26940	         2.46291e+58
          1222.07570	         1.83640e+58
          1222.88200	         1.64721e+58
          1223.68830	         1.32778e+58
          1224.49460	         6.29882e+57
          1225.30090	         7.88723e+57
          1226.10720	         6.08498e+57
          1226.91350	         3.73820e+57
          1227.71980	         4.70137e+57
          1228.52610	         8.18457e+57
          1229.33240	         5.35914e+57
          1230.13870	         6.78549e+57
          1230.94500	         7.59167e+57
          1231.75130	         5.13838e+57
          1232.55760	         9.46409e+57
          1233.36390	         8.08459e+57
          1234.17020	         6.41061e+57
          1234.97650	         5.88163e+57
          1235.78280	         8.30508e+57
          1236.58910	         8.56702e+57
          1237.39540	         1.05213e+58
          1238.20170	         1.03437e+58
          1239.00800	         1.18054e+58
          1239.81430	         1.58483e+58
          1240.62060	         1.28934e+58
          1241.42690	         1.02904e+58
          1242.23320	         1.06909e+58
          1243.03950	         8.96741e+57
          1243.84580	         7.96488e+57
          1244.65210	         9.09762e+57
          1245.45840	         1.02717e+58
          1246.26470	         9.57648e+57
          1247.07100	         6.79409e+57
          1247.87730	         6.33366e+57
          1248.68360	         3.33714e+57
          1249.48990	         6.69817e+57
          1250.29620	         1.07095e+58
          1251.10250	         9.15917e+57
          1251.90880	         4.67726e+57
          1252.71510	         4.88536e+57
          1253.52140	         6.38391e+57
          1254.32770	         1.02829e+58
          1255.13400	         1.28393e+58
          1255.94030	         8.91381e+57
          1256.74660	         9.55684e+57
          1257.55290	         1.27183e+58
          1258.35920	         1.24269e+58
          1259.16550	         7.06191e+57
          1259.97180	         4.01133e+57
          1260.77810	         9.05935e+57
          1261.58440	         1.23425e+58
          1262.39070	         8.40422e+57
          1263.19700	         8.14320e+57
          1264.00330	         9.12005e+57
          1264.80960	         9.40484e+57
          1265.61590	         1.28371e+58
          1266.42220	         1.27924e+58
          1267.22850	         1.22873e+58
          1268.03480	         1.38304e+58
          1268.84110	         1.36375e+58
          1269.64740	         1.34490e+58
          1270.45370	         1.30719e+58
          1271.26000	         1.17101e+58
          1272.06630	         1.34736e+58
          1272.87260	         1.09858e+58
          1273.67890	         1.03022e+58
          1274.48520	         1.21729e+58
          1275.29150	         1.08313e+58
          1276.09780	         1.09230e+58
          1276.90410	         1.33675e+58
          1277.71040	         1.22119e+58
          1278.51670	         1.08201e+58
          1279.32300	         1.25164e+58
          1280.12930	         1.23151e+58
          1280.93560	         1.13404e+58
          1281.74190	         1.10111e+58
          1282.54820	         9.53941e+57
          1283.35450	         9.36758e+57
          1284.16080	         1.05540e+58
          1284.96710	         1.26695e+58
          1285.77340	         1.19386e+58
          1286.57970	         1.09434e+58
          1287.38600	         1.49658e+58
          1288.19230	         1.84668e+58
          1288.99860	         1.69006e+58
          1289.80490	         1.23110e+58
          1290.61120	         1.25423e+58
          1291.41750	         1.36721e+58
          1292.22380	         1.24926e+58
          1293.03010	         9.24241e+57
          1293.83640	         1.04465e+58
          1294.64270	         1.07920e+58
          1295.44900	         6.23596e+57
          1296.25530	         6.49149e+57
          1297.06160	         9.65582e+57
          1297.86790	         1.03667e+58
          1298.67420	         9.61621e+57
          1299.48050	         1.06932e+58
          1300.28680	         1.08622e+58
          1301.09310	         7.97277e+57
          1301.89940	         3.97745e+57
          1302.70570	         6.57286e+57
          1303.51200	         7.20580e+57
          1304.31830	         8.75469e+57
          1305.12460	         9.99704e+57
          1305.93090	         9.44927e+57
          1306.73720	         1.20228e+58
          1307.54350	         1.46772e+58
          1308.34980	         1.26635e+58
          1309.15610	         1.38572e+58
          1309.96240	         1.74067e+58
          1310.76870	         1.52518e+58
          1311.57500	         1.18587e+58
          1312.38130	         1.09993e+58
          1313.18760	         1.50548e+58
          1313.99390	         1.67642e+58
          1314.80020	         1.78551e+58
          1315.60650	         1.59470e+58
          1316.41280	         1.22000e+58
          1317.21910	         1.30789e+58
          1318.02540	         1.31164e+58
          1318.83170	         1.17613e+58
          1319.63800	         1.18058e+58
          1320.44430	         1.16595e+58
          1321.25060	         1.29516e+58
          1322.05690	         1.41251e+58
          1322.86320	         1.33245e+58
          1323.66950	         1.15093e+58
          1324.47580	         9.02003e+57
          1325.28210	         9.06803e+57
          1326.08840	         1.09588e+58
          1326.89470	         1.15227e+58
          1327.70100	         1.08662e+58
          1328.50730	         9.47383e+57
          1329.31360	         1.06943e+58
          1330.11990	         1.10526e+58
          1330.92620	         8.53935e+57
          1331.73250	         1.01453e+58
          1332.53880	         9.60405e+57
          1333.34510	         8.17895e+57
          1334.15140	         8.95525e+57
          1334.95770	         8.82707e+57
          1335.76400	         1.06473e+58
          1336.57030	         1.16806e+58
          1337.37660	         1.02906e+58
          1338.18290	         1.08171e+58
          1338.98920	         1.09869e+58
          1339.79550	         9.10396e+57
          1340.60180	         1.14718e+58
          1341.40810	         1.41579e+58
          1342.21440	         1.31204e+58
          1343.02070	         1.10156e+58
          1343.82700	         1.18399e+58
          1344.63330	         1.30955e+58
          1345.43960	         1.25431e+58
          1346.24590	         1.02800e+58
          1347.05220	         1.29091e+58
          1347.85850	         1.20349e+58
          1348.66480	         1.16168e+58
          1349.47110	         1.27612e+58
          1350.27740	         1.18362e+58
          1351.08370	         1.11717e+58
          1351.89000	         1.08506e+58
          1352.69630	         1.18711e+58
          1353.50260	         1.12149e+58
          1354.30890	         1.19692e+58
          1355.11520	         1.21786e+58
          1355.92150	         1.15187e+58
          1356.72780	         1.02297e+58
          1357.53410	         9.00818e+57
          1358.34040	         1.08826e+58
          1359.14670	         1.03334e+58
          1359.95300	         9.91918e+57
          1360.75930	         1.07532e+58
          1361.56560	         1.11309e+58
          1362.37190	         1.19362e+58
          1363.17820	         1.13217e+58
          1363.98450	         1.14964e+58
          1364.79080	         1.18634e+58
          1365.59710	         1.19146e+58
          1366.40340	         1.17545e+58
          1367.20970	         9.17758e+57
          1368.01600	         8.76019e+57
          1368.82230	         8.99767e+57
          1369.62860	         8.93927e+57
          1370.43490	         8.74572e+57
          1371.24120	         8.46046e+57
          1372.04750	         7.90557e+57
          1372.85380	         1.01024e+58
          1373.66010	         1.15923e+58
          1374.46640	         1.08858e+58
          1375.27270	         1.00815e+58
          1376.07900	         8.93028e+57
          1376.88530	         9.04067e+57
          1377.69160	         8.25505e+57
          1378.49790	         6.95061e+57
          1379.30420	         8.57263e+57
          1380.11050	         1.08769e+58
          1380.91680	         9.05295e+57
          1381.72310	         8.37126e+57
          1382.52940	         9.11475e+57
          1383.33570	         8.77475e+57
          1384.14200	         1.01177e+58
          1384.94830	         1.20605e+58
          1385.75460	         1.20112e+58
          1386.56090	         1.19356e+58
          1387.36720	         1.08017e+58
          1388.17350	         1.25748e+58
          1388.97980	         1.18116e+58
          1389.78610	         8.87617e+57
          1390.59240	         7.60609e+57
          1391.39870	         7.66393e+57
          1392.20500	         7.47653e+57
          1393.01130	         8.09147e+57
          1393.81760	         8.03118e+57
          1394.62390	         7.30598e+57
          1395.43020	         6.16347e+57
          1396.23650	         4.78921e+57
          1397.04280	         5.83651e+57
          1397.84910	         8.00610e+57
          1398.65540	         9.81504e+57
          1399.46170	         1.06678e+58
          1400.26800	         9.71829e+57
          1401.07430	         8.95793e+57
          1401.88060	         9.19117e+57
          1402.68690	         9.34351e+57
          1403.49320	         9.49916e+57
          1404.29950	         9.30739e+57
          1405.10580	         1.05912e+58
          1405.91210	         1.11240e+58
          1406.71840	         1.02049e+58
          1407.52470	         9.54342e+57
          1408.33100	         1.02767e+58
          1409.13730	         1.17380e+58
          1409.94360	         1.10753e+58
          1410.74990	         1.03973e+58
          1411.55620	         1.03964e+58
          1412.36250	         8.72379e+57
          1413.16880	         6.19891e+57
          1413.97510	         6.66628e+57
          1414.78140	         9.60208e+57
          1415.58770	         1.18232e+58
          1416.39400	         1.03619e+58
          1417.20030	         1.00328e+58
          1418.00660	         1.03860e+58
          1418.81290	         1.04946e+58
          1419.61920	         1.02586e+58
          1420.42550	         1.27012e+58
          1421.23180	         1.42260e+58
          1422.03810	         1.30739e+58
          1422.84440	         1.23172e+58
          1423.65070	         1.21505e+58
          1424.45700	         1.01685e+58
          1425.26330	         8.32076e+57
          1426.06960	         8.35799e+57
          1426.87590	         1.00617e+58
          1427.68220	         1.06685e+58
          1428.48850	         1.12708e+58
          1429.29480	         1.13507e+58
          1430.10110	         1.07542e+58
          1430.90740	         8.99176e+57
          1431.71370	         8.57302e+57
          1432.52000	         8.97256e+57
          1433.32630	         7.54790e+57
          1434.13260	         7.52977e+57
          1434.93890	         8.70037e+57
          1435.74520	         8.67515e+57
          1436.55150	         9.25339e+57
          1437.35780	         9.41716e+57
          1438.16410	         9.10442e+57
          1438.97040	         9.56024e+57
          1439.77670	         9.21882e+57
          1440.58300	         9.14508e+57
          1441.38930	         9.11207e+57
          1442.19560	         1.04979e+58
          1443.00190	         1.05302e+58
          1443.80820	         1.04617e+58
          1444.61450	         9.86094e+57
          1445.42080	         8.41825e+57
          1446.22710	         1.00409e+58
          1447.03340	         1.03143e+58
          1447.83970	         9.64213e+57
          1448.64600	         1.05620e+58
          1449.45230	         1.05831e+58
          1450.25860	         1.06710e+58
          1451.06490	         8.92936e+57
          1451.87120	         9.08592e+57
          1452.67750	         8.42428e+57
          1453.48380	         7.88727e+57
          1454.29010	         8.06078e+57
          1455.09640	         8.63203e+57
          1455.90270	         1.00908e+58
          1456.70900	         1.00835e+58
          1457.51530	         1.03290e+58
          1458.32160	         1.18100e+58
          1459.12790	         1.15509e+58
          1459.93420	         1.12301e+58
          1460.74050	         9.27281e+57
          1461.54680	         8.96904e+57
          1462.35310	         9.34002e+57
          1463.15940	         9.68993e+57
          1463.96570	         1.08196e+58
          1464.77200	         1.15892e+58
          1465.57830	         1.16312e+58
          1466.38460	         1.01616e+58
          1467.19090	         7.41302e+57
          1467.99720	         7.65957e+57
          1468.80350	         9.48915e+57
          1469.60980	         1.04325e+58
          1470.41610	         1.06040e+58
          1471.22240	         9.91477e+57
          1472.02870	         1.03574e+58
          1472.83500	         9.95145e+57
          1473.64130	         9.17787e+57
          1474.44760	         9.51171e+57
          1475.25390	         8.81169e+57
          1476.06020	         8.42525e+57
          1476.86650	         7.89490e+57
          1477.67280	         6.59433e+57
          1478.47910	         6.52003e+57
          1479.28540	         6.94967e+57
          1480.09170	         9.11796e+57
          1480.89800	         8.81749e+57
          1481.70430	         8.87495e+57
          1482.51060	         8.37872e+57
          1483.31690	         7.14877e+57
          1484.12320	         7.35612e+57
          1484.92950	         8.09231e+57
          1485.73580	         8.08534e+57
          1486.54210	         9.16242e+57
          1487.34840	         9.32708e+57
          1488.15470	         8.23221e+57
          1488.96100	         7.98391e+57
          1489.76730	         9.07828e+57
