#sample_187_stacked_spectrum_rest_UV-bands_median_H-alpha_noDC.txt
#median Lum: 1.65929e+42
#Rest-frame wavelength (A) | Luminosity (erg/s/A)
#
          1110.00000	         0.00000e+00
          1110.80630	         7.04023e+56
          1111.61260	         4.79624e+59
          1112.41890	         9.68689e+58
          1113.22520	         3.14185e+57
          1114.03150	        -8.17648e+58
          1114.83780	         2.19430e+59
          1115.64410	         9.38168e+58
          1116.45040	         8.12956e+58
          1117.25670	        -7.97178e+58
          1118.06300	         2.70291e+58
          1118.86930	         5.91963e+58
          1119.67560	         1.88029e+59
          1120.48190	         8.41243e+57
          1121.28820	        -9.19222e+58
          1122.09450	        -1.22524e+57
          1122.90080	        -2.69171e+57
          1123.70710	         2.11526e+58
          1124.51340	         1.09807e+59
          1125.31970	         4.03463e+58
          1126.12600	        -2.50815e+58
          1126.93230	        -2.28274e+58
          1127.73860	        -5.96059e+58
          1128.54490	         4.25560e+58
          1129.35120	         1.65833e+58
          1130.15750	        -2.74597e+57
          1130.96380	        -1.77923e+58
          1131.77010	         1.17649e+58
          1132.57640	        -3.40912e+57
          1133.38270	         1.41420e+58
          1134.18900	         2.21238e+58
          1134.99530	         5.91218e+57
          1135.80160	         2.25787e+58
          1136.60790	         2.90751e+58
          1137.41420	         1.83125e+58
          1138.22050	         3.50243e+58
          1139.02680	         2.37570e+58
          1139.83310	         2.09210e+58
          1140.63940	         6.26462e+57
          1141.44570	        -3.32257e+58
          1142.25200	        -1.32562e+58
          1143.05830	         2.03668e+58
          1143.86460	         1.65614e+58
          1144.67090	         1.56402e+58
          1145.47720	         1.60141e+57
          1146.28350	         3.14180e+56
          1147.08980	         4.82983e+57
          1147.89610	         2.41899e+58
          1148.70240	         2.63586e+58
          1149.50870	         2.77095e+58
          1150.31500	         1.43630e+58
          1151.12130	         1.09321e+58
          1151.92760	         1.65350e+57
          1152.73390	         3.24028e+57
          1153.54020	         3.26870e+57
          1154.34650	         2.39433e+58
          1155.15280	         1.98654e+58
          1155.95910	        -2.40485e+57
          1156.76540	         4.77005e+57
          1157.57170	         9.25738e+57
          1158.37800	         8.44038e+57
          1159.18430	        -9.94813e+56
          1159.99060	         2.24104e+57
          1160.79690	         1.16133e+58
          1161.60320	         1.69703e+58
          1162.40950	         1.33568e+58
          1163.21580	         1.93882e+58
          1164.02210	         1.80129e+58
          1164.82840	         9.02500e+57
          1165.63470	         1.89264e+58
          1166.44100	         2.52102e+58
          1167.24730	         1.24752e+58
          1168.05360	         7.42913e+57
          1168.85990	         1.02108e+58
          1169.66620	         1.19630e+58
          1170.47250	         1.84526e+58
          1171.27880	         1.84267e+58
          1172.08510	         1.43227e+58
          1172.89140	         8.09085e+57
          1173.69770	         9.76986e+57
          1174.50400	         1.55441e+58
          1175.31030	         1.67749e+58
          1176.11660	         1.17549e+58
          1176.92290	         1.35565e+58
          1177.72920	         1.39298e+58
          1178.53550	         1.05756e+58
          1179.34180	         3.74189e+57
          1180.14810	         4.74569e+57
          1180.95440	         5.65483e+57
          1181.76070	         7.14070e+57
          1182.56700	         6.75472e+57
          1183.37330	         6.47066e+57
          1184.17960	         1.46031e+58
          1184.98590	         1.00723e+58
          1185.79220	         5.61810e+57
          1186.59850	         1.16210e+58
          1187.40480	         1.21592e+58
          1188.21110	         1.55438e+58
          1189.01740	         4.18239e+57
          1189.82370	         5.85940e+57
          1190.63000	         1.29585e+58
          1191.43630	         1.46246e+58
          1192.24260	         7.11887e+57
          1193.04890	         1.04199e+58
          1193.85520	         1.03052e+58
          1194.66150	         8.77510e+57
          1195.46780	         1.33240e+58
          1196.27410	         1.69880e+58
          1197.08040	         8.80316e+57
          1197.88670	         1.07881e+58
          1198.69300	         1.39521e+58
          1199.49930	         1.42096e+58
          1200.30560	         9.79477e+57
          1201.11190	         7.91851e+57
          1201.91820	         1.00836e+58
          1202.72450	         9.78211e+57
          1203.53080	         1.21789e+58
          1204.33710	         9.84916e+57
          1205.14340	         6.70028e+57
          1205.94970	         5.12956e+57
          1206.75600	         5.58505e+57
          1207.56230	         5.64751e+57
          1208.36860	         7.93894e+57
          1209.17490	         2.40964e+57
          1209.98120	         6.54853e+57
          1210.78750	         6.99032e+57
          1211.59380	         9.13408e+57
          1212.40010	         1.67775e+58
          1213.20640	         1.82356e+58
          1214.01270	         1.94237e+58
          1214.81900	         2.72359e+58
          1215.62530	         4.64655e+58
          1216.43160	         9.20644e+58
          1217.23790	         1.55273e+59
          1218.04420	         1.15774e+59
          1218.85050	         8.47615e+58
          1219.65680	         6.04042e+58
          1220.46310	         3.99725e+58
          1221.26940	         2.56697e+58
          1222.07570	         1.44880e+58
          1222.88200	         1.11731e+58
          1223.68830	         1.27682e+58
          1224.49460	         7.21752e+57
          1225.30090	         6.22450e+57
          1226.10720	         5.78998e+57
          1226.91350	         6.37868e+57
          1227.71980	         6.20897e+57
          1228.52610	         1.06373e+58
          1229.33240	         1.13824e+58
          1230.13870	         1.13116e+58
          1230.94500	         7.65655e+57
          1231.75130	         4.28382e+57
          1232.55760	         7.21125e+57
          1233.36390	         6.61050e+57
          1234.17020	         9.23049e+57
          1234.97650	         7.89073e+57
          1235.78280	         7.72272e+57
          1236.58910	         9.75462e+57
          1237.39540	         1.03993e+58
          1238.20170	         1.16279e+58
          1239.00800	         1.40651e+58
          1239.81430	         1.51805e+58
          1240.62060	         1.25942e+58
          1241.42690	         1.15222e+58
          1242.23320	         1.01135e+58
          1243.03950	         7.07563e+57
          1243.84580	         9.54838e+57
          1244.65210	         9.61509e+57
          1245.45840	         8.26054e+57
          1246.26470	         7.07995e+57
          1247.07100	         7.87306e+57
          1247.87730	         8.11874e+57
          1248.68360	         2.11503e+57
          1249.48990	         7.06430e+57
          1250.29620	         1.08456e+58
          1251.10250	         6.16869e+57
          1251.90880	         3.10687e+57
          1252.71510	         4.25326e+57
          1253.52140	         7.05347e+57
          1254.32770	         9.85720e+57
          1255.13400	         1.24202e+58
          1255.94030	         1.09151e+58
          1256.74660	         9.94469e+57
          1257.55290	         9.93154e+57
          1258.35920	         7.26660e+57
          1259.16550	         4.11804e+57
          1259.97180	         5.51047e+57
          1260.77810	         6.12160e+57
          1261.58440	         1.10527e+58
          1262.39070	         8.30847e+57
          1263.19700	         7.50261e+57
          1264.00330	         7.98879e+57
          1264.80960	         1.06203e+58
          1265.61590	         1.32700e+58
          1266.42220	         1.23807e+58
          1267.22850	         9.49798e+57
          1268.03480	         1.12873e+58
          1268.84110	         1.40069e+58
          1269.64740	         1.33780e+58
          1270.45370	         1.37535e+58
          1271.26000	         1.34463e+58
          1272.06630	         1.24093e+58
          1272.87260	         1.27361e+58
          1273.67890	         1.16700e+58
          1274.48520	         1.25511e+58
          1275.29150	         1.27452e+58
          1276.09780	         1.20746e+58
          1276.90410	         1.39238e+58
          1277.71040	         1.36714e+58
          1278.51670	         1.31719e+58
          1279.32300	         1.42976e+58
          1280.12930	         1.25334e+58
          1280.93560	         1.10481e+58
          1281.74190	         1.24260e+58
          1282.54820	         1.33605e+58
          1283.35450	         9.91778e+57
          1284.16080	         8.51384e+57
          1284.96710	         9.23039e+57
          1285.77340	         9.71392e+57
          1286.57970	         1.01021e+58
          1287.38600	         1.35446e+58
          1288.19230	         1.65271e+58
          1288.99860	         1.64965e+58
          1289.80490	         1.22377e+58
          1290.61120	         1.15122e+58
          1291.41750	         1.29123e+58
          1292.22380	         1.14011e+58
          1293.03010	         9.97691e+57
          1293.83640	         1.09053e+58
          1294.64270	         8.54628e+57
          1295.44900	         5.14255e+57
          1296.25530	         7.53172e+57
          1297.06160	         1.20282e+58
          1297.86790	         1.34139e+58
          1298.67420	         1.23125e+58
          1299.48050	         1.17886e+58
          1300.28680	         1.02993e+58
          1301.09310	         6.93214e+57
          1301.89940	         3.09390e+57
          1302.70570	         4.39476e+57
          1303.51200	         6.83820e+57
          1304.31830	         9.24035e+57
          1305.12460	         1.03873e+58
          1305.93090	         1.08048e+58
          1306.73720	         1.13136e+58
          1307.54350	         1.29687e+58
          1308.34980	         1.33211e+58
          1309.15610	         1.46844e+58
          1309.96240	         1.62527e+58
          1310.76870	         1.31615e+58
          1311.57500	         1.03347e+58
          1312.38130	         8.46618e+57
          1313.18760	         1.29309e+58
          1313.99390	         1.51691e+58
          1314.80020	         1.71890e+58
          1315.60650	         1.59126e+58
          1316.41280	         1.09256e+58
          1317.21910	         8.81959e+57
          1318.02540	         1.14549e+58
          1318.83170	         1.34163e+58
          1319.63800	         1.22908e+58
          1320.44430	         1.13189e+58
          1321.25060	         1.26836e+58
          1322.05690	         1.18807e+58
          1322.86320	         1.21381e+58
          1323.66950	         1.20585e+58
          1324.47580	         1.01821e+58
          1325.28210	         9.83925e+57
          1326.08840	         1.13841e+58
          1326.89470	         1.38831e+58
          1327.70100	         1.20825e+58
          1328.50730	         1.03162e+58
          1329.31360	         1.17894e+58
          1330.11990	         1.08032e+58
          1330.92620	         9.46086e+57
          1331.73250	         1.14710e+58
          1332.53880	         9.44369e+57
          1333.34510	         7.31020e+57
          1334.15140	         8.29082e+57
          1334.95770	         9.93089e+57
          1335.76400	         9.79085e+57
          1336.57030	         1.08865e+58
          1337.37660	         1.20434e+58
          1338.18290	         1.15324e+58
          1338.98920	         1.09051e+58
          1339.79550	         1.12279e+58
          1340.60180	         1.29578e+58
          1341.40810	         1.44222e+58
          1342.21440	         1.37810e+58
          1343.02070	         1.26206e+58
          1343.82700	         1.35669e+58
          1344.63330	         1.45233e+58
          1345.43960	         1.36168e+58
          1346.24590	         1.20512e+58
          1347.05220	         1.21617e+58
          1347.85850	         1.05968e+58
          1348.66480	         1.15644e+58
          1349.47110	         1.26272e+58
          1350.27740	         1.22664e+58
          1351.08370	         1.21032e+58
          1351.89000	         1.16327e+58
          1352.69630	         1.06714e+58
          1353.50260	         1.14699e+58
          1354.30890	         1.08193e+58
          1355.11520	         1.01775e+58
          1355.92150	         9.85677e+57
          1356.72780	         9.40975e+57
          1357.53410	         9.93574e+57
          1358.34040	         1.19702e+58
          1359.14670	         1.11703e+58
          1359.95300	         1.02257e+58
          1360.75930	         1.09536e+58
          1361.56560	         1.00888e+58
          1362.37190	         1.21013e+58
          1363.17820	         1.06558e+58
          1363.98450	         1.14550e+58
          1364.79080	         1.22257e+58
          1365.59710	         1.24475e+58
          1366.40340	         1.15618e+58
          1367.20970	         1.12903e+58
          1368.01600	         1.12354e+58
          1368.82230	         8.88106e+57
          1369.62860	         8.29838e+57
          1370.43490	         8.20528e+57
          1371.24120	         8.50176e+57
          1372.04750	         7.50079e+57
          1372.85380	         9.35440e+57
          1373.66010	         8.97183e+57
          1374.46640	         9.23897e+57
          1375.27270	         1.05732e+58
          1376.07900	         8.84468e+57
          1376.88530	         7.60308e+57
          1377.69160	         8.78828e+57
          1378.49790	         8.30910e+57
          1379.30420	         6.96796e+57
          1380.11050	         7.25101e+57
          1380.91680	         7.75527e+57
          1381.72310	         8.94087e+57
          1382.52940	         9.36781e+57
          1383.33570	         7.85706e+57
          1384.14200	         8.91992e+57
          1384.94830	         1.05223e+58
          1385.75460	         1.06122e+58
          1386.56090	         1.17793e+58
          1387.36720	         1.17139e+58
          1388.17350	         1.15336e+58
          1388.97980	         9.42751e+57
          1389.78610	         8.55079e+57
          1390.59240	         7.72769e+57
          1391.39870	         7.15369e+57
          1392.20500	         8.57695e+57
          1393.01130	         7.45853e+57
          1393.81760	         6.25657e+57
          1394.62390	         7.85883e+57
          1395.43020	         7.78769e+57
          1396.23650	         6.89879e+57
          1397.04280	         7.06152e+57
          1397.84910	         8.28437e+57
          1398.65540	         8.50199e+57
          1399.46170	         8.92907e+57
          1400.26800	         7.87879e+57
          1401.07430	         7.88523e+57
          1401.88060	         7.96802e+57
          1402.68690	         9.63982e+57
          1403.49320	         9.63179e+57
          1404.29950	         8.97195e+57
          1405.10580	         1.15578e+58
          1405.91210	         1.17079e+58
          1406.71840	         1.01295e+58
          1407.52470	         9.27860e+57
          1408.33100	         9.31652e+57
          1409.13730	         1.08254e+58
          1409.94360	         1.09322e+58
          1410.74990	         1.10882e+58
          1411.55620	         9.57785e+57
          1412.36250	         8.83959e+57
          1413.16880	         1.00172e+58
          1413.97510	         8.80679e+57
          1414.78140	         8.11381e+57
          1415.58770	         1.06068e+58
          1416.39400	         1.09975e+58
          1417.20030	         9.40215e+57
          1418.00660	         8.78391e+57
          1418.81290	         1.03513e+58
          1419.61920	         1.00813e+58
          1420.42550	         1.15923e+58
          1421.23180	         1.25277e+58
          1422.03810	         1.04865e+58
          1422.84440	         1.09008e+58
          1423.65070	         1.32097e+58
          1424.45700	         1.16030e+58
          1425.26330	         8.43370e+57
          1426.06960	         9.98708e+57
          1426.87590	         1.07584e+58
          1427.68220	         8.92266e+57
          1428.48850	         1.00385e+58
          1429.29480	         1.04598e+58
          1430.10110	         9.35048e+57
          1430.90740	         8.41281e+57
          1431.71370	         8.27379e+57
          1432.52000	         7.81535e+57
          1433.32630	         6.94540e+57
          1434.13260	         7.95526e+57
          1434.93890	         8.17550e+57
          1435.74520	         8.57428e+57
          1436.55150	         8.29919e+57
          1437.35780	         8.47124e+57
          1438.16410	         9.32975e+57
          1438.97040	         8.86440e+57
          1439.77670	         9.23766e+57
          1440.58300	         9.38195e+57
          1441.38930	         9.61359e+57
          1442.19560	         9.44644e+57
          1443.00190	         1.02325e+58
          1443.80820	         1.05955e+58
          1444.61450	         8.96069e+57
          1445.42080	         9.18925e+57
          1446.22710	         1.10176e+58
          1447.03340	         1.03656e+58
          1447.83970	         1.09276e+58
          1448.64600	         1.09198e+58
          1449.45230	         1.07583e+58
          1450.25860	         1.09413e+58
          1451.06490	         9.08558e+57
          1451.87120	         7.85332e+57
          1452.67750	         8.15645e+57
          1453.48380	         9.19449e+57
          1454.29010	         7.78619e+57
          1455.09640	         6.22327e+57
          1455.90270	         7.92833e+57
          1456.70900	         8.59074e+57
          1457.51530	         9.15046e+57
          1458.32160	         1.17009e+58
          1459.12790	         1.13269e+58
          1459.93420	         9.95634e+57
          1460.74050	         8.61720e+57
          1461.54680	         7.81624e+57
          1462.35310	         7.44751e+57
          1463.15940	         8.86736e+57
          1463.96570	         1.07099e+58
          1464.77200	         1.09612e+58
          1465.57830	         1.02324e+58
          1466.38460	         8.82875e+57
          1467.19090	         8.87055e+57
          1467.99720	         9.59884e+57
          1468.80350	         9.67631e+57
          1469.60980	         1.01094e+58
          1470.41610	         9.64914e+57
          1471.22240	         8.73424e+57
          1472.02870	         9.17973e+57
          1472.83500	         9.05174e+57
          1473.64130	         8.98651e+57
          1474.44760	         9.64971e+57
          1475.25390	         9.07879e+57
          1476.06020	         8.80778e+57
          1476.86650	         8.72487e+57
          1477.67280	         7.91288e+57
          1478.47910	         7.95690e+57
          1479.28540	         8.18662e+57
          1480.09170	         8.66785e+57
          1480.89800	         8.06872e+57
          1481.70430	         8.13571e+57
          1482.51060	         8.24848e+57
          1483.31690	         7.33989e+57
          1484.12320	         7.19513e+57
          1484.92950	         7.36345e+57
          1485.73580	         6.77556e+57
          1486.54210	         7.75142e+57
          1487.34840	         8.80029e+57
          1488.15470	         8.66917e+57
          1488.96100	         7.93207e+57
          1489.76730	         9.08717e+57
