#sample_475_stacked_spectrum_rest_UV-bands_median_H-alpha_noDC.txt
#median Lum: 1.70869e+42
#Rest-frame wavelength (A) | Luminosity (erg/s/A)
#
          1110.00000	         0.00000e+00
          1110.80630	         2.14014e+59
          1111.61260	         4.95385e+59
          1112.41890	         2.55533e+59
          1113.22520	         5.22532e+58
          1114.03150	         1.66029e+58
          1114.83780	         1.10832e+59
          1115.64410	         1.17558e+59
          1116.45040	        -1.05051e+59
          1117.25670	         1.65992e+59
          1118.06300	         2.27804e+59
          1118.86930	         2.45768e+58
          1119.67560	         4.33913e+58
          1120.48190	        -2.15891e+58
          1121.28820	        -1.03938e+59
          1122.09450	        -4.85878e+58
          1122.90080	         2.87290e+58
          1123.70710	         7.37065e+58
          1124.51340	         6.94256e+58
          1125.31970	        -4.41648e+58
          1126.12600	        -7.75322e+58
          1126.93230	        -4.77675e+58
          1127.73860	        -5.17046e+57
          1128.54490	        -1.04905e+58
          1129.35120	         9.62433e+57
          1130.15750	        -4.61858e+58
          1130.96380	        -2.83229e+58
          1131.77010	         4.79585e+58
          1132.57640	         2.12021e+58
          1133.38270	        -5.62222e+57
          1134.18900	         1.26760e+58
          1134.99530	         1.30812e+58
          1135.80160	         1.90764e+58
          1136.60790	         6.94276e+57
          1137.41420	        -3.53567e+57
          1138.22050	         1.91964e+58
          1139.02680	         3.06588e+58
          1139.83310	         9.19881e+57
          1140.63940	         1.14974e+56
          1141.44570	         8.89577e+57
          1142.25200	         1.66476e+57
          1143.05830	         2.32753e+58
          1143.86460	         2.75775e+58
          1144.67090	         2.62416e+58
          1145.47720	         1.61055e+58
          1146.28350	         1.09322e+58
          1147.08980	         9.40100e+57
          1147.89610	         1.93618e+58
          1148.70240	         2.56016e+58
          1149.50870	         3.12890e+58
          1150.31500	         1.85898e+58
          1151.12130	         8.74696e+57
          1151.92760	         1.76187e+58
          1152.73390	         1.27451e+58
          1153.54020	         4.54127e+57
          1154.34650	         1.96106e+58
          1155.15280	         1.99437e+58
          1155.95910	         1.04810e+58
          1156.76540	         1.92816e+58
          1157.57170	         5.98380e+57
          1158.37800	        -7.38009e+57
          1159.18430	         7.64411e+57
          1159.99060	         1.02622e+58
          1160.79690	         8.77533e+57
          1161.60320	         2.06316e+58
          1162.40950	         2.44427e+58
          1163.21580	         2.63969e+58
          1164.02210	         1.01644e+58
          1164.82840	         1.11754e+58
          1165.63470	         1.19402e+58
          1166.44100	         3.00196e+58
          1167.24730	         1.37631e+58
          1168.05360	         1.00459e+58
          1168.85990	         8.66636e+57
          1169.66620	         9.45948e+57
          1170.47250	         2.23064e+58
          1171.27880	         1.61371e+58
          1172.08510	         2.24686e+57
          1172.89140	         5.19424e+57
          1173.69770	         1.21908e+57
          1174.50400	         1.04074e+58
          1175.31030	         1.92381e+58
          1176.11660	         1.47516e+58
          1176.92290	         1.15187e+58
          1177.72920	         1.32019e+58
          1178.53550	         1.26155e+58
          1179.34180	         6.85848e+57
          1180.14810	         7.63297e+57
          1180.95440	         8.54787e+57
          1181.76070	         8.55401e+57
          1182.56700	         1.00794e+58
          1183.37330	         9.02355e+57
          1184.17960	         1.14420e+58
          1184.98590	         1.27207e+58
          1185.79220	         1.01679e+58
          1186.59850	         1.31969e+58
          1187.40480	         5.09300e+57
          1188.21110	         1.10268e+58
          1189.01740	         1.07520e+58
          1189.82370	         1.56684e+58
          1190.63000	         1.37711e+58
          1191.43630	         9.42475e+57
          1192.24260	         6.93394e+57
          1193.04890	         1.00801e+58
          1193.85520	         5.42263e+57
          1194.66150	         8.07839e+56
          1195.46780	         6.48254e+57
          1196.27410	         1.38742e+58
          1197.08040	         1.19657e+58
          1197.88670	         1.91066e+58
          1198.69300	         1.87919e+58
          1199.49930	         1.45144e+58
          1200.30560	         1.06513e+58
          1201.11190	         5.26099e+57
          1201.91820	         5.36056e+57
          1202.72450	         5.41000e+57
          1203.53080	         1.16920e+58
          1204.33710	         6.05499e+57
          1205.14340	         8.49885e+57
          1205.94970	         8.61073e+57
          1206.75600	         9.78093e+57
          1207.56230	         7.20577e+57
          1208.36860	         7.50952e+57
          1209.17490	         3.52359e+57
          1209.98120	         3.53036e+57
          1210.78750	         4.14146e+57
          1211.59380	         1.18685e+58
          1212.40010	         1.91080e+58
          1213.20640	         1.96723e+58
          1214.01270	         2.16536e+58
          1214.81900	         2.56984e+58
          1215.62530	         4.43249e+58
          1216.43160	         9.17686e+58
          1217.23790	         1.52795e+59
          1218.04420	         1.15779e+59
          1218.85050	         8.91204e+58
          1219.65680	         5.84015e+58
          1220.46310	         3.42036e+58
          1221.26940	         2.60740e+58
          1222.07570	         2.15631e+58
          1222.88200	         1.61049e+58
          1223.68830	         1.18055e+58
          1224.49460	         5.71362e+57
          1225.30090	         4.80320e+57
          1226.10720	         6.27724e+57
          1226.91350	         6.75336e+57
          1227.71980	         9.54802e+57
          1228.52610	         1.17833e+58
          1229.33240	         1.05602e+58
          1230.13870	         9.44757e+57
          1230.94500	         8.29005e+57
          1231.75130	         7.47570e+57
          1232.55760	         8.30573e+57
          1233.36390	         1.00384e+58
          1234.17020	         9.41540e+57
          1234.97650	         7.05517e+57
          1235.78280	         7.52016e+57
          1236.58910	         1.01016e+58
          1237.39540	         1.17972e+58
          1238.20170	         1.10098e+58
          1239.00800	         1.12108e+58
          1239.81430	         1.31280e+58
          1240.62060	         9.22931e+57
          1241.42690	         7.34247e+57
          1242.23320	         8.77032e+57
          1243.03950	         8.98616e+57
          1243.84580	         1.05317e+58
          1244.65210	         1.22628e+58
          1245.45840	         1.20982e+58
          1246.26470	         8.93860e+57
          1247.07100	         7.30394e+57
          1247.87730	         6.16226e+57
          1248.68360	         3.13161e+57
          1249.48990	         6.12782e+57
          1250.29620	         7.32136e+57
          1251.10250	         7.49186e+57
          1251.90880	         8.43342e+57
          1252.71510	         8.57124e+57
          1253.52140	         8.42613e+57
          1254.32770	         1.01043e+58
          1255.13400	         1.47069e+58
          1255.94030	         1.49288e+58
          1256.74660	         1.23296e+58
          1257.55290	         1.00336e+58
          1258.35920	         6.32057e+57
          1259.16550	         4.10828e+57
          1259.97180	         5.14556e+57
          1260.77810	         9.85437e+57
          1261.58440	         1.15083e+58
          1262.39070	         7.34340e+57
          1263.19700	         7.67516e+57
          1264.00330	         1.05699e+58
          1264.80960	         1.11706e+58
          1265.61590	         1.13927e+58
          1266.42220	         1.33838e+58
          1267.22850	         1.35510e+58
          1268.03480	         1.48686e+58
          1268.84110	         1.58302e+58
          1269.64740	         1.29943e+58
          1270.45370	         1.23952e+58
          1271.26000	         1.14563e+58
          1272.06630	         1.07259e+58
          1272.87260	         1.08674e+58
          1273.67890	         1.05375e+58
          1274.48520	         1.25117e+58
          1275.29150	         1.47810e+58
          1276.09780	         1.15633e+58
          1276.90410	         1.40633e+58
          1277.71040	         1.42380e+58
          1278.51670	         1.32239e+58
          1279.32300	         1.51006e+58
          1280.12930	         1.40892e+58
          1280.93560	         1.27227e+58
          1281.74190	         1.21889e+58
          1282.54820	         1.08235e+58
          1283.35450	         1.04858e+58
          1284.16080	         1.29641e+58
          1284.96710	         1.48279e+58
          1285.77340	         1.34012e+58
          1286.57970	         1.24272e+58
          1287.38600	         1.59939e+58
          1288.19230	         1.81786e+58
          1288.99860	         1.50911e+58
          1289.80490	         1.09504e+58
          1290.61120	         1.22165e+58
          1291.41750	         1.37209e+58
          1292.22380	         1.07429e+58
          1293.03010	         1.00578e+58
          1293.83640	         1.30774e+58
          1294.64270	         1.14281e+58
          1295.44900	         7.61458e+57
          1296.25530	         8.49323e+57
          1297.06160	         9.07325e+57
          1297.86790	         1.03181e+58
          1298.67420	         9.26324e+57
          1299.48050	         9.40856e+57
          1300.28680	         1.10366e+58
          1301.09310	         9.01570e+57
          1301.89940	         4.22653e+57
          1302.70570	         5.52772e+57
          1303.51200	         7.69227e+57
          1304.31830	         1.00380e+58
          1305.12460	         1.12085e+58
          1305.93090	         1.22865e+58
          1306.73720	         1.31856e+58
          1307.54350	         1.42734e+58
          1308.34980	         1.46479e+58
          1309.15610	         1.52221e+58
          1309.96240	         1.58194e+58
          1310.76870	         1.35841e+58
          1311.57500	         1.33260e+58
          1312.38130	         1.06972e+58
          1313.18760	         1.08499e+58
          1313.99390	         1.52392e+58
          1314.80020	         1.56530e+58
          1315.60650	         1.41303e+58
          1316.41280	         1.19625e+58
          1317.21910	         1.15137e+58
          1318.02540	         1.33024e+58
          1318.83170	         1.36192e+58
          1319.63800	         1.31565e+58
          1320.44430	         1.09081e+58
          1321.25060	         1.17413e+58
          1322.05690	         1.34437e+58
          1322.86320	         1.23341e+58
          1323.66950	         1.13208e+58
          1324.47580	         8.76862e+57
          1325.28210	         9.73551e+57
          1326.08840	         1.25453e+58
          1326.89470	         1.34728e+58
          1327.70100	         1.11841e+58
          1328.50730	         8.54785e+57
          1329.31360	         1.02990e+58
          1330.11990	         1.00976e+58
          1330.92620	         9.87376e+57
          1331.73250	         1.11308e+58
          1332.53880	         1.00086e+58
          1333.34510	         8.88551e+57
          1334.15140	         8.29197e+57
          1334.95770	         8.16705e+57
          1335.76400	         1.00103e+58
          1336.57030	         1.11922e+58
          1337.37660	         9.99780e+57
          1338.18290	         9.48383e+57
          1338.98920	         1.06366e+58
          1339.79550	         1.19093e+58
          1340.60180	         1.17613e+58
          1341.40810	         1.34549e+58
          1342.21440	         1.30599e+58
          1343.02070	         1.28762e+58
          1343.82700	         1.26801e+58
          1344.63330	         1.12741e+58
          1345.43960	         1.21748e+58
          1346.24590	         1.00488e+58
          1347.05220	         9.88614e+57
          1347.85850	         1.06293e+58
          1348.66480	         1.09161e+58
          1349.47110	         1.27034e+58
          1350.27740	         1.23279e+58
          1351.08370	         1.10804e+58
          1351.89000	         1.10266e+58
          1352.69630	         1.15946e+58
          1353.50260	         1.10348e+58
          1354.30890	         1.11471e+58
          1355.11520	         1.18093e+58
          1355.92150	         1.05594e+58
          1356.72780	         9.88503e+57
          1357.53410	         1.01504e+58
          1358.34040	         1.12883e+58
          1359.14670	         9.39880e+57
          1359.95300	         1.05920e+58
          1360.75930	         1.08834e+58
          1361.56560	         1.00829e+58
          1362.37190	         1.10741e+58
          1363.17820	         1.07948e+58
          1363.98450	         1.25423e+58
          1364.79080	         1.44118e+58
          1365.59710	         1.41258e+58
          1366.40340	         1.19839e+58
          1367.20970	         9.93248e+57
          1368.01600	         8.64039e+57
          1368.82230	         7.76351e+57
          1369.62860	         1.06619e+58
          1370.43490	         1.11439e+58
          1371.24120	         1.00818e+58
          1372.04750	         9.81694e+57
          1372.85380	         1.06415e+58
          1373.66010	         1.23912e+58
          1374.46640	         1.11385e+58
          1375.27270	         1.00046e+58
          1376.07900	         8.41719e+57
          1376.88530	         8.64410e+57
          1377.69160	         9.14897e+57
          1378.49790	         7.90433e+57
          1379.30420	         6.77962e+57
          1380.11050	         9.37876e+57
          1380.91680	         9.91723e+57
          1381.72310	         8.29866e+57
          1382.52940	         7.83890e+57
          1383.33570	         8.40642e+57
          1384.14200	         9.87481e+57
          1384.94830	         1.14420e+58
          1385.75460	         1.17474e+58
          1386.56090	         1.05072e+58
          1387.36720	         1.11319e+58
          1388.17350	         1.33094e+58
          1388.97980	         1.16932e+58
          1389.78610	         1.09620e+58
          1390.59240	         1.00218e+58
          1391.39870	         7.30418e+57
          1392.20500	         8.24964e+57
          1393.01130	         7.10241e+57
          1393.81760	         6.64738e+57
          1394.62390	         7.57403e+57
          1395.43020	         6.60510e+57
          1396.23650	         5.72243e+57
          1397.04280	         6.56835e+57
          1397.84910	         8.24884e+57
          1398.65540	         8.99513e+57
          1399.46170	         9.63952e+57
          1400.26800	         7.78535e+57
          1401.07430	         6.66181e+57
          1401.88060	         8.68642e+57
          1402.68690	         9.63787e+57
          1403.49320	         1.01866e+58
          1404.29950	         1.08860e+58
          1405.10580	         1.03901e+58
          1405.91210	         1.03444e+58
          1406.71840	         1.05685e+58
          1407.52470	         1.03464e+58
          1408.33100	         1.07497e+58
          1409.13730	         1.16839e+58
          1409.94360	         1.21213e+58
          1410.74990	         1.21153e+58
          1411.55620	         1.03397e+58
          1412.36250	         9.20484e+57
          1413.16880	         8.59541e+57
          1413.97510	         7.20760e+57
          1414.78140	         8.67392e+57
          1415.58770	         1.16231e+58
          1416.39400	         1.11339e+58
          1417.20030	         9.74453e+57
          1418.00660	         7.98372e+57
          1418.81290	         8.33508e+57
          1419.61920	         9.25492e+57
          1420.42550	         1.17809e+58
          1421.23180	         1.41928e+58
          1422.03810	         1.31812e+58
          1422.84440	         1.26189e+58
          1423.65070	         1.49076e+58
          1424.45700	         1.18385e+58
          1425.26330	         9.43746e+57
          1426.06960	         1.00123e+58
          1426.87590	         1.04811e+58
          1427.68220	         1.04770e+58
          1428.48850	         1.08086e+58
          1429.29480	         1.07857e+58
          1430.10110	         1.03303e+58
          1430.90740	         9.22989e+57
          1431.71370	         9.31197e+57
          1432.52000	         9.00195e+57
          1433.32630	         8.48013e+57
          1434.13260	         8.49497e+57
          1434.93890	         8.24260e+57
          1435.74520	         8.14166e+57
          1436.55150	         9.62137e+57
          1437.35780	         8.99608e+57
          1438.16410	         9.63418e+57
          1438.97040	         9.17886e+57
          1439.77670	         9.01612e+57
          1440.58300	         9.36883e+57
          1441.38930	         9.86645e+57
          1442.19560	         9.69678e+57
          1443.00190	         9.57689e+57
          1443.80820	         1.05427e+58
          1444.61450	         9.25360e+57
          1445.42080	         9.36892e+57
          1446.22710	         1.02183e+58
          1447.03340	         9.23103e+57
          1447.83970	         8.95488e+57
          1448.64600	         9.65121e+57
          1449.45230	         1.05654e+58
          1450.25860	         1.03316e+58
          1451.06490	         9.75760e+57
          1451.87120	         7.68567e+57
          1452.67750	         7.34441e+57
          1453.48380	         9.50879e+57
          1454.29010	         8.91534e+57
          1455.09640	         8.26261e+57
          1455.90270	         8.83742e+57
          1456.70900	         8.05666e+57
          1457.51530	         8.81759e+57
          1458.32160	         1.13480e+58
          1459.12790	         1.14280e+58
          1459.93420	         1.04308e+58
          1460.74050	         8.72488e+57
          1461.54680	         8.11238e+57
          1462.35310	         7.64866e+57
          1463.15940	         8.92140e+57
          1463.96570	         1.07779e+58
          1464.77200	         1.07847e+58
          1465.57830	         1.13195e+58
          1466.38460	         1.01454e+58
          1467.19090	         1.00297e+58
          1467.99720	         1.02867e+58
          1468.80350	         1.00806e+58
          1469.60980	         9.24397e+57
          1470.41610	         1.03318e+58
          1471.22240	         9.29965e+57
          1472.02870	         1.00493e+58
          1472.83500	         1.01735e+58
          1473.64130	         9.46637e+57
          1474.44760	         1.01791e+58
          1475.25390	         9.83320e+57
          1476.06020	         9.13673e+57
          1476.86650	         8.09976e+57
          1477.67280	         7.81337e+57
          1478.47910	         6.76731e+57
          1479.28540	         6.49984e+57
          1480.09170	         8.61467e+57
          1480.89800	         8.51676e+57
          1481.70430	         7.77611e+57
          1482.51060	         8.03589e+57
          1483.31690	         8.26047e+57
          1484.12320	         8.13161e+57
          1484.92950	         8.26872e+57
          1485.73580	         8.96327e+57
          1486.54210	         9.68665e+57
          1487.34840	         9.19928e+57
          1488.15470	         8.02086e+57
          1488.96100	         9.27452e+57
          1489.76730	         9.32256e+57
