#sample_175_stacked_spectrum_rest_UV-bands_median_H-alpha_noDC.txt
#median Lum: 1.68688e+42
#Rest-frame wavelength (A) | Luminosity (erg/s/A)
#
          1110.00000	         0.00000e+00
          1110.80630	         1.37317e+59
          1111.61260	         1.42915e+59
          1112.41890	         2.31283e+59
          1113.22520	         1.38917e+59
          1114.03150	         7.53308e+56
          1114.83780	        -6.64046e+58
          1115.64410	         5.20064e+58
          1116.45040	         1.06612e+59
          1117.25670	         1.96292e+59
          1118.06300	         7.18847e+58
          1118.86930	         5.70413e+57
          1119.67560	         9.58419e+58
          1120.48190	        -5.65265e+58
          1121.28820	        -8.95615e+58
          1122.09450	         2.01235e+58
          1122.90080	        -3.40200e+58
          1123.70710	         1.84153e+58
          1124.51340	         1.16071e+59
          1125.31970	        -9.22045e+57
          1126.12600	         3.33185e+57
          1126.93230	        -3.64449e+58
          1127.73860	        -7.48015e+58
          1128.54490	         2.64535e+58
          1129.35120	         3.90897e+58
          1130.15750	         1.55223e+58
          1130.96380	        -2.61536e+58
          1131.77010	         2.83256e+58
          1132.57640	         5.50541e+58
          1133.38270	         3.71897e+58
          1134.18900	        -9.77714e+57
          1134.99530	         2.73923e+57
          1135.80160	         2.18610e+58
          1136.60790	         5.10066e+57
          1137.41420	         1.22202e+58
          1138.22050	         3.08974e+58
          1139.02680	         2.14034e+58
          1139.83310	         1.25441e+58
          1140.63940	         2.35220e+58
          1141.44570	        -9.84234e+57
          1142.25200	         5.72326e+57
          1143.05830	         2.23839e+58
          1143.86460	         2.14490e+58
          1144.67090	         3.25733e+58
          1145.47720	         1.33263e+58
          1146.28350	         2.88443e+58
          1147.08980	         1.47988e+58
          1147.89610	         1.70753e+58
          1148.70240	         2.18025e+58
          1149.50870	         2.10985e+58
          1150.31500	         8.50076e+57
          1151.12130	         1.92468e+58
          1151.92760	         1.24758e+58
          1152.73390	         1.32615e+58
          1153.54020	        -8.34754e+56
          1154.34650	         2.21363e+58
          1155.15280	         2.09933e+58
          1155.95910	         8.68561e+57
          1156.76540	         6.02034e+57
          1157.57170	        -2.01105e+57
          1158.37800	         1.79533e+56
          1159.18430	        -5.54853e+57
          1159.99060	         1.24206e+58
          1160.79690	         1.14517e+58
          1161.60320	         1.03006e+58
          1162.40950	         1.82457e+58
          1163.21580	         2.45787e+58
          1164.02210	         1.37322e+58
          1164.82840	         1.54676e+58
          1165.63470	         2.04343e+58
          1166.44100	         2.71861e+58
          1167.24730	         2.27926e+58
          1168.05360	         1.24189e+58
          1168.85990	         9.81438e+57
          1169.66620	         8.82997e+57
          1170.47250	         1.01738e+58
          1171.27880	         1.01667e+58
          1172.08510	         1.65972e+58
          1172.89140	         9.49150e+57
          1173.69770	         1.45031e+58
          1174.50400	         1.31265e+58
          1175.31030	         1.42307e+58
          1176.11660	         2.08549e+58
          1176.92290	         1.88016e+58
          1177.72920	         1.19055e+58
          1178.53550	         5.50016e+57
          1179.34180	         2.23526e+57
          1180.14810	         3.05140e+57
          1180.95440	         8.72791e+57
          1181.76070	         8.48530e+57
          1182.56700	         1.27818e+58
          1183.37330	         1.13578e+58
          1184.17960	         9.73131e+57
          1184.98590	         1.26712e+58
          1185.79220	         1.01468e+58
          1186.59850	         1.06483e+58
          1187.40480	         1.02232e+58
          1188.21110	         1.92901e+58
          1189.01740	         1.33084e+58
          1189.82370	         7.47806e+57
          1190.63000	         1.36838e+58
          1191.43630	         1.16403e+58
          1192.24260	         8.31475e+57
          1193.04890	         1.17925e+58
          1193.85520	         1.20513e+58
          1194.66150	         8.31601e+57
          1195.46780	         1.03083e+58
          1196.27410	         1.36722e+58
          1197.08040	         1.27231e+58
          1197.88670	         1.56819e+58
          1198.69300	         1.35790e+58
          1199.49930	         1.61318e+58
          1200.30560	         1.30567e+58
          1201.11190	         9.82470e+57
          1201.91820	         9.60628e+57
          1202.72450	         1.04517e+58
          1203.53080	         1.53474e+58
          1204.33710	         7.80142e+57
          1205.14340	         4.69142e+57
          1205.94970	         6.54680e+57
          1206.75600	         9.75906e+57
          1207.56230	         8.84470e+57
          1208.36860	         9.63319e+57
          1209.17490	         4.41162e+57
          1209.98120	         4.69767e+57
          1210.78750	         8.00275e+57
          1211.59380	         1.10243e+58
          1212.40010	         1.91434e+58
          1213.20640	         1.77373e+58
          1214.01270	         1.93479e+58
          1214.81900	         2.60448e+58
          1215.62530	         4.37809e+58
          1216.43160	         8.66025e+58
          1217.23790	         1.47989e+59
          1218.04420	         1.15420e+59
          1218.85050	         8.48935e+58
          1219.65680	         6.04818e+58
          1220.46310	         3.91756e+58
          1221.26940	         2.34574e+58
          1222.07570	         1.51611e+58
          1222.88200	         1.40724e+58
          1223.68830	         1.15998e+58
          1224.49460	         1.29800e+58
          1225.30090	         1.05183e+58
          1226.10720	         8.40145e+57
          1226.91350	         6.65743e+57
          1227.71980	         8.88143e+57
          1228.52610	         9.41255e+57
          1229.33240	         9.02062e+57
          1230.13870	         8.91190e+57
          1230.94500	         8.04660e+57
          1231.75130	         7.05806e+57
          1232.55760	         7.85508e+57
          1233.36390	         7.30204e+57
          1234.17020	         1.09997e+58
          1234.97650	         9.47650e+57
          1235.78280	         6.26763e+57
          1236.58910	         4.55560e+57
          1237.39540	         7.79697e+57
          1238.20170	         1.00445e+58
          1239.00800	         1.21586e+58
          1239.81430	         1.48788e+58
          1240.62060	         1.20296e+58
          1241.42690	         1.07241e+58
          1242.23320	         1.09196e+58
          1243.03950	         7.89685e+57
          1243.84580	         7.80102e+57
          1244.65210	         8.51493e+57
          1245.45840	         8.90882e+57
          1246.26470	         8.52593e+57
          1247.07100	         4.25317e+57
          1247.87730	         7.06831e+57
          1248.68360	         4.05719e+57
          1249.48990	         5.89224e+57
          1250.29620	         5.25371e+57
          1251.10250	         6.59138e+57
          1251.90880	         6.43934e+57
          1252.71510	         4.22738e+57
          1253.52140	         5.90565e+57
          1254.32770	         9.73004e+57
          1255.13400	         1.44406e+58
          1255.94030	         1.35309e+58
          1256.74660	         1.13090e+58
          1257.55290	         9.61582e+57
          1258.35920	         9.22062e+57
          1259.16550	         6.77978e+57
          1259.97180	         3.54241e+57
          1260.77810	         7.66788e+57
          1261.58440	         1.25244e+58
          1262.39070	         8.44420e+57
          1263.19700	         7.43357e+57
          1264.00330	         9.36286e+57
          1264.80960	         1.10290e+58
          1265.61590	         1.20031e+58
          1266.42220	         1.05295e+58
          1267.22850	         9.77847e+57
          1268.03480	         1.24910e+58
          1268.84110	         1.43044e+58
          1269.64740	         1.20627e+58
          1270.45370	         1.27398e+58
          1271.26000	         1.12647e+58
          1272.06630	         1.10785e+58
          1272.87260	         1.20529e+58
          1273.67890	         1.15426e+58
          1274.48520	         1.29487e+58
          1275.29150	         1.32847e+58
          1276.09780	         1.20694e+58
          1276.90410	         1.44556e+58
          1277.71040	         1.02844e+58
          1278.51670	         9.52364e+57
          1279.32300	         1.34529e+58
          1280.12930	         1.33470e+58
          1280.93560	         1.22777e+58
          1281.74190	         1.30877e+58
          1282.54820	         1.33060e+58
          1283.35450	         9.48528e+57
          1284.16080	         8.69071e+57
          1284.96710	         1.21219e+58
          1285.77340	         1.21491e+58
          1286.57970	         1.04967e+58
          1287.38600	         1.35926e+58
          1288.19230	         1.70471e+58
          1288.99860	         1.68663e+58
          1289.80490	         1.06283e+58
          1290.61120	         1.17454e+58
          1291.41750	         1.32190e+58
          1292.22380	         1.10373e+58
          1293.03010	         1.18418e+58
          1293.83640	         1.32675e+58
          1294.64270	         1.05730e+58
          1295.44900	         6.01844e+57
          1296.25530	         6.35338e+57
          1297.06160	         8.77746e+57
          1297.86790	         8.82936e+57
          1298.67420	         9.30676e+57
          1299.48050	         9.81448e+57
          1300.28680	         9.59682e+57
          1301.09310	         8.03809e+57
          1301.89940	         3.59314e+57
          1302.70570	         6.17882e+57
          1303.51200	         8.98986e+57
          1304.31830	         9.38570e+57
          1305.12460	         9.16229e+57
          1305.93090	         9.87689e+57
          1306.73720	         1.10518e+58
          1307.54350	         1.30851e+58
          1308.34980	         1.35980e+58
          1309.15610	         1.50884e+58
          1309.96240	         1.58016e+58
          1310.76870	         1.21832e+58
          1311.57500	         1.06152e+58
          1312.38130	         1.25254e+58
          1313.18760	         1.43829e+58
          1313.99390	         1.47371e+58
          1314.80020	         1.58668e+58
          1315.60650	         1.44960e+58
          1316.41280	         1.01870e+58
          1317.21910	         9.74572e+57
          1318.02540	         1.29320e+58
          1318.83170	         1.29374e+58
          1319.63800	         1.14376e+58
          1320.44430	         1.16362e+58
          1321.25060	         1.31761e+58
          1322.05690	         1.35897e+58
          1322.86320	         1.25685e+58
          1323.66950	         1.05539e+58
          1324.47580	         9.52714e+57
          1325.28210	         1.02525e+58
          1326.08840	         1.21597e+58
          1326.89470	         1.26583e+58
          1327.70100	         1.05706e+58
          1328.50730	         8.23958e+57
          1329.31360	         8.87253e+57
          1330.11990	         9.08379e+57
          1330.92620	         8.69691e+57
          1331.73250	         9.57801e+57
          1332.53880	         1.09238e+58
          1333.34510	         8.94581e+57
          1334.15140	         8.57907e+57
          1334.95770	         8.25937e+57
          1335.76400	         9.51078e+57
          1336.57030	         1.03122e+58
          1337.37660	         1.14623e+58
          1338.18290	         1.19007e+58
          1338.98920	         1.12760e+58
          1339.79550	         9.91690e+57
          1340.60180	         1.29925e+58
          1341.40810	         1.43486e+58
          1342.21440	         1.24035e+58
          1343.02070	         1.23438e+58
          1343.82700	         1.14719e+58
          1344.63330	         1.16063e+58
          1345.43960	         1.28779e+58
          1346.24590	         1.12790e+58
          1347.05220	         1.39839e+58
          1347.85850	         1.26495e+58
          1348.66480	         1.17729e+58
          1349.47110	         1.15305e+58
          1350.27740	         1.13647e+58
          1351.08370	         1.21907e+58
          1351.89000	         1.28863e+58
          1352.69630	         1.17149e+58
          1353.50260	         1.15262e+58
          1354.30890	         1.26458e+58
          1355.11520	         1.12223e+58
          1355.92150	         9.71725e+57
          1356.72780	         1.05133e+58
          1357.53410	         1.11800e+58
          1358.34040	         1.07362e+58
          1359.14670	         1.04812e+58
          1359.95300	         1.13401e+58
          1360.75930	         1.18678e+58
          1361.56560	         1.02065e+58
          1362.37190	         1.13650e+58
          1363.17820	         1.18461e+58
          1363.98450	         1.32454e+58
          1364.79080	         1.37292e+58
          1365.59710	         1.24870e+58
          1366.40340	         1.14431e+58
          1367.20970	         1.06968e+58
          1368.01600	         1.04475e+58
          1368.82230	         1.04841e+58
          1369.62860	         1.14168e+58
          1370.43490	         9.99825e+57
          1371.24120	         9.44936e+57
          1372.04750	         8.45996e+57
          1372.85380	         9.83174e+57
          1373.66010	         9.49062e+57
          1374.46640	         1.01440e+58
          1375.27270	         1.12041e+58
          1376.07900	         9.88855e+57
          1376.88530	         9.31503e+57
          1377.69160	         9.35413e+57
          1378.49790	         7.69468e+57
          1379.30420	         7.48834e+57
          1380.11050	         8.46332e+57
          1380.91680	         7.87274e+57
          1381.72310	         7.24213e+57
          1382.52940	         7.32443e+57
          1383.33570	         7.56320e+57
          1384.14200	         1.03233e+58
          1384.94830	         1.16784e+58
          1385.75460	         1.09052e+58
          1386.56090	         1.27248e+58
          1387.36720	         1.19765e+58
          1388.17350	         1.18708e+58
          1388.97980	         1.07578e+58
          1389.78610	         7.90966e+57
          1390.59240	         7.98006e+57
          1391.39870	         6.92680e+57
          1392.20500	         7.83263e+57
          1393.01130	         6.96549e+57
          1393.81760	         7.26846e+57
          1394.62390	         7.53969e+57
          1395.43020	         6.58594e+57
          1396.23650	         6.74634e+57
          1397.04280	         7.28630e+57
          1397.84910	         8.14937e+57
          1398.65540	         8.44479e+57
          1399.46170	         9.62483e+57
          1400.26800	         7.78175e+57
          1401.07430	         7.31061e+57
          1401.88060	         8.49820e+57
          1402.68690	         9.89884e+57
          1403.49320	         1.02053e+58
          1404.29950	         9.16634e+57
          1405.10580	         9.94972e+57
          1405.91210	         1.11987e+58
          1406.71840	         1.10049e+58
          1407.52470	         1.08120e+58
          1408.33100	         1.11736e+58
          1409.13730	         1.11442e+58
          1409.94360	         1.07575e+58
          1410.74990	         1.19887e+58
          1411.55620	         1.10926e+58
          1412.36250	         1.03030e+58
          1413.16880	         1.04121e+58
          1413.97510	         8.53797e+57
          1414.78140	         8.69338e+57
          1415.58770	         1.05150e+58
          1416.39400	         1.14217e+58
          1417.20030	         1.23572e+58
          1418.00660	         1.03022e+58
          1418.81290	         1.01046e+58
          1419.61920	         1.12906e+58
          1420.42550	         1.27445e+58
          1421.23180	         1.39826e+58
          1422.03810	         1.24330e+58
          1422.84440	         1.12780e+58
          1423.65070	         1.28515e+58
          1424.45700	         1.02439e+58
          1425.26330	         7.67075e+57
          1426.06960	         7.82688e+57
          1426.87590	         9.37385e+57
          1427.68220	         1.09419e+58
          1428.48850	         1.17163e+58
          1429.29480	         1.09926e+58
          1430.10110	         1.04090e+58
          1430.90740	         8.68902e+57
          1431.71370	         8.15203e+57
          1432.52000	         8.58427e+57
          1433.32630	         7.82928e+57
          1434.13260	         7.97677e+57
          1434.93890	         8.35809e+57
          1435.74520	         9.30390e+57
          1436.55150	         9.51471e+57
          1437.35780	         8.11172e+57
          1438.16410	         8.55748e+57
          1438.97040	         9.63219e+57
          1439.77670	         8.92261e+57
          1440.58300	         9.09763e+57
          1441.38930	         9.96185e+57
          1442.19560	         1.04126e+58
          1443.00190	         9.68793e+57
          1443.80820	         1.04722e+58
          1444.61450	         1.00745e+58
          1445.42080	         8.07305e+57
          1446.22710	         9.15457e+57
          1447.03340	         9.05835e+57
          1447.83970	         1.02826e+58
          1448.64600	         1.07699e+58
          1449.45230	         1.01745e+58
          1450.25860	         9.48393e+57
          1451.06490	         8.28516e+57
          1451.87120	         8.01590e+57
          1452.67750	         8.29513e+57
          1453.48380	         9.34432e+57
          1454.29010	         8.47103e+57
          1455.09640	         8.69605e+57
          1455.90270	         9.43021e+57
          1456.70900	         8.80688e+57
          1457.51530	         9.61603e+57
          1458.32160	         1.17588e+58
          1459.12790	         1.12006e+58
          1459.93420	         9.56746e+57
          1460.74050	         7.58434e+57
          1461.54680	         8.14850e+57
          1462.35310	         9.03228e+57
          1463.15940	         9.98011e+57
          1463.96570	         1.11678e+58
          1464.77200	         1.14889e+58
          1465.57830	         1.03766e+58
          1466.38460	         8.50593e+57
          1467.19090	         7.98075e+57
          1467.99720	         9.07500e+57
          1468.80350	         9.39519e+57
          1469.60980	         1.04989e+58
          1470.41610	         1.04984e+58
          1471.22240	         9.66871e+57
          1472.02870	         1.01689e+58
          1472.83500	         1.06203e+58
          1473.64130	         1.11524e+58
          1474.44760	         1.13380e+58
          1475.25390	         9.33223e+57
          1476.06020	         8.11781e+57
          1476.86650	         8.46328e+57
          1477.67280	         8.17308e+57
          1478.47910	         6.50262e+57
          1479.28540	         6.91499e+57
          1480.09170	         7.97355e+57
          1480.89800	         8.54385e+57
          1481.70430	         7.97328e+57
          1482.51060	         7.54626e+57
          1483.31690	         6.88029e+57
          1484.12320	         7.01061e+57
          1484.92950	         7.93405e+57
          1485.73580	         7.74538e+57
          1486.54210	         8.27911e+57
          1487.34840	         9.19516e+57
          1488.15470	         9.07722e+57
          1488.96100	         9.77275e+57
          1489.76730	         9.87614e+57
