#sample_467_stacked_spectrum_rest_UV-bands_median_H-alpha_noDC.txt
#median Lum: 1.71447e+42
#Rest-frame wavelength (A) | Luminosity (erg/s/A)
#
          1110.00000	         0.00000e+00
          1110.80630	        -1.74117e+59
          1111.61260	         4.11769e+59
          1112.41890	         2.32758e+59
          1113.22520	         6.22908e+58
          1114.03150	        -2.89674e+59
          1114.83780	        -2.11921e+59
          1115.64410	         6.90978e+58
          1116.45040	         1.10004e+59
          1117.25670	         6.78490e+58
          1118.06300	         8.38026e+58
          1118.86930	        -6.17685e+58
          1119.67560	         1.35024e+59
          1120.48190	         3.65348e+58
          1121.28820	        -6.34708e+58
          1122.09450	         1.16224e+58
          1122.90080	         7.37595e+56
          1123.70710	         6.45433e+58
          1124.51340	         1.39988e+59
          1125.31970	         2.24058e+58
          1126.12600	        -2.40514e+58
          1126.93230	        -4.35963e+58
          1127.73860	        -5.42242e+58
          1128.54490	        -3.29195e+58
          1129.35120	         4.13179e+58
          1130.15750	        -1.37109e+57
          1130.96380	         5.78534e+58
          1131.77010	         1.07719e+59
          1132.57640	         4.59342e+58
          1133.38270	         8.36144e+57
          1134.18900	         9.80389e+55
          1134.99530	        -1.06628e+58
          1135.80160	        -3.58541e+57
          1136.60790	         2.94875e+58
          1137.41420	         1.43379e+58
          1138.22050	         5.05255e+58
          1139.02680	         3.63801e+58
          1139.83310	         2.92568e+58
          1140.63940	         9.94698e+57
          1141.44570	        -1.04014e+58
          1142.25200	        -1.93437e+58
          1143.05830	        -4.07240e+57
          1143.86460	         9.71130e+57
          1144.67090	         2.11132e+58
          1145.47720	         8.38715e+57
          1146.28350	         1.26485e+58
          1147.08980	         5.64718e+57
          1147.89610	         2.56446e+58
          1148.70240	         3.87769e+58
          1149.50870	         2.41299e+58
          1150.31500	         9.83459e+57
          1151.12130	         9.64202e+57
          1151.92760	         6.69468e+57
          1152.73390	        -9.87018e+56
          1153.54020	        -6.79526e+57
          1154.34650	         1.23783e+58
          1155.15280	         1.45043e+58
          1155.95910	         1.61188e+58
          1156.76540	         8.82752e+57
          1157.57170	        -8.96685e+56
          1158.37800	        -3.72697e+57
          1159.18430	        -8.31681e+57
          1159.99060	         1.84929e+56
          1160.79690	         2.77082e+57
          1161.60320	         1.35666e+58
          1162.40950	         9.45840e+57
          1163.21580	         1.58488e+58
          1164.02210	         1.74849e+58
          1164.82840	        -3.40807e+56
          1165.63470	         8.59395e+57
          1166.44100	         2.73162e+58
          1167.24730	         1.64650e+58
          1168.05360	         4.90087e+57
          1168.85990	        -2.86687e+57
          1169.66620	         3.41236e+57
          1170.47250	         1.32012e+58
          1171.27880	         9.74812e+57
          1172.08510	         1.32496e+58
          1172.89140	         9.70749e+57
          1173.69770	         4.10227e+57
          1174.50400	         1.16664e+58
          1175.31030	         2.12550e+58
          1176.11660	         1.89386e+58
          1176.92290	         1.59889e+58
          1177.72920	         7.49011e+57
          1178.53550	         5.09357e+57
          1179.34180	         2.29361e+57
          1180.14810	         8.20994e+57
          1180.95440	         1.11146e+58
          1181.76070	         7.53005e+57
          1182.56700	         7.77865e+57
          1183.37330	         4.69324e+57
          1184.17960	         1.34929e+58
          1184.98590	         1.54920e+58
          1185.79220	         1.11160e+58
          1186.59850	         7.54800e+57
          1187.40480	         1.05733e+58
          1188.21110	         2.17268e+58
          1189.01740	         7.09295e+57
          1189.82370	         1.27636e+58
          1190.63000	         1.04734e+58
          1191.43630	         1.00934e+58
          1192.24260	         8.32478e+57
          1193.04890	         1.35184e+58
          1193.85520	         1.30133e+58
          1194.66150	         6.39328e+57
          1195.46780	         1.02985e+58
          1196.27410	         1.53957e+58
          1197.08040	         1.52524e+58
          1197.88670	         1.61634e+58
          1198.69300	         1.35236e+58
          1199.49930	         1.36940e+58
          1200.30560	         1.28000e+58
          1201.11190	         1.00833e+58
          1201.91820	         9.62076e+57
          1202.72450	         4.18844e+57
          1203.53080	         1.44652e+58
          1204.33710	         1.07069e+58
          1205.14340	         7.71853e+57
          1205.94970	         7.61535e+57
          1206.75600	         9.61972e+57
          1207.56230	         9.07173e+57
          1208.36860	         5.97550e+57
          1209.17490	         3.05484e+57
          1209.98120	         3.57064e+57
          1210.78750	         1.02607e+58
          1211.59380	         1.62219e+58
          1212.40010	         1.91574e+58
          1213.20640	         1.99109e+58
          1214.01270	         1.86807e+58
          1214.81900	         2.33083e+58
          1215.62530	         4.37932e+58
          1216.43160	         9.11374e+58
          1217.23790	         1.50378e+59
          1218.04420	         1.14006e+59
          1218.85050	         8.86020e+58
          1219.65680	         5.87315e+58
          1220.46310	         2.97483e+58
          1221.26940	         2.07112e+58
          1222.07570	         9.35292e+57
          1222.88200	         6.96145e+57
          1223.68830	         1.10795e+58
          1224.49460	         1.08432e+58
          1225.30090	         8.92322e+57
          1226.10720	         1.03322e+58
          1226.91350	         8.27446e+57
          1227.71980	         7.33085e+57
          1228.52610	         1.39406e+58
          1229.33240	         9.55100e+57
          1230.13870	         9.52336e+57
          1230.94500	         7.86062e+57
          1231.75130	         7.64252e+57
          1232.55760	         1.06187e+58
          1233.36390	         1.05160e+58
          1234.17020	         6.15366e+57
          1234.97650	         6.52463e+57
          1235.78280	         7.47344e+57
          1236.58910	         7.76429e+57
          1237.39540	         8.35973e+57
          1238.20170	         9.47775e+57
          1239.00800	         1.15652e+58
          1239.81430	         1.33483e+58
          1240.62060	         1.05008e+58
          1241.42690	         1.05413e+58
          1242.23320	         1.24327e+58
          1243.03950	         9.93232e+57
          1243.84580	         9.07179e+57
          1244.65210	         7.90020e+57
          1245.45840	         9.55164e+57
          1246.26470	         9.11414e+57
          1247.07100	         8.05693e+57
          1247.87730	         5.68293e+57
          1248.68360	         2.11992e+57
          1249.48990	         7.04789e+57
          1250.29620	         1.02001e+58
          1251.10250	         8.21602e+57
          1251.90880	         4.30418e+57
          1252.71510	         4.37690e+57
          1253.52140	         5.96102e+57
          1254.32770	         8.10215e+57
          1255.13400	         1.15302e+58
          1255.94030	         1.15344e+58
          1256.74660	         9.80695e+57
          1257.55290	         1.02982e+58
          1258.35920	         8.70229e+57
          1259.16550	         6.05905e+57
          1259.97180	         4.62646e+57
          1260.77810	         7.27789e+57
          1261.58440	         1.02859e+58
          1262.39070	         1.01391e+58
          1263.19700	         9.13329e+57
          1264.00330	         9.19281e+57
          1264.80960	         9.31867e+57
          1265.61590	         1.34903e+58
          1266.42220	         1.43820e+58
          1267.22850	         1.14348e+58
          1268.03480	         1.38077e+58
          1268.84110	         1.40439e+58
          1269.64740	         1.23875e+58
          1270.45370	         1.61346e+58
          1271.26000	         1.64166e+58
          1272.06630	         1.35400e+58
          1272.87260	         1.27878e+58
          1273.67890	         9.74136e+57
          1274.48520	         1.07713e+58
          1275.29150	         1.15296e+58
          1276.09780	         1.06408e+58
          1276.90410	         1.35452e+58
          1277.71040	         1.16828e+58
          1278.51670	         1.26652e+58
          1279.32300	         1.46260e+58
          1280.12930	         1.24936e+58
          1280.93560	         1.03418e+58
          1281.74190	         1.02710e+58
          1282.54820	         1.40691e+58
          1283.35450	         1.27290e+58
          1284.16080	         1.16741e+58
          1284.96710	         1.39912e+58
          1285.77340	         1.13947e+58
          1286.57970	         1.14286e+58
          1287.38600	         1.54107e+58
          1288.19230	         1.81008e+58
          1288.99860	         1.46564e+58
          1289.80490	         1.17047e+58
          1290.61120	         1.34795e+58
          1291.41750	         1.33094e+58
          1292.22380	         1.16082e+58
          1293.03010	         1.05937e+58
          1293.83640	         1.09355e+58
          1294.64270	         1.00894e+58
          1295.44900	         5.83820e+57
          1296.25530	         4.72798e+57
          1297.06160	         9.44001e+57
          1297.86790	         1.13640e+58
          1298.67420	         1.03198e+58
          1299.48050	         1.11876e+58
          1300.28680	         1.07631e+58
          1301.09310	         6.76018e+57
          1301.89940	         4.17806e+57
          1302.70570	         5.39300e+57
          1303.51200	         6.73399e+57
          1304.31830	         9.11641e+57
          1305.12460	         1.10884e+58
          1305.93090	         1.05330e+58
          1306.73720	         1.11635e+58
          1307.54350	         1.38195e+58
          1308.34980	         1.46290e+58
          1309.15610	         1.56064e+58
          1309.96240	         1.61915e+58
          1310.76870	         1.38525e+58
          1311.57500	         1.18415e+58
          1312.38130	         1.06257e+58
          1313.18760	         1.07455e+58
          1313.99390	         1.25626e+58
          1314.80020	         1.35014e+58
          1315.60650	         1.50485e+58
          1316.41280	         1.40051e+58
          1317.21910	         1.05857e+58
          1318.02540	         1.17613e+58
          1318.83170	         1.28289e+58
          1319.63800	         1.09764e+58
          1320.44430	         1.16422e+58
          1321.25060	         1.36973e+58
          1322.05690	         1.46495e+58
          1322.86320	         1.31399e+58
          1323.66950	         1.21939e+58
          1324.47580	         1.10296e+58
          1325.28210	         1.17923e+58
          1326.08840	         1.20419e+58
          1326.89470	         1.25679e+58
          1327.70100	         1.16970e+58
          1328.50730	         8.43397e+57
          1329.31360	         8.19646e+57
          1330.11990	         9.43886e+57
          1330.92620	         1.02112e+58
          1331.73250	         1.05106e+58
          1332.53880	         9.13698e+57
          1333.34510	         8.83272e+57
          1334.15140	         8.18583e+57
          1334.95770	         8.17604e+57
          1335.76400	         9.85160e+57
          1336.57030	         1.01549e+58
          1337.37660	         1.03991e+58
          1338.18290	         1.10085e+58
          1338.98920	         1.06848e+58
          1339.79550	         1.13026e+58
          1340.60180	         1.20419e+58
          1341.40810	         1.34426e+58
          1342.21440	         1.28011e+58
          1343.02070	         1.27781e+58
          1343.82700	         1.44480e+58
          1344.63330	         1.39907e+58
          1345.43960	         1.28459e+58
          1346.24590	         9.43339e+57
          1347.05220	         9.35317e+57
          1347.85850	         9.64078e+57
          1348.66480	         1.28867e+58
          1349.47110	         1.39528e+58
          1350.27740	         1.24962e+58
          1351.08370	         1.28378e+58
          1351.89000	         1.29541e+58
          1352.69630	         1.25857e+58
          1353.50260	         1.21458e+58
          1354.30890	         1.13887e+58
          1355.11520	         1.20253e+58
          1355.92150	         1.14070e+58
          1356.72780	         1.08105e+58
          1357.53410	         1.00455e+58
          1358.34040	         1.01108e+58
          1359.14670	         1.05463e+58
          1359.95300	         1.12193e+58
          1360.75930	         1.03165e+58
          1361.56560	         9.40418e+57
          1362.37190	         1.03909e+58
          1363.17820	         1.05895e+58
          1363.98450	         1.24260e+58
          1364.79080	         1.34997e+58
          1365.59710	         1.37844e+58
          1366.40340	         1.15936e+58
          1367.20970	         8.20703e+57
          1368.01600	         9.55758e+57
          1368.82230	         1.11683e+58
          1369.62860	         1.05396e+58
          1370.43490	         9.26451e+57
          1371.24120	         8.55414e+57
          1372.04750	         7.85108e+57
          1372.85380	         1.13934e+58
          1373.66010	         1.16991e+58
          1374.46640	         1.02199e+58
          1375.27270	         1.04562e+58
          1376.07900	         8.99947e+57
          1376.88530	         8.66481e+57
          1377.69160	         9.29909e+57
          1378.49790	         6.75706e+57
          1379.30420	         7.02578e+57
          1380.11050	         8.82507e+57
          1380.91680	         7.76522e+57
          1381.72310	         7.45234e+57
          1382.52940	         8.78569e+57
          1383.33570	         8.02636e+57
          1384.14200	         8.64986e+57
          1384.94830	         1.04878e+58
          1385.75460	         9.64671e+57
          1386.56090	         1.06692e+58
          1387.36720	         1.06836e+58
          1388.17350	         1.27641e+58
          1388.97980	         1.00673e+58
          1389.78610	         7.82495e+57
          1390.59240	         7.99251e+57
          1391.39870	         6.96783e+57
          1392.20500	         8.13219e+57
          1393.01130	         7.55071e+57
          1393.81760	         7.08111e+57
          1394.62390	         7.75073e+57
          1395.43020	         7.53106e+57
          1396.23650	         7.31733e+57
          1397.04280	         7.46408e+57
          1397.84910	         9.05392e+57
          1398.65540	         9.96948e+57
          1399.46170	         1.05252e+58
          1400.26800	         8.70611e+57
          1401.07430	         7.22985e+57
          1401.88060	         7.57706e+57
          1402.68690	         8.75941e+57
          1403.49320	         9.65320e+57
          1404.29950	         1.00961e+58
          1405.10580	         1.07306e+58
          1405.91210	         1.09751e+58
          1406.71840	         1.06671e+58
          1407.52470	         1.01677e+58
          1408.33100	         1.02659e+58
          1409.13730	         1.20954e+58
          1409.94360	         1.16974e+58
          1410.74990	         1.04500e+58
          1411.55620	         9.61263e+57
          1412.36250	         9.50057e+57
          1413.16880	         9.13998e+57
          1413.97510	         7.49645e+57
          1414.78140	         8.73506e+57
          1415.58770	         1.10971e+58
          1416.39400	         1.05312e+58
          1417.20030	         9.87164e+57
          1418.00660	         1.06600e+58
          1418.81290	         1.09458e+58
          1419.61920	         1.07917e+58
          1420.42550	         1.34149e+58
          1421.23180	         1.47680e+58
          1422.03810	         1.16361e+58
          1422.84440	         1.10462e+58
          1423.65070	         1.26352e+58
          1424.45700	         1.11026e+58
          1425.26330	         9.34811e+57
          1426.06960	         9.70120e+57
          1426.87590	         1.00464e+58
          1427.68220	         1.02395e+58
          1428.48850	         1.06196e+58
          1429.29480	         1.15409e+58
          1430.10110	         9.95500e+57
          1430.90740	         8.27272e+57
          1431.71370	         9.03061e+57
          1432.52000	         9.07434e+57
          1433.32630	         8.53548e+57
          1434.13260	         8.39490e+57
          1434.93890	         8.68486e+57
          1435.74520	         9.82789e+57
          1436.55150	         9.44791e+57
          1437.35780	         8.27565e+57
          1438.16410	         8.74068e+57
          1438.97040	         7.99954e+57
          1439.77670	         8.03681e+57
          1440.58300	         8.87930e+57
          1441.38930	         9.19680e+57
          1442.19560	         9.28305e+57
          1443.00190	         9.40175e+57
          1443.80820	         1.05479e+58
          1444.61450	         9.38750e+57
          1445.42080	         8.07645e+57
          1446.22710	         9.87285e+57
          1447.03340	         9.68707e+57
          1447.83970	         1.00712e+58
          1448.64600	         1.04463e+58
          1449.45230	         9.53617e+57
          1450.25860	         1.07939e+58
          1451.06490	         9.17212e+57
          1451.87120	         8.34637e+57
          1452.67750	         8.36494e+57
          1453.48380	         8.64141e+57
          1454.29010	         8.12200e+57
          1455.09640	         7.90968e+57
          1455.90270	         9.25126e+57
          1456.70900	         8.68010e+57
          1457.51530	         9.76281e+57
          1458.32160	         1.22849e+58
          1459.12790	         1.17199e+58
          1459.93420	         1.01851e+58
          1460.74050	         8.80385e+57
          1461.54680	         8.01356e+57
          1462.35310	         6.48344e+57
          1463.15940	         8.60277e+57
          1463.96570	         1.17753e+58
          1464.77200	         1.23489e+58
          1465.57830	         1.03071e+58
          1466.38460	         8.15105e+57
          1467.19090	         8.15131e+57
          1467.99720	         7.80065e+57
          1468.80350	         8.61268e+57
          1469.60980	         9.87617e+57
          1470.41610	         1.01602e+58
          1471.22240	         9.43090e+57
          1472.02870	         1.01967e+58
          1472.83500	         1.03072e+58
          1473.64130	         1.00052e+58
          1474.44760	         9.39274e+57
          1475.25390	         9.58590e+57
          1476.06020	         9.34359e+57
          1476.86650	         8.39132e+57
          1477.67280	         7.74831e+57
          1478.47910	         7.00199e+57
          1479.28540	         7.37268e+57
          1480.09170	         8.46653e+57
          1480.89800	         8.54819e+57
          1481.70430	         8.82664e+57
          1482.51060	         8.32450e+57
          1483.31690	         7.71171e+57
          1484.12320	         7.20880e+57
          1484.92950	         7.20028e+57
          1485.73580	         6.84654e+57
          1486.54210	         7.36572e+57
          1487.34840	         8.76678e+57
          1488.15470	         8.89450e+57
          1488.96100	         8.32429e+57
          1489.76730	         8.38051e+57
