#sample_320_stacked_spectrum_rest_UV-bands_median_H-alpha_noDC.txt
#median Lum: 1.70500e+42
#Rest-frame wavelength (A) | Luminosity (erg/s/A)
#
          1110.00000	         0.00000e+00
          1110.80630	        -9.51758e+58
          1111.61260	         1.26246e+59
          1112.41890	         3.39512e+59
          1113.22520	         1.17618e+59
          1114.03150	        -2.49617e+59
          1114.83780	         1.73235e+59
          1115.64410	         5.80321e+58
          1116.45040	        -6.91335e+58
          1117.25670	        -3.65059e+58
          1118.06300	         4.71718e+58
          1118.86930	        -2.34169e+58
          1119.67560	         4.93824e+58
          1120.48190	         7.62529e+58
          1121.28820	        -2.96905e+58
          1122.09450	        -2.05879e+58
          1122.90080	        -1.59878e+58
          1123.70710	         2.87511e+58
          1124.51340	         3.53838e+58
          1125.31970	        -2.77772e+58
          1126.12600	         1.85475e+58
          1126.93230	         3.32123e+58
          1127.73860	        -8.54516e+58
          1128.54490	        -9.04986e+57
          1129.35120	         2.62228e+58
          1130.15750	        -1.92421e+58
          1130.96380	        -1.94143e+58
          1131.77010	         2.63130e+58
          1132.57640	         1.19882e+58
          1133.38270	        -4.19305e+57
          1134.18900	         1.01467e+58
          1134.99530	         2.25081e+58
          1135.80160	         2.66489e+58
          1136.60790	         2.57849e+58
          1137.41420	         1.98136e+58
          1138.22050	         2.47871e+58
          1139.02680	         3.63431e+58
          1139.83310	         2.51211e+58
          1140.63940	         2.36852e+58
          1141.44570	        -5.06213e+57
          1142.25200	         4.09380e+56
          1143.05830	         4.63964e+57
          1143.86460	         5.04700e+57
          1144.67090	         1.72367e+58
          1145.47720	         7.85264e+57
          1146.28350	         1.39304e+58
          1147.08980	         1.11200e+58
          1147.89610	         2.45317e+58
          1148.70240	         2.91328e+58
          1149.50870	         2.62850e+58
          1150.31500	         1.11000e+58
          1151.12130	         5.34750e+57
          1151.92760	        -8.26496e+56
          1152.73390	         3.22443e+57
          1153.54020	         5.14935e+57
          1154.34650	         2.21919e+58
          1155.15280	         1.97483e+58
          1155.95910	         1.61020e+58
          1156.76540	         7.92661e+57
          1157.57170	        -1.73484e+57
          1158.37800	        -5.34943e+57
          1159.18430	         1.01420e+57
          1159.99060	         8.37873e+57
          1160.79690	         1.23834e+58
          1161.60320	         1.90181e+58
          1162.40950	         2.05227e+58
          1163.21580	         1.90120e+58
          1164.02210	         1.95304e+58
          1164.82840	         1.38060e+58
          1165.63470	         2.79775e+58
          1166.44100	         2.70028e+58
          1167.24730	         1.27802e+58
          1168.05360	         8.34743e+57
          1168.85990	         1.05778e+58
          1169.66620	         1.16405e+58
          1170.47250	         1.20496e+58
          1171.27880	         1.19322e+58
          1172.08510	         8.01768e+57
          1172.89140	         2.65396e+57
          1173.69770	        -1.19094e+57
          1174.50400	         5.62756e+57
          1175.31030	         1.71711e+58
          1176.11660	         1.98639e+58
          1176.92290	         1.40860e+58
          1177.72920	         1.16632e+58
          1178.53550	         9.61552e+57
          1179.34180	        -2.30947e+56
          1180.14810	         2.16423e+56
          1180.95440	         7.50295e+57
          1181.76070	         8.80534e+57
          1182.56700	         9.48548e+57
          1183.37330	         4.66720e+57
          1184.17960	         1.25316e+58
          1184.98590	         1.27490e+58
          1185.79220	         5.47696e+57
          1186.59850	         1.12224e+58
          1187.40480	         1.46797e+58
          1188.21110	         1.54030e+58
          1189.01740	         8.43489e+57
          1189.82370	         1.59320e+58
          1190.63000	         1.36577e+58
          1191.43630	         1.21108e+58
          1192.24260	         1.01514e+58
          1193.04890	         1.28712e+58
          1193.85520	         1.54161e+58
          1194.66150	         7.38769e+57
          1195.46780	         8.58388e+57
          1196.27410	         1.51415e+58
          1197.08040	         9.72580e+57
          1197.88670	         1.53339e+58
          1198.69300	         1.47729e+58
          1199.49930	         9.06074e+57
          1200.30560	         7.92341e+57
          1201.11190	         1.05959e+58
          1201.91820	         1.39785e+58
          1202.72450	         1.12429e+58
          1203.53080	         1.31882e+58
          1204.33710	         7.29755e+57
          1205.14340	         6.97172e+57
          1205.94970	         1.10548e+58
          1206.75600	         7.16042e+57
          1207.56230	         6.45516e+57
          1208.36860	         1.27333e+58
          1209.17490	         7.21202e+57
          1209.98120	         4.96921e+57
          1210.78750	         7.52056e+57
          1211.59380	         1.43605e+58
          1212.40010	         1.61064e+58
          1213.20640	         2.18679e+58
          1214.01270	         2.10325e+58
          1214.81900	         2.62281e+58
          1215.62530	         4.42469e+58
          1216.43160	         8.90405e+58
          1217.23790	         1.52879e+59
          1218.04420	         1.16521e+59
          1218.85050	         8.98900e+58
          1219.65680	         5.96812e+58
          1220.46310	         2.91410e+58
          1221.26940	         2.02788e+58
          1222.07570	         1.41915e+58
          1222.88200	         1.11076e+58
          1223.68830	         1.01353e+58
          1224.49460	         8.54636e+57
          1225.30090	         4.07125e+57
          1226.10720	         6.47615e+57
          1226.91350	         7.98957e+57
          1227.71980	         7.60387e+57
          1228.52610	         1.29245e+58
          1229.33240	         9.45351e+57
          1230.13870	         5.46334e+57
          1230.94500	         6.54952e+57
          1231.75130	         7.37890e+57
          1232.55760	         8.19670e+57
          1233.36390	         7.79261e+57
          1234.17020	         9.48359e+57
          1234.97650	         9.58335e+57
          1235.78280	         8.12213e+57
          1236.58910	         8.24811e+57
          1237.39540	         1.06125e+58
          1238.20170	         1.02442e+58
          1239.00800	         1.16601e+58
          1239.81430	         1.41588e+58
          1240.62060	         1.13135e+58
          1241.42690	         1.18646e+58
          1242.23320	         1.27658e+58
          1243.03950	         7.24372e+57
          1243.84580	         6.40378e+57
          1244.65210	         8.40421e+57
          1245.45840	         1.13122e+58
          1246.26470	         9.54172e+57
          1247.07100	         6.31846e+57
          1247.87730	         7.34020e+57
          1248.68360	         6.34347e+57
          1249.48990	         9.20733e+57
          1250.29620	         1.22078e+58
          1251.10250	         1.18272e+58
          1251.90880	         6.57150e+57
          1252.71510	         5.05447e+57
          1253.52140	         8.88405e+57
          1254.32770	         1.04490e+58
          1255.13400	         1.17952e+58
          1255.94030	         1.06614e+58
          1256.74660	         1.03010e+58
          1257.55290	         1.09827e+58
          1258.35920	         1.05614e+58
          1259.16550	         5.57405e+57
          1259.97180	         4.08749e+57
          1260.77810	         7.74211e+57
          1261.58440	         9.79533e+57
          1262.39070	         6.63659e+57
          1263.19700	         8.48514e+57
          1264.00330	         1.17774e+58
          1264.80960	         1.26485e+58
          1265.61590	         1.14314e+58
          1266.42220	         1.11342e+58
          1267.22850	         1.14091e+58
          1268.03480	         1.40553e+58
          1268.84110	         1.53174e+58
          1269.64740	         1.45095e+58
          1270.45370	         1.41513e+58
          1271.26000	         1.27220e+58
          1272.06630	         1.35413e+58
          1272.87260	         1.50412e+58
          1273.67890	         1.30919e+58
          1274.48520	         1.25185e+58
          1275.29150	         1.36185e+58
          1276.09780	         1.11298e+58
          1276.90410	         1.37970e+58
          1277.71040	         1.50751e+58
          1278.51670	         1.14574e+58
          1279.32300	         1.24785e+58
          1280.12930	         1.17748e+58
          1280.93560	         9.53793e+57
          1281.74190	         1.14086e+58
          1282.54820	         1.19647e+58
          1283.35450	         9.55857e+57
          1284.16080	         1.20793e+58
          1284.96710	         1.45384e+58
          1285.77340	         1.42698e+58
          1286.57970	         1.45617e+58
          1287.38600	         1.62159e+58
          1288.19230	         1.75562e+58
          1288.99860	         1.43232e+58
          1289.80490	         1.03051e+58
          1290.61120	         1.46606e+58
          1291.41750	         1.42338e+58
          1292.22380	         1.21791e+58
          1293.03010	         1.20955e+58
          1293.83640	         1.26096e+58
          1294.64270	         9.63745e+57
          1295.44900	         6.94588e+57
          1296.25530	         7.69071e+57
          1297.06160	         8.60055e+57
          1297.86790	         9.73349e+57
          1298.67420	         7.54031e+57
          1299.48050	         8.24131e+57
          1300.28680	         1.09184e+58
          1301.09310	         9.05689e+57
          1301.89940	         3.86812e+57
          1302.70570	         7.24154e+57
          1303.51200	         8.37790e+57
          1304.31830	         9.64582e+57
          1305.12460	         1.06700e+58
          1305.93090	         1.15648e+58
          1306.73720	         1.20484e+58
          1307.54350	         1.33626e+58
          1308.34980	         1.36050e+58
          1309.15610	         1.47220e+58
          1309.96240	         1.49544e+58
          1310.76870	         1.25678e+58
          1311.57500	         1.39219e+58
          1312.38130	         1.54786e+58
          1313.18760	         1.28904e+58
          1313.99390	         1.52241e+58
          1314.80020	         1.79893e+58
          1315.60650	         1.62189e+58
          1316.41280	         1.26432e+58
          1317.21910	         1.07492e+58
          1318.02540	         1.13276e+58
          1318.83170	         1.22292e+58
          1319.63800	         1.18330e+58
          1320.44430	         1.17341e+58
          1321.25060	         1.30385e+58
          1322.05690	         1.35753e+58
          1322.86320	         1.26731e+58
          1323.66950	         1.21126e+58
          1324.47580	         1.01630e+58
          1325.28210	         9.51637e+57
          1326.08840	         1.10893e+58
          1326.89470	         1.18419e+58
          1327.70100	         9.41810e+57
          1328.50730	         7.77121e+57
          1329.31360	         9.74432e+57
          1330.11990	         1.02592e+58
          1330.92620	         9.79942e+57
          1331.73250	         9.96852e+57
          1332.53880	         1.04573e+58
          1333.34510	         9.52140e+57
          1334.15140	         8.66749e+57
          1334.95770	         9.60644e+57
          1335.76400	         1.14140e+58
          1336.57030	         1.05582e+58
          1337.37660	         1.06590e+58
          1338.18290	         1.06252e+58
          1338.98920	         1.11741e+58
          1339.79550	         1.17571e+58
          1340.60180	         1.16970e+58
          1341.40810	         1.27255e+58
          1342.21440	         1.13548e+58
          1343.02070	         1.24608e+58
          1343.82700	         1.39475e+58
          1344.63330	         1.26410e+58
          1345.43960	         1.31062e+58
          1346.24590	         1.12727e+58
          1347.05220	         1.21349e+58
          1347.85850	         1.14413e+58
          1348.66480	         1.30383e+58
          1349.47110	         1.43919e+58
          1350.27740	         1.14966e+58
          1351.08370	         1.02629e+58
          1351.89000	         1.10994e+58
          1352.69630	         1.17228e+58
          1353.50260	         1.03548e+58
          1354.30890	         1.19686e+58
          1355.11520	         1.31915e+58
          1355.92150	         1.13054e+58
          1356.72780	         1.08655e+58
          1357.53410	         1.13779e+58
          1358.34040	         1.19387e+58
          1359.14670	         9.58786e+57
          1359.95300	         9.43463e+57
          1360.75930	         1.12262e+58
          1361.56560	         1.15002e+58
          1362.37190	         1.15923e+58
          1363.17820	         1.21875e+58
          1363.98450	         1.36044e+58
          1364.79080	         1.44749e+58
          1365.59710	         1.40337e+58
          1366.40340	         1.07661e+58
          1367.20970	         1.05705e+58
          1368.01600	         1.17587e+58
          1368.82230	         1.11048e+58
          1369.62860	         1.15992e+58
          1370.43490	         1.07312e+58
          1371.24120	         9.01800e+57
          1372.04750	         8.54900e+57
          1372.85380	         1.12384e+58
          1373.66010	         1.22432e+58
          1374.46640	         1.17965e+58
          1375.27270	         1.19344e+58
          1376.07900	         9.25536e+57
          1376.88530	         8.86335e+57
          1377.69160	         8.64151e+57
          1378.49790	         6.82980e+57
          1379.30420	         7.72313e+57
          1380.11050	         1.10184e+58
          1380.91680	         9.56194e+57
          1381.72310	         8.60037e+57
          1382.52940	         8.04942e+57
          1383.33570	         8.15253e+57
          1384.14200	         1.04506e+58
          1384.94830	         1.17294e+58
          1385.75460	         1.18429e+58
          1386.56090	         1.03824e+58
          1387.36720	         1.02519e+58
          1388.17350	         1.39580e+58
          1388.97980	         1.21150e+58
          1389.78610	         9.55724e+57
          1390.59240	         9.26332e+57
          1391.39870	         8.95049e+57
          1392.20500	         9.24504e+57
          1393.01130	         9.13040e+57
          1393.81760	         8.34805e+57
          1394.62390	         8.02481e+57
          1395.43020	         7.02056e+57
          1396.23650	         6.27939e+57
          1397.04280	         7.60648e+57
          1397.84910	         9.07065e+57
          1398.65540	         9.25982e+57
          1399.46170	         9.71127e+57
          1400.26800	         8.88423e+57
          1401.07430	         7.91231e+57
          1401.88060	         7.99670e+57
          1402.68690	         9.41109e+57
          1403.49320	         9.42385e+57
          1404.29950	         9.63430e+57
          1405.10580	         1.04593e+58
          1405.91210	         1.03802e+58
          1406.71840	         1.03219e+58
          1407.52470	         1.11696e+58
          1408.33100	         1.19015e+58
          1409.13730	         1.34113e+58
          1409.94360	         1.17086e+58
          1410.74990	         1.13631e+58
          1411.55620	         1.05797e+58
          1412.36250	         9.63132e+57
          1413.16880	         9.98506e+57
          1413.97510	         8.98325e+57
          1414.78140	         8.83631e+57
          1415.58770	         1.07768e+58
          1416.39400	         1.08605e+58
          1417.20030	         1.09366e+58
          1418.00660	         9.53073e+57
          1418.81290	         1.01411e+58
          1419.61920	         1.15123e+58
          1420.42550	         1.24204e+58
          1421.23180	         1.36096e+58
          1422.03810	         1.41604e+58
          1422.84440	         1.20234e+58
          1423.65070	         1.24267e+58
          1424.45700	         1.25840e+58
          1425.26330	         9.56046e+57
          1426.06960	         9.01401e+57
          1426.87590	         1.02284e+58
          1427.68220	         9.99450e+57
          1428.48850	         1.04657e+58
          1429.29480	         9.77441e+57
          1430.10110	         8.92110e+57
          1430.90740	         8.62307e+57
          1431.71370	         9.08487e+57
          1432.52000	         8.34826e+57
          1433.32630	         7.10395e+57
          1434.13260	         7.48680e+57
          1434.93890	         7.92385e+57
          1435.74520	         9.25800e+57
          1436.55150	         1.03947e+58
          1437.35780	         8.89234e+57
          1438.16410	         9.74831e+57
          1438.97040	         9.98152e+57
          1439.77670	         9.44063e+57
          1440.58300	         9.02879e+57
          1441.38930	         9.76060e+57
          1442.19560	         9.80925e+57
          1443.00190	         8.76892e+57
          1443.80820	         1.07890e+58
          1444.61450	         1.02290e+58
          1445.42080	         8.67565e+57
          1446.22710	         9.57508e+57
          1447.03340	         9.97268e+57
          1447.83970	         1.12901e+58
          1448.64600	         1.10934e+58
          1449.45230	         1.07594e+58
          1450.25860	         1.11144e+58
          1451.06490	         9.14854e+57
          1451.87120	         7.05413e+57
          1452.67750	         7.27980e+57
          1453.48380	         9.35214e+57
          1454.29010	         8.68760e+57
          1455.09640	         7.53243e+57
          1455.90270	         8.45700e+57
          1456.70900	         9.85307e+57
          1457.51530	         1.10333e+58
          1458.32160	         1.19708e+58
          1459.12790	         1.10297e+58
          1459.93420	         9.02218e+57
          1460.74050	         7.89151e+57
          1461.54680	         7.94278e+57
          1462.35310	         9.17314e+57
          1463.15940	         1.06607e+58
          1463.96570	         1.14864e+58
          1464.77200	         1.22740e+58
          1465.57830	         1.02626e+58
          1466.38460	         8.77357e+57
          1467.19090	         9.56103e+57
          1467.99720	         9.01826e+57
          1468.80350	         9.71598e+57
          1469.60980	         1.07549e+58
          1470.41610	         1.09171e+58
          1471.22240	         9.23638e+57
          1472.02870	         9.13577e+57
          1472.83500	         9.06873e+57
          1473.64130	         9.42733e+57
          1474.44760	         1.05406e+58
          1475.25390	         9.15739e+57
          1476.06020	         8.21630e+57
          1476.86650	         8.42102e+57
          1477.67280	         8.87153e+57
          1478.47910	         6.67922e+57
          1479.28540	         6.77974e+57
          1480.09170	         8.25045e+57
          1480.89800	         8.48043e+57
          1481.70430	         8.29875e+57
          1482.51060	         7.73600e+57
          1483.31690	         7.41986e+57
          1484.12320	         6.74485e+57
          1484.92950	         7.07204e+57
          1485.73580	         9.33254e+57
          1486.54210	         9.00923e+57
          1487.34840	         8.47060e+57
          1488.15470	         1.00219e+58
          1488.96100	         9.59264e+57
          1489.76730	         9.30848e+57
