#sample_97_stacked_spectrum_rest_UV-bands_median_H-alpha_noDC.txt
#median Lum: 1.70348e+42
#Rest-frame wavelength (A) | Luminosity (erg/s/A)
#
          1110.00000	         0.00000e+00
          1110.80630	         5.12503e+59
          1111.61260	         5.67679e+59
          1112.41890	         2.25005e+59
          1113.22520	        -2.53694e+59
          1114.03150	        -3.80370e+59
          1114.83780	        -7.53380e+58
          1115.64410	        -9.89024e+58
          1116.45040	         4.46125e+58
          1117.25670	        -1.15593e+59
          1118.06300	         3.77125e+58
          1118.86930	         2.92471e+56
          1119.67560	         1.05987e+59
          1120.48190	        -1.06821e+58
          1121.28820	        -1.85253e+59
          1122.09450	        -1.54395e+58
          1122.90080	         2.24101e+58
          1123.70710	         2.28230e+58
          1124.51340	         3.46110e+58
          1125.31970	        -5.19967e+58
          1126.12600	         1.56569e+58
          1126.93230	         2.72904e+58
          1127.73860	        -5.76017e+58
          1128.54490	        -1.29067e+58
          1129.35120	         3.91154e+58
          1130.15750	        -2.16432e+58
          1130.96380	        -6.22673e+58
          1131.77010	         1.71091e+58
          1132.57640	         5.11490e+58
          1133.38270	         4.40857e+58
          1134.18900	         3.53452e+58
          1134.99530	        -6.29542e+56
          1135.80160	         1.65983e+58
          1136.60790	         7.25151e+57
          1137.41420	         1.19745e+58
          1138.22050	         2.94416e+58
          1139.02680	         1.70483e+58
          1139.83310	         1.48572e+58
          1140.63940	         2.72103e+58
          1141.44570	        -1.39697e+58
          1142.25200	        -2.70034e+58
          1143.05830	         1.28591e+58
          1143.86460	         2.29967e+58
          1144.67090	         2.96332e+58
          1145.47720	         1.31742e+58
          1146.28350	         9.16608e+57
          1147.08980	         8.46354e+57
          1147.89610	         1.04550e+58
          1148.70240	         1.57072e+58
          1149.50870	         2.06513e+58
          1150.31500	         6.98253e+57
          1151.12130	         6.98234e+57
          1151.92760	        -1.03266e+57
          1152.73390	         9.04116e+57
          1153.54020	         6.13436e+56
          1154.34650	         2.75050e+58
          1155.15280	         1.80234e+58
          1155.95910	         1.31297e+58
          1156.76540	         3.34259e+57
          1157.57170	         4.03708e+57
          1158.37800	        -3.13497e+57
          1159.18430	        -1.77083e+57
          1159.99060	         1.88539e+58
          1160.79690	         1.48859e+58
          1161.60320	         1.00965e+58
          1162.40950	         6.69629e+57
          1163.21580	         1.48427e+58
          1164.02210	         7.21363e+57
          1164.82840	         1.46584e+58
          1165.63470	         2.42421e+58
          1166.44100	         2.82728e+58
          1167.24730	         1.99323e+58
          1168.05360	         1.08309e+58
          1168.85990	         3.17794e+56
          1169.66620	         1.67167e+57
          1170.47250	         1.01512e+58
          1171.27880	         4.81127e+57
          1172.08510	         2.24950e+57
          1172.89140	         6.96334e+57
          1173.69770	         3.07140e+57
          1174.50400	         1.27060e+58
          1175.31030	         1.54094e+58
          1176.11660	         1.75451e+58
          1176.92290	         1.50940e+58
          1177.72920	         1.23867e+58
          1178.53550	         4.64339e+57
          1179.34180	         5.49523e+57
          1180.14810	         7.77736e+57
          1180.95440	         1.26765e+58
          1181.76070	         7.04312e+57
          1182.56700	         2.78906e+57
          1183.37330	         5.67800e+57
          1184.17960	         1.29504e+58
          1184.98590	         1.47601e+58
          1185.79220	         1.25967e+58
          1186.59850	         1.79088e+58
          1187.40480	         1.67874e+58
          1188.21110	         1.44789e+58
          1189.01740	         9.12494e+57
          1189.82370	         9.86772e+57
          1190.63000	         1.19747e+58
          1191.43630	         1.41844e+58
          1192.24260	         1.10578e+58
          1193.04890	         1.69384e+58
          1193.85520	         1.34070e+58
          1194.66150	         1.31595e+58
          1195.46780	         1.42682e+58
          1196.27410	         1.53808e+58
          1197.08040	         7.72493e+57
          1197.88670	         1.20419e+58
          1198.69300	         1.38224e+58
          1199.49930	         1.48578e+58
          1200.30560	         1.02286e+58
          1201.11190	         8.55207e+57
          1201.91820	         1.20841e+58
          1202.72450	         9.68088e+57
          1203.53080	         1.79378e+58
          1204.33710	         1.37552e+58
          1205.14340	         9.07950e+57
          1205.94970	         6.69709e+57
          1206.75600	         7.74583e+57
          1207.56230	         7.74219e+57
          1208.36860	         1.09039e+58
          1209.17490	         5.00631e+57
          1209.98120	         3.74012e+57
          1210.78750	         1.02167e+58
          1211.59380	         1.32124e+58
          1212.40010	         1.70960e+58
          1213.20640	         2.01970e+58
          1214.01270	         1.93696e+58
          1214.81900	         2.83402e+58
          1215.62530	         4.92618e+58
          1216.43160	         9.02248e+58
          1217.23790	         1.49237e+59
          1218.04420	         1.17984e+59
          1218.85050	         8.79309e+58
          1219.65680	         6.02066e+58
          1220.46310	         3.53312e+58
          1221.26940	         2.18545e+58
          1222.07570	         1.22494e+58
          1222.88200	         1.44417e+58
          1223.68830	         1.39240e+58
          1224.49460	         8.07610e+57
          1225.30090	         5.64173e+57
          1226.10720	         4.61455e+57
          1226.91350	         5.15478e+57
          1227.71980	         7.21765e+57
          1228.52610	         9.59832e+57
          1229.33240	         8.64015e+57
          1230.13870	         8.75303e+57
          1230.94500	         7.99042e+57
          1231.75130	         7.50420e+57
          1232.55760	         8.51880e+57
          1233.36390	         8.90049e+57
          1234.17020	         7.16279e+57
          1234.97650	         6.23696e+57
          1235.78280	         7.79467e+57
          1236.58910	         9.85842e+57
          1237.39540	         1.04497e+58
          1238.20170	         7.43050e+57
          1239.00800	         1.00145e+58
          1239.81430	         1.41732e+58
          1240.62060	         1.28889e+58
          1241.42690	         1.21584e+58
          1242.23320	         1.33849e+58
          1243.03950	         7.46499e+57
          1243.84580	         6.48644e+57
          1244.65210	         9.47052e+57
          1245.45840	         9.52850e+57
          1246.26470	         9.43166e+57
          1247.07100	         8.35392e+57
          1247.87730	         5.33465e+57
          1248.68360	         2.95168e+57
          1249.48990	         8.51559e+57
          1250.29620	         1.04090e+58
          1251.10250	         7.65464e+57
          1251.90880	         2.71652e+57
          1252.71510	         4.45997e+57
          1253.52140	         7.79050e+57
          1254.32770	         8.99927e+57
          1255.13400	         1.13801e+58
          1255.94030	         1.22156e+58
          1256.74660	         9.35191e+57
          1257.55290	         1.13275e+58
          1258.35920	         9.93944e+57
          1259.16550	         6.05418e+57
          1259.97180	         6.39873e+57
          1260.77810	         1.07716e+58
          1261.58440	         1.30498e+58
          1262.39070	         1.02753e+58
          1263.19700	         7.41615e+57
          1264.00330	         9.57484e+57
          1264.80960	         1.09271e+58
          1265.61590	         1.39272e+58
          1266.42220	         1.31462e+58
          1267.22850	         1.11414e+58
          1268.03480	         1.37010e+58
          1268.84110	         1.43725e+58
          1269.64740	         1.17473e+58
          1270.45370	         1.05648e+58
          1271.26000	         1.19338e+58
          1272.06630	         1.28622e+58
          1272.87260	         1.22955e+58
          1273.67890	         1.28531e+58
          1274.48520	         1.49786e+58
          1275.29150	         1.47336e+58
          1276.09780	         1.20123e+58
          1276.90410	         1.32866e+58
          1277.71040	         1.23844e+58
          1278.51670	         1.26347e+58
          1279.32300	         1.48194e+58
          1280.12930	         1.32741e+58
          1280.93560	         1.12084e+58
          1281.74190	         1.20212e+58
          1282.54820	         1.33898e+58
          1283.35450	         1.00829e+58
          1284.16080	         8.48925e+57
          1284.96710	         1.31498e+58
          1285.77340	         1.15927e+58
          1286.57970	         1.25385e+58
          1287.38600	         1.77375e+58
          1288.19230	         1.71916e+58
          1288.99860	         1.69768e+58
          1289.80490	         1.32947e+58
          1290.61120	         1.27941e+58
          1291.41750	         1.27365e+58
          1292.22380	         1.13757e+58
          1293.03010	         1.09080e+58
          1293.83640	         1.27022e+58
          1294.64270	         1.18087e+58
          1295.44900	         6.70121e+57
          1296.25530	         7.50642e+57
          1297.06160	         1.08128e+58
          1297.86790	         1.09191e+58
          1298.67420	         9.81189e+57
          1299.48050	         9.24720e+57
          1300.28680	         1.03842e+58
          1301.09310	         9.52048e+57
          1301.89940	         5.40650e+57
          1302.70570	         5.91738e+57
          1303.51200	         8.26570e+57
          1304.31830	         1.16507e+58
          1305.12460	         1.19005e+58
          1305.93090	         1.13215e+58
          1306.73720	         1.22019e+58
          1307.54350	         1.37349e+58
          1308.34980	         1.48186e+58
          1309.15610	         1.69046e+58
          1309.96240	         1.63601e+58
          1310.76870	         1.19036e+58
          1311.57500	         1.40205e+58
          1312.38130	         1.27769e+58
          1313.18760	         1.31621e+58
          1313.99390	         1.58001e+58
          1314.80020	         1.58289e+58
          1315.60650	         1.56027e+58
          1316.41280	         1.29267e+58
          1317.21910	         1.02853e+58
          1318.02540	         1.22148e+58
          1318.83170	         1.43062e+58
          1319.63800	         1.35032e+58
          1320.44430	         1.24972e+58
          1321.25060	         1.37981e+58
          1322.05690	         1.41612e+58
          1322.86320	         1.29622e+58
          1323.66950	         1.28859e+58
          1324.47580	         1.13469e+58
          1325.28210	         9.80682e+57
          1326.08840	         9.95906e+57
          1326.89470	         1.23314e+58
          1327.70100	         1.05926e+58
          1328.50730	         8.84607e+57
          1329.31360	         9.46555e+57
          1330.11990	         1.02504e+58
          1330.92620	         9.97020e+57
          1331.73250	         1.11178e+58
          1332.53880	         1.05289e+58
          1333.34510	         9.30012e+57
          1334.15140	         9.09786e+57
          1334.95770	         8.69944e+57
          1335.76400	         1.02646e+58
          1336.57030	         1.23853e+58
          1337.37660	         1.14601e+58
          1338.18290	         1.20947e+58
          1338.98920	         1.23775e+58
          1339.79550	         8.88690e+57
          1340.60180	         1.03687e+58
          1341.40810	         1.31469e+58
          1342.21440	         1.12186e+58
          1343.02070	         1.31855e+58
          1343.82700	         1.59730e+58
          1344.63330	         1.33674e+58
          1345.43960	         1.16634e+58
          1346.24590	         1.15329e+58
          1347.05220	         1.09921e+58
          1347.85850	         1.07567e+58
          1348.66480	         1.14651e+58
          1349.47110	         1.27025e+58
          1350.27740	         1.20781e+58
          1351.08370	         1.12898e+58
          1351.89000	         1.07005e+58
          1352.69630	         1.09284e+58
          1353.50260	         1.15923e+58
          1354.30890	         1.30283e+58
          1355.11520	         1.31462e+58
          1355.92150	         1.20337e+58
          1356.72780	         1.05239e+58
          1357.53410	         1.07217e+58
          1358.34040	         1.07728e+58
          1359.14670	         1.00878e+58
          1359.95300	         1.14115e+58
          1360.75930	         1.23914e+58
          1361.56560	         1.10010e+58
          1362.37190	         1.21519e+58
          1363.17820	         1.15930e+58
          1363.98450	         1.13857e+58
          1364.79080	         1.35218e+58
          1365.59710	         1.41734e+58
          1366.40340	         1.26919e+58
          1367.20970	         1.07320e+58
          1368.01600	         9.67413e+57
          1368.82230	         8.75056e+57
          1369.62860	         1.01542e+58
          1370.43490	         1.00347e+58
          1371.24120	         9.82063e+57
          1372.04750	         9.88239e+57
          1372.85380	         1.14388e+58
          1373.66010	         1.19780e+58
          1374.46640	         1.23504e+58
          1375.27270	         1.18980e+58
          1376.07900	         9.44168e+57
          1376.88530	         8.88071e+57
          1377.69160	         8.76980e+57
          1378.49790	         8.02735e+57
          1379.30420	         8.62882e+57
          1380.11050	         9.61821e+57
          1380.91680	         9.60102e+57
          1381.72310	         9.06402e+57
          1382.52940	         8.41262e+57
          1383.33570	         8.71522e+57
          1384.14200	         9.75934e+57
          1384.94830	         1.16467e+58
          1385.75460	         1.11025e+58
          1386.56090	         1.12117e+58
          1387.36720	         1.15180e+58
          1388.17350	         1.27583e+58
          1388.97980	         1.09912e+58
          1389.78610	         9.17538e+57
          1390.59240	         8.61132e+57
          1391.39870	         8.40312e+57
          1392.20500	         8.86845e+57
          1393.01130	         8.32742e+57
          1393.81760	         7.23364e+57
          1394.62390	         8.05013e+57
          1395.43020	         6.84823e+57
          1396.23650	         6.73866e+57
          1397.04280	         7.46613e+57
          1397.84910	         8.95860e+57
          1398.65540	         1.06349e+58
          1399.46170	         1.00500e+58
          1400.26800	         7.45390e+57
          1401.07430	         6.63284e+57
          1401.88060	         7.64042e+57
          1402.68690	         1.00856e+58
          1403.49320	         1.11198e+58
          1404.29950	         1.01929e+58
          1405.10580	         1.00166e+58
          1405.91210	         1.03755e+58
          1406.71840	         1.13397e+58
          1407.52470	         1.12434e+58
          1408.33100	         1.07187e+58
          1409.13730	         1.22027e+58
          1409.94360	         1.22292e+58
          1410.74990	         1.20958e+58
          1411.55620	         1.13528e+58
          1412.36250	         1.08333e+58
          1413.16880	         9.71675e+57
          1413.97510	         7.88403e+57
          1414.78140	         8.26126e+57
          1415.58770	         1.04525e+58
          1416.39400	         1.07192e+58
          1417.20030	         1.14165e+58
          1418.00660	         1.03825e+58
          1418.81290	         9.98848e+57
          1419.61920	         1.10699e+58
          1420.42550	         1.29105e+58
          1421.23180	         1.33052e+58
          1422.03810	         1.37231e+58
          1422.84440	         1.27915e+58
          1423.65070	         1.28217e+58
          1424.45700	         1.08152e+58
          1425.26330	         9.75312e+57
          1426.06960	         1.01480e+58
          1426.87590	         1.12397e+58
          1427.68220	         1.02894e+58
          1428.48850	         9.41987e+57
          1429.29480	         1.01723e+58
          1430.10110	         1.02271e+58
          1430.90740	         8.30494e+57
          1431.71370	         9.15311e+57
          1432.52000	         9.40077e+57
          1433.32630	         8.53376e+57
          1434.13260	         7.94851e+57
          1434.93890	         8.38825e+57
          1435.74520	         9.98764e+57
          1436.55150	         1.08815e+58
          1437.35780	         9.29786e+57
          1438.16410	         9.39650e+57
          1438.97040	         9.93808e+57
          1439.77670	         9.25972e+57
          1440.58300	         1.06130e+58
          1441.38930	         1.06290e+58
          1442.19560	         1.02291e+58
          1443.00190	         1.10328e+58
          1443.80820	         1.06425e+58
          1444.61450	         9.21802e+57
          1445.42080	         8.61316e+57
          1446.22710	         1.17650e+58
          1447.03340	         1.04366e+58
          1447.83970	         1.17617e+58
          1448.64600	         1.20037e+58
          1449.45230	         1.06994e+58
          1450.25860	         1.07359e+58
          1451.06490	         9.78825e+57
          1451.87120	         8.33292e+57
          1452.67750	         8.17099e+57
          1453.48380	         8.57134e+57
          1454.29010	         7.93807e+57
          1455.09640	         7.43337e+57
          1455.90270	         9.36843e+57
          1456.70900	         9.77879e+57
          1457.51530	         1.03493e+58
          1458.32160	         1.12123e+58
          1459.12790	         1.16110e+58
          1459.93420	         1.06006e+58
          1460.74050	         8.24276e+57
          1461.54680	         8.09002e+57
          1462.35310	         8.55259e+57
          1463.15940	         1.03601e+58
          1463.96570	         1.07122e+58
          1464.77200	         1.13515e+58
          1465.57830	         1.01067e+58
          1466.38460	         8.53658e+57
          1467.19090	         9.12135e+57
          1467.99720	         9.28135e+57
          1468.80350	         9.84871e+57
          1469.60980	         1.05955e+58
          1470.41610	         1.05520e+58
          1471.22240	         1.08676e+58
          1472.02870	         1.08050e+58
          1472.83500	         1.01744e+58
          1473.64130	         9.00245e+57
          1474.44760	         9.60005e+57
          1475.25390	         1.01137e+58
          1476.06020	         9.31566e+57
          1476.86650	         9.49762e+57
          1477.67280	         8.51950e+57
          1478.47910	         7.19394e+57
          1479.28540	         7.12130e+57
          1480.09170	         7.91293e+57
          1480.89800	         9.06897e+57
          1481.70430	         9.19910e+57
          1482.51060	         8.74295e+57
          1483.31690	         7.58209e+57
          1484.12320	         7.75345e+57
          1484.92950	         8.96444e+57
          1485.73580	         1.01923e+58
          1486.54210	         9.65790e+57
          1487.34840	         9.28347e+57
          1488.15470	         8.66585e+57
          1488.96100	         9.41808e+57
          1489.76730	         1.02685e+58
