#sample_190_stacked_spectrum_rest_UV-bands_median_H-alpha_noDC.txt
#median Lum: 1.69458e+42
#Rest-frame wavelength (A) | Luminosity (erg/s/A)
#
1110.00000	0.00000e+00
1110.80630	0.00000e+00
1111.61260	0.00000e+00
1112.41890	0.00000e+00
1113.22520	0.00000e+00
1114.03150	0.00000e+00
1114.83780	0.00000e+00
1115.64410	0.00000e+00
1116.45040	0.00000e+00
1117.25670	0.00000e+00
1118.06300	0.00000e+00
1118.86930	0.00000e+00
1119.67560	0.00000e+00
1120.48190	0.00000e+00
1121.28820	0.00000e+00
1122.09450	0.00000e+00
1122.90080	0.00000e+00
1123.70710	0.00000e+00
1124.51340	0.00000e+00
1125.31970	0.00000e+00
1126.12600	0.00000e+00
1126.93230	0.00000e+00
1127.73860	0.00000e+00
1128.54490	0.00000e+00
1129.35120	0.00000e+00
1130.15750	0.00000e+00
1130.96380	0.00000e+00
1131.77010	0.00000e+00
1132.57640	0.00000e+00
1133.38270	0.00000e+00
1134.18900	0.00000e+00
1134.99530	0.00000e+00
1135.80160	0.00000e+00
1136.60790	0.00000e+00
1137.41420	0.00000e+00
1138.22050	0.00000e+00
1139.02680	0.00000e+00
1139.83310	0.00000e+00
1140.63940	0.00000e+00
1141.44570	0.00000e+00
1142.25200	0.00000e+00
1143.05830	0.00000e+00
1143.86460	0.00000e+00
1144.67090	0.00000e+00
1145.47720	0.00000e+00
1146.28350	0.00000e+00
1147.08980	0.00000e+00
1147.89610	0.00000e+00
1148.70240	0.00000e+00
1149.50870	0.00000e+00
1150.31500	0.00000e+00
1151.12130	0.00000e+00
1151.92760	0.00000e+00
1152.73390	0.00000e+00
1153.54020	0.00000e+00
1154.34650	0.00000e+00
1155.15280	0.00000e+00
1155.95910	0.00000e+00
1156.76540	0.00000e+00
1157.57170	0.00000e+00
1158.37800	0.00000e+00
1159.18430	0.00000e+00
1159.99060	0.00000e+00
1160.79690	0.00000e+00
1161.60320	0.00000e+00
1162.40950	0.00000e+00
1163.21580	0.00000e+00
1164.02210	0.00000e+00
1164.82840	0.00000e+00
1165.63470	0.00000e+00
1166.44100	0.00000e+00
1167.24730	0.00000e+00
1168.05360	0.00000e+00
1168.85990	0.00000e+00
1169.66620	0.00000e+00
1170.47250	0.00000e+00
1171.27880	0.00000e+00
1172.08510	0.00000e+00
1172.89140	0.00000e+00
1173.69770	0.00000e+00
1174.50400	0.00000e+00
1175.31030	0.00000e+00
1176.11660	0.00000e+00
1176.92290	0.00000e+00
1177.72920	0.00000e+00
1178.53550	0.00000e+00
1179.34180	0.00000e+00
1180.14810	0.00000e+00
1180.95440	0.00000e+00
1181.76070	0.00000e+00
1182.56700	0.00000e+00
1183.37330	0.00000e+00
1184.17960	0.00000e+00
1184.98590	0.00000e+00
1185.79220	0.00000e+00
1186.59850	0.00000e+00
1187.40480	0.00000e+00
1188.21110	0.00000e+00
1189.01740	0.00000e+00
1189.82370	0.00000e+00
1190.63000	0.00000e+00
1191.43630	0.00000e+00
1192.24260	0.00000e+00
1193.04890	0.00000e+00
1193.85520	0.00000e+00
1194.66150	0.00000e+00
1195.46780	0.00000e+00
1196.27410	0.00000e+00
1197.08040	0.00000e+00
1197.88670	0.00000e+00
1198.69300	0.00000e+00
1199.49930	0.00000e+00
1200.30560	0.00000e+00
1201.11190	0.00000e+00
1201.91820	0.00000e+00
1202.72450	0.00000e+00
1203.53080	0.00000e+00
1204.33710	0.00000e+00
1205.14340	0.00000e+00
1205.94970	0.00000e+00
1206.75600	0.00000e+00
1207.56230	0.00000e+00
1208.36860	0.00000e+00
1209.17490	0.00000e+00
1209.98120	0.00000e+00
1210.78750	0.00000e+00
1211.59380	0.00000e+00
1212.40010	0.00000e+00
1213.20640	0.00000e+00
1214.01270	0.00000e+00
1214.81900	0.00000e+00
1215.62530	0.00000e+00
1216.43160	0.00000e+00
1217.23790	0.00000e+00
1218.04420	0.00000e+00
1218.85050	0.00000e+00
1219.65680	0.00000e+00
1220.46310	0.00000e+00
1221.26940	0.00000e+00
1222.07570	0.00000e+00
1222.88200	0.00000e+00
1223.68830	0.00000e+00
1224.49460	0.00000e+00
1225.30090	0.00000e+00
1226.10720	0.00000e+00
1226.91350	0.00000e+00
1227.71980	0.00000e+00
1228.52610	0.00000e+00
1229.33240	0.00000e+00
1230.13870	0.00000e+00
1230.94500	0.00000e+00
1231.75130	0.00000e+00
1232.55760	0.00000e+00
1233.36390	0.00000e+00
1234.17020	0.00000e+00
1234.97650	0.00000e+00
1235.78280	0.00000e+00
1236.58910	0.00000e+00
1237.39540	0.00000e+00
1238.20170	0.00000e+00
1239.00800	0.00000e+00
1239.81430	0.00000e+00
1240.62060	0.00000e+00
1241.42690	0.00000e+00
1242.23320	0.00000e+00
1243.03950	0.00000e+00
1243.84580	0.00000e+00
1244.65210	0.00000e+00
1245.45840	0.00000e+00
1246.26470	0.00000e+00
1247.07100	0.00000e+00
1247.87730	0.00000e+00
1248.68360	0.00000e+00
1249.48990	0.00000e+00
1250.29620	0.00000e+00
1251.10250	0.00000e+00
1251.90880	0.00000e+00
1252.71510	0.00000e+00
1253.52140	0.00000e+00
1254.32770	0.00000e+00
1255.13400	0.00000e+00
1255.94030	0.00000e+00
1256.74660	0.00000e+00
1257.55290	0.00000e+00
1258.35920	0.00000e+00
1259.16550	0.00000e+00
1259.97180	0.00000e+00
1260.77810	0.00000e+00
1261.58440	0.00000e+00
1262.39070	0.00000e+00
1263.19700	0.00000e+00
1264.00330	0.00000e+00
1264.80960	0.00000e+00
1265.61590	0.00000e+00
1266.42220	0.00000e+00
1267.22850	0.00000e+00
1268.03480	0.00000e+00
1268.84110	0.00000e+00
1269.64740	0.00000e+00
1270.45370	0.00000e+00
1271.26000	0.00000e+00
1272.06630	0.00000e+00
1272.87260	0.00000e+00
1273.67890	0.00000e+00
1274.48520	0.00000e+00
1275.29150	0.00000e+00
1276.09780	0.00000e+00
1276.90410	0.00000e+00
1277.71040	0.00000e+00
1278.51670	0.00000e+00
1279.32300	0.00000e+00
1280.12930	0.00000e+00
1280.93560	0.00000e+00
1281.74190	0.00000e+00
1282.54820	0.00000e+00
1283.35450	0.00000e+00
1284.16080	0.00000e+00
1284.96710	0.00000e+00
1285.77340	0.00000e+00
1286.57970	0.00000e+00
1287.38600	0.00000e+00
1288.19230	0.00000e+00
1288.99860	0.00000e+00
1289.80490	0.00000e+00
1290.61120	0.00000e+00
1291.41750	0.00000e+00
1292.22380	0.00000e+00
1293.03010	0.00000e+00
1293.83640	0.00000e+00
1294.64270	0.00000e+00
1295.44900	0.00000e+00
1296.25530	0.00000e+00
1297.06160	0.00000e+00
1297.86790	0.00000e+00
1298.67420	0.00000e+00
1299.48050	0.00000e+00
1300.28680	0.00000e+00
1301.09310	0.00000e+00
1301.89940	0.00000e+00
1302.70570	0.00000e+00
1303.51200	0.00000e+00
1304.31830	0.00000e+00
1305.12460	0.00000e+00
1305.93090	0.00000e+00
1306.73720	0.00000e+00
1307.54350	0.00000e+00
1308.34980	0.00000e+00
1309.15610	0.00000e+00
1309.96240	0.00000e+00
1310.76870	0.00000e+00
1311.57500	0.00000e+00
1312.38130	0.00000e+00
1313.18760	0.00000e+00
1313.99390	0.00000e+00
1314.80020	0.00000e+00
1315.60650	0.00000e+00
1316.41280	0.00000e+00
1317.21910	0.00000e+00
1318.02540	0.00000e+00
1318.83170	0.00000e+00
1319.63800	0.00000e+00
1320.44430	0.00000e+00
1321.25060	0.00000e+00
1322.05690	0.00000e+00
1322.86320	0.00000e+00
1323.66950	0.00000e+00
1324.47580	0.00000e+00
1325.28210	0.00000e+00
1326.08840	0.00000e+00
1326.89470	0.00000e+00
1327.70100	0.00000e+00
1328.50730	0.00000e+00
1329.31360	0.00000e+00
1330.11990	0.00000e+00
1330.92620	0.00000e+00
1331.73250	0.00000e+00
1332.53880	0.00000e+00
1333.34510	0.00000e+00
1334.15140	0.00000e+00
1334.95770	0.00000e+00
1335.76400	0.00000e+00
1336.57030	0.00000e+00
1337.37660	0.00000e+00
1338.18290	0.00000e+00
1338.98920	0.00000e+00
1339.79550	0.00000e+00
1340.60180	0.00000e+00
1341.40810	0.00000e+00
1342.21440	0.00000e+00
1343.02070	0.00000e+00
1343.82700	0.00000e+00
1344.63330	0.00000e+00
1345.43960	0.00000e+00
1346.24590	0.00000e+00
1347.05220	0.00000e+00
1347.85850	0.00000e+00
1348.66480	0.00000e+00
1349.47110	0.00000e+00
1350.27740	0.00000e+00
1351.08370	0.00000e+00
1351.89000	0.00000e+00
1352.69630	0.00000e+00
1353.50260	0.00000e+00
1354.30890	0.00000e+00
1355.11520	0.00000e+00
1355.92150	0.00000e+00
1356.72780	0.00000e+00
1357.53410	0.00000e+00
1358.34040	0.00000e+00
1359.14670	0.00000e+00
1359.95300	0.00000e+00
1360.75930	0.00000e+00
1361.56560	0.00000e+00
1362.37190	0.00000e+00
1363.17820	0.00000e+00
1363.98450	0.00000e+00
1364.79080	0.00000e+00
1365.59710	0.00000e+00
1366.40340	0.00000e+00
1367.20970	0.00000e+00
1368.01600	0.00000e+00
1368.82230	0.00000e+00
1369.62860	0.00000e+00
1370.43490	0.00000e+00
1371.24120	0.00000e+00
1372.04750	0.00000e+00
1372.85380	0.00000e+00
1373.66010	0.00000e+00
1374.46640	0.00000e+00
1375.27270	0.00000e+00
1376.07900	0.00000e+00
1376.88530	0.00000e+00
1377.69160	0.00000e+00
1378.49790	0.00000e+00
1379.30420	0.00000e+00
1380.11050	0.00000e+00
1380.91680	0.00000e+00
1381.72310	0.00000e+00
1382.52940	0.00000e+00
1383.33570	0.00000e+00
1384.14200	0.00000e+00
1384.94830	0.00000e+00
1385.75460	0.00000e+00
1386.56090	0.00000e+00
1387.36720	0.00000e+00
1388.17350	0.00000e+00
1388.97980	0.00000e+00
1389.78610	0.00000e+00
1390.59240	0.00000e+00
1391.39870	0.00000e+00
1392.20500	0.00000e+00
1393.01130	0.00000e+00
1393.81760	0.00000e+00
1394.62390	0.00000e+00
1395.43020	0.00000e+00
1396.23650	0.00000e+00
1397.04280	0.00000e+00
1397.84910	0.00000e+00
1398.65540	0.00000e+00
1399.46170	0.00000e+00
1400.26800	0.00000e+00
1401.07430	0.00000e+00
1401.88060	0.00000e+00
1402.68690	0.00000e+00
1403.49320	0.00000e+00
1404.29950	0.00000e+00
1405.10580	0.00000e+00
1405.91210	0.00000e+00
1406.71840	0.00000e+00
1407.52470	0.00000e+00
1408.33100	0.00000e+00
1409.13730	0.00000e+00
1409.94360	0.00000e+00
1410.74990	0.00000e+00
1411.55620	0.00000e+00
1412.36250	0.00000e+00
1413.16880	0.00000e+00
1413.97510	0.00000e+00
1414.78140	0.00000e+00
1415.58770	0.00000e+00
1416.39400	0.00000e+00
1417.20030	0.00000e+00
1418.00660	0.00000e+00
1418.81290	0.00000e+00
1419.61920	0.00000e+00
1420.42550	0.00000e+00
1421.23180	0.00000e+00
1422.03810	0.00000e+00
1422.84440	0.00000e+00
1423.65070	0.00000e+00
1424.45700	0.00000e+00
1425.26330	0.00000e+00
1426.06960	0.00000e+00
1426.87590	0.00000e+00
1427.68220	0.00000e+00
1428.48850	0.00000e+00
1429.29480	0.00000e+00
1430.10110	0.00000e+00
1430.90740	0.00000e+00
1431.71370	0.00000e+00
1432.52000	0.00000e+00
1433.32630	0.00000e+00
1434.13260	0.00000e+00
1434.93890	0.00000e+00
1435.74520	0.00000e+00
1436.55150	0.00000e+00
1437.35780	0.00000e+00
1438.16410	0.00000e+00
1438.97040	0.00000e+00
1439.77670	0.00000e+00
1440.58300	0.00000e+00
1441.38930	0.00000e+00
1442.19560	0.00000e+00
1443.00190	0.00000e+00
1443.80820	0.00000e+00
1444.61450	0.00000e+00
1445.42080	0.00000e+00
1446.22710	0.00000e+00
1447.03340	0.00000e+00
1447.83970	0.00000e+00
1448.64600	0.00000e+00
1449.45230	0.00000e+00
1450.25860	0.00000e+00
1451.06490	0.00000e+00
1451.87120	0.00000e+00
1452.67750	0.00000e+00
1453.48380	0.00000e+00
1454.29010	0.00000e+00
1455.09640	0.00000e+00
1455.90270	0.00000e+00
1456.70900	0.00000e+00
1457.51530	0.00000e+00
1458.32160	0.00000e+00
1459.12790	0.00000e+00
1459.93420	0.00000e+00
1460.74050	0.00000e+00
1461.54680	0.00000e+00
1462.35310	0.00000e+00
1463.15940	0.00000e+00
1463.96570	0.00000e+00
1464.77200	0.00000e+00
1465.57830	0.00000e+00
1466.38460	0.00000e+00
1467.19090	0.00000e+00
1467.99720	0.00000e+00
1468.80350	0.00000e+00
1469.60980	0.00000e+00
1470.41610	0.00000e+00
1471.22240	0.00000e+00
1472.02870	0.00000e+00
1472.83500	0.00000e+00
1473.64130	0.00000e+00
1474.44760	0.00000e+00
1475.25390	0.00000e+00
1476.06020	0.00000e+00
1476.86650	0.00000e+00
1477.67280	0.00000e+00
1478.47910	0.00000e+00
1479.28540	0.00000e+00
1480.09170	0.00000e+00
1480.89800	0.00000e+00
1481.70430	0.00000e+00
1482.51060	0.00000e+00
1483.31690	0.00000e+00
1484.12320	0.00000e+00
1484.92950	0.00000e+00
1485.73580	0.00000e+00
1486.54210	0.00000e+00
1487.34840	0.00000e+00
1488.15470	0.00000e+00
1488.96100	0.00000e+00
1489.76730	0.00000e+00
1490.57360	0.00000e+00
1491.37990	0.00000e+00
1492.18620	0.00000e+00
1492.99250	0.00000e+00
1493.79880	0.00000e+00
1494.60510	0.00000e+00
1495.41140	0.00000e+00
1496.21770	0.00000e+00
1497.02400	0.00000e+00
1497.83030	0.00000e+00
1498.63660	0.00000e+00
1499.44290	0.00000e+00
1500.24920	0.00000e+00
1501.05550	0.00000e+00
1501.86180	0.00000e+00
1502.66810	0.00000e+00
1503.47440	0.00000e+00
1504.28070	0.00000e+00
1505.08700	0.00000e+00
1505.89330	0.00000e+00
1506.69960	0.00000e+00
1507.50590	0.00000e+00
1508.31220	0.00000e+00
1509.11850	0.00000e+00
1509.92480	0.00000e+00
1510.73110	0.00000e+00
1511.53740	0.00000e+00
1512.34370	0.00000e+00
1513.15000	0.00000e+00
1513.95630	0.00000e+00
1514.76260	0.00000e+00
1515.56890	0.00000e+00
1516.37520	0.00000e+00
1517.18150	0.00000e+00
1517.98780	0.00000e+00
1518.79410	0.00000e+00
1519.60040	0.00000e+00
1520.40670	0.00000e+00
1521.21300	0.00000e+00
1522.01930	0.00000e+00
1522.82560	0.00000e+00
1523.63190	0.00000e+00
1524.43820	0.00000e+00
1525.24450	0.00000e+00
1526.05080	0.00000e+00
1526.85710	0.00000e+00
1527.66340	0.00000e+00
1528.46970	0.00000e+00
1529.27600	0.00000e+00
1530.08230	0.00000e+00
1530.88860	0.00000e+00
1531.69490	0.00000e+00
1532.50120	0.00000e+00
1533.30750	0.00000e+00
1534.11380	0.00000e+00
1534.92010	0.00000e+00
1535.72640	0.00000e+00
1536.53270	0.00000e+00
1537.33900	0.00000e+00
1538.14530	0.00000e+00
1538.95160	0.00000e+00
1539.75790	0.00000e+00
1540.56420	0.00000e+00
1541.37050	0.00000e+00
1542.17680	0.00000e+00
1542.98310	0.00000e+00
1543.78940	0.00000e+00
1544.59570	0.00000e+00
1545.40200	0.00000e+00
1546.20830	0.00000e+00
1547.01460	0.00000e+00
1547.82090	0.00000e+00
1548.62720	0.00000e+00
1549.43350	0.00000e+00
1550.23980	0.00000e+00
1551.04610	0.00000e+00
1551.85240	0.00000e+00
1552.65870	0.00000e+00
1553.46500	0.00000e+00
1554.27130	0.00000e+00
1555.07760	0.00000e+00
1555.88390	0.00000e+00
1556.69020	0.00000e+00
1557.49650	0.00000e+00
1558.30280	0.00000e+00
1559.10910	0.00000e+00
1559.91540	0.00000e+00
1560.72170	0.00000e+00
1561.52800	0.00000e+00
1562.33430	0.00000e+00
1563.14060	0.00000e+00
1563.94690	0.00000e+00
1564.75320	0.00000e+00
1565.55950	0.00000e+00
1566.36580	0.00000e+00
1567.17210	0.00000e+00
1567.97840	0.00000e+00
1568.78470	0.00000e+00
1569.59100	0.00000e+00
1570.39730	0.00000e+00
1571.20360	0.00000e+00
1572.00990	0.00000e+00
1572.81620	0.00000e+00
1573.62250	0.00000e+00
1574.42880	0.00000e+00
1575.23510	0.00000e+00
1576.04140	0.00000e+00
1576.84770	0.00000e+00
1577.65400	0.00000e+00
1578.46030	0.00000e+00
1579.26660	0.00000e+00
1580.07290	0.00000e+00
1580.87920	0.00000e+00
1581.68550	0.00000e+00
1582.49180	0.00000e+00
1583.29810	0.00000e+00
1584.10440	0.00000e+00
1584.91070	0.00000e+00
1585.71700	0.00000e+00
1586.52330	0.00000e+00
1587.32960	0.00000e+00
1588.13590	0.00000e+00
1588.94220	0.00000e+00
1589.74850	0.00000e+00
1590.55480	0.00000e+00
1591.36110	0.00000e+00
1592.16740	0.00000e+00
1592.97370	0.00000e+00
1593.78000	0.00000e+00
1594.58630	0.00000e+00
1595.39260	0.00000e+00
1596.19890	0.00000e+00
1597.00520	0.00000e+00
1597.81150	0.00000e+00
1598.61780	0.00000e+00
1599.42410	0.00000e+00
1600.23040	0.00000e+00
1601.03670	0.00000e+00
1601.84300	0.00000e+00
1602.64930	0.00000e+00
1603.45560	0.00000e+00
1604.26190	0.00000e+00
1605.06820	0.00000e+00
1605.87450	0.00000e+00
1606.68080	0.00000e+00
1607.48710	0.00000e+00
1608.29340	0.00000e+00
1609.09970	0.00000e+00
1609.90600	0.00000e+00
1610.71230	0.00000e+00
1611.51860	0.00000e+00
1612.32490	0.00000e+00
1613.13120	0.00000e+00
1613.93750	0.00000e+00
1614.74380	0.00000e+00
1615.55010	0.00000e+00
1616.35640	0.00000e+00
1617.16270	0.00000e+00
1617.96900	0.00000e+00
1618.77530	0.00000e+00
1619.58160	0.00000e+00
1620.38790	0.00000e+00
1621.19420	0.00000e+00
1622.00050	0.00000e+00
1622.80680	0.00000e+00
1623.61310	0.00000e+00
1624.41940	0.00000e+00
1625.22570	0.00000e+00
1626.03200	0.00000e+00
1626.83830	0.00000e+00
1627.64460	0.00000e+00
1628.45090	0.00000e+00
1629.25720	0.00000e+00
1630.06350	0.00000e+00
1630.86980	0.00000e+00
1631.67610	0.00000e+00
1632.48240	0.00000e+00
1633.28870	0.00000e+00
1634.09500	0.00000e+00
1634.90130	0.00000e+00
1635.70760	0.00000e+00
1636.51390	0.00000e+00
1637.32020	0.00000e+00
1638.12650	0.00000e+00
1638.93280	0.00000e+00
1639.73910	0.00000e+00
1640.54540	0.00000e+00
1641.35170	0.00000e+00
1642.15800	0.00000e+00
1642.96430	0.00000e+00
1643.77060	0.00000e+00
1644.57690	0.00000e+00
1645.38320	0.00000e+00
1646.18950	0.00000e+00
1646.99580	0.00000e+00
1647.80210	0.00000e+00
1648.60840	0.00000e+00
1649.41470	0.00000e+00
1650.22100	0.00000e+00
1651.02730	0.00000e+00
1651.83360	0.00000e+00
1652.63990	0.00000e+00
1653.44620	0.00000e+00
1654.25250	0.00000e+00
1655.05880	0.00000e+00
1655.86510	0.00000e+00
1656.67140	0.00000e+00
1657.47770	0.00000e+00
1658.28400	0.00000e+00
1659.09030	0.00000e+00
1659.89660	0.00000e+00
1660.70290	0.00000e+00
1661.50920	0.00000e+00
1662.31550	0.00000e+00
1663.12180	0.00000e+00
1663.92810	0.00000e+00
1664.73440	0.00000e+00
1665.54070	0.00000e+00
1666.34700	0.00000e+00
1667.15330	0.00000e+00
1667.95960	0.00000e+00
1668.76590	0.00000e+00
1669.57220	0.00000e+00
1670.37850	0.00000e+00
1671.18480	0.00000e+00
1671.99110	0.00000e+00
1672.79740	0.00000e+00
1673.60370	0.00000e+00
1674.41000	0.00000e+00
1675.21630	0.00000e+00
1676.02260	0.00000e+00
1676.82890	0.00000e+00
1677.63520	0.00000e+00
1678.44150	0.00000e+00
1679.24780	0.00000e+00
1680.05410	0.00000e+00
1680.86040	0.00000e+00
1681.66670	0.00000e+00
1682.47300	0.00000e+00
1683.27930	0.00000e+00
1684.08560	0.00000e+00
1684.89190	0.00000e+00
1685.69820	0.00000e+00
1686.50450	0.00000e+00
1687.31080	0.00000e+00
1688.11710	0.00000e+00
1688.92340	0.00000e+00
1689.72970	0.00000e+00
1690.53600	0.00000e+00
1691.34230	0.00000e+00
1692.14860	0.00000e+00
1692.95490	0.00000e+00
1693.76120	0.00000e+00
1694.56750	0.00000e+00
1695.37380	0.00000e+00
1696.18010	0.00000e+00
1696.98640	0.00000e+00
1697.79270	0.00000e+00
1698.59900	0.00000e+00
1699.40530	0.00000e+00
1700.21160	0.00000e+00
1701.01790	0.00000e+00
1701.82420	0.00000e+00
1702.63050	0.00000e+00
1703.43680	0.00000e+00
1704.24310	0.00000e+00
1705.04940	0.00000e+00
1705.85570	0.00000e+00
1706.66200	0.00000e+00
1707.46830	0.00000e+00
1708.27460	0.00000e+00
1709.08090	0.00000e+00
1709.88720	0.00000e+00
1710.69350	0.00000e+00
1711.49980	0.00000e+00
1712.30610	0.00000e+00
1713.11240	0.00000e+00
1713.91870	0.00000e+00
1714.72500	0.00000e+00
1715.53130	0.00000e+00
1716.33760	0.00000e+00
1717.14390	0.00000e+00
1717.95020	0.00000e+00
1718.75650	0.00000e+00
1719.56280	0.00000e+00
1720.36910	0.00000e+00
1721.17540	0.00000e+00
1721.98170	0.00000e+00
1722.78800	0.00000e+00
1723.59430	0.00000e+00
1724.40060	0.00000e+00
1725.20690	0.00000e+00
1726.01320	0.00000e+00
1726.81950	0.00000e+00
1727.62580	0.00000e+00
1728.43210	0.00000e+00
1729.23840	0.00000e+00
1730.04470	0.00000e+00
1730.85100	0.00000e+00
1731.65730	0.00000e+00
1732.46360	0.00000e+00
1733.26990	0.00000e+00
1734.07620	0.00000e+00
1734.88250	0.00000e+00
1735.68880	0.00000e+00
1736.49510	0.00000e+00
1737.30140	0.00000e+00
1738.10770	0.00000e+00
1738.91400	0.00000e+00
1739.72030	0.00000e+00
1740.52660	0.00000e+00
1741.33290	0.00000e+00
1742.13920	0.00000e+00
1742.94550	0.00000e+00
1743.75180	0.00000e+00
1744.55810	0.00000e+00
1745.36440	0.00000e+00
1746.17070	0.00000e+00
1746.97700	0.00000e+00
1747.78330	0.00000e+00
1748.58960	0.00000e+00
1749.39590	0.00000e+00
1750.20220	0.00000e+00
1751.00850	0.00000e+00
1751.81480	0.00000e+00
1752.62110	0.00000e+00
1753.42740	0.00000e+00
1754.23370	0.00000e+00
1755.04000	0.00000e+00
1755.84630	0.00000e+00
1756.65260	0.00000e+00
1757.45890	0.00000e+00
1758.26520	0.00000e+00
1759.07150	0.00000e+00
1759.87780	0.00000e+00
1760.68410	0.00000e+00
1761.49040	0.00000e+00
1762.29670	0.00000e+00
1763.10300	0.00000e+00
1763.90930	0.00000e+00
1764.71560	0.00000e+00
1765.52190	0.00000e+00
1766.32820	0.00000e+00
1767.13450	0.00000e+00
1767.94080	0.00000e+00
1768.74710	0.00000e+00
1769.55340	0.00000e+00
1770.35970	0.00000e+00
1771.16600	0.00000e+00
1771.97230	0.00000e+00
1772.77860	0.00000e+00
1773.58490	0.00000e+00
1774.39120	0.00000e+00
1775.19750	0.00000e+00
1776.00380	0.00000e+00
1776.81010	0.00000e+00
1777.61640	0.00000e+00
1778.42270	0.00000e+00
1779.22900	0.00000e+00
1780.03530	0.00000e+00
1780.84160	0.00000e+00
1781.64790	0.00000e+00
1782.45420	0.00000e+00
1783.26050	0.00000e+00
1784.06680	0.00000e+00
1784.87310	0.00000e+00
1785.67940	0.00000e+00
1786.48570	0.00000e+00
1787.29200	0.00000e+00
1788.09830	0.00000e+00
1788.90460	0.00000e+00
1789.71090	0.00000e+00
1790.51720	0.00000e+00
1791.32350	0.00000e+00
1792.12980	0.00000e+00
1792.93610	0.00000e+00
1793.74240	0.00000e+00
1794.54870	0.00000e+00
1795.35500	0.00000e+00
1796.16130	0.00000e+00
1796.96760	0.00000e+00
1797.77390	0.00000e+00
1798.58020	0.00000e+00
1799.38650	0.00000e+00
1800.19280	0.00000e+00
1800.99910	0.00000e+00
1801.80540	0.00000e+00
1802.61170	0.00000e+00
1803.41800	0.00000e+00
1804.22430	0.00000e+00
1805.03060	0.00000e+00
