#sample_50_stacked_spectrum_rest_UV-bands_median_H-alpha_noDC.txt
#median Lum: 1.70183e+42
#Rest-frame wavelength (A) | Luminosity (erg/s/A)
#
          1110.00000	         0.00000e+00
          1110.80630	         3.78858e+59
          1111.61260	         3.73108e+59
          1112.41890	        -3.23737e+58
          1113.22520	        -2.75786e+58
          1114.03150	        -1.25194e+59
          1114.83780	         2.47062e+59
          1115.64410	         5.21380e+58
          1116.45040	        -5.99184e+58
          1117.25670	         1.04788e+58
          1118.06300	         1.31750e+59
          1118.86930	        -4.49260e+58
          1119.67560	         1.60538e+59
          1120.48190	         4.05381e+58
          1121.28820	        -5.79018e+58
          1122.09450	        -4.89350e+57
          1122.90080	         7.26075e+58
          1123.70710	         7.48157e+58
          1124.51340	         3.89838e+58
          1125.31970	         6.15817e+57
          1126.12600	         2.87938e+58
          1126.93230	        -2.09286e+58
          1127.73860	        -1.15673e+58
          1128.54490	        -1.42852e+58
          1129.35120	         5.61322e+58
          1130.15750	         4.09976e+58
          1130.96380	        -3.64227e+58
          1131.77010	         3.86161e+58
          1132.57640	         5.80404e+58
          1133.38270	         9.43436e+57
          1134.18900	         1.36125e+58
          1134.99530	         7.11934e+57
          1135.80160	         1.21450e+58
          1136.60790	         6.98754e+57
          1137.41420	         9.89952e+57
          1138.22050	         3.22591e+58
          1139.02680	         2.73687e+58
          1139.83310	         1.93402e+58
          1140.63940	         1.02581e+58
          1141.44570	        -2.86972e+58
          1142.25200	        -4.75680e+57
          1143.05830	         1.47642e+58
          1143.86460	         5.03197e+57
          1144.67090	         3.17695e+58
          1145.47720	         2.21863e+58
          1146.28350	         2.07348e+58
          1147.08980	         1.84561e+58
          1147.89610	         1.81237e+58
          1148.70240	         4.35312e+58
          1149.50870	         3.22014e+58
          1150.31500	         9.43341e+57
          1151.12130	         1.60690e+58
          1151.92760	         9.65504e+57
          1152.73390	        -1.57622e+57
          1153.54020	         7.61000e+57
          1154.34650	         2.43262e+58
          1155.15280	         1.23195e+58
          1155.95910	         1.34022e+58
          1156.76540	        -3.99605e+57
          1157.57170	        -2.03497e+57
          1158.37800	        -4.99132e+57
          1159.18430	        -1.18416e+58
          1159.99060	        -1.10439e+57
          1160.79690	         3.79511e+56
          1161.60320	         7.18907e+57
          1162.40950	         1.16708e+58
          1163.21580	         9.35341e+57
          1164.02210	         5.33884e+57
          1164.82840	         8.02507e+57
          1165.63470	         2.14723e+58
          1166.44100	         3.01660e+58
          1167.24730	         2.39234e+58
          1168.05360	         7.37487e+57
          1168.85990	         5.31835e+57
          1169.66620	         2.73933e+57
          1170.47250	         1.27278e+58
          1171.27880	         1.93329e+58
          1172.08510	         1.40881e+58
          1172.89140	         9.21892e+57
          1173.69770	         6.47222e+57
          1174.50400	         1.30768e+58
          1175.31030	         2.15829e+58
          1176.11660	         1.92703e+58
          1176.92290	         1.25410e+58
          1177.72920	         9.75916e+57
          1178.53550	         9.11109e+57
          1179.34180	         1.71737e+57
          1180.14810	         6.92706e+57
          1180.95440	         1.67156e+58
          1181.76070	         8.22255e+57
          1182.56700	         6.41434e+57
          1183.37330	         2.71559e+57
          1184.17960	         9.18198e+57
          1184.98590	         9.29140e+57
          1185.79220	         5.54680e+57
          1186.59850	         9.80314e+57
          1187.40480	         1.21252e+58
          1188.21110	         1.54494e+58
          1189.01740	         9.75327e+57
          1189.82370	         8.08121e+57
          1190.63000	         9.15539e+57
          1191.43630	         1.08893e+58
          1192.24260	         5.57101e+57
          1193.04890	         1.11473e+58
          1193.85520	         8.70802e+57
          1194.66150	         5.10012e+57
          1195.46780	         1.20085e+58
          1196.27410	         1.20964e+58
          1197.08040	         1.16373e+58
          1197.88670	         1.31213e+58
          1198.69300	         1.35239e+58
          1199.49930	         1.35824e+58
          1200.30560	         1.05279e+58
          1201.11190	         7.36018e+57
          1201.91820	         6.46952e+57
          1202.72450	         7.81003e+57
          1203.53080	         1.04247e+58
          1204.33710	         7.24705e+57
          1205.14340	         6.74162e+57
          1205.94970	         5.77667e+57
          1206.75600	         4.19406e+57
          1207.56230	         5.74087e+57
          1208.36860	         5.84245e+57
          1209.17490	         3.78937e+57
          1209.98120	         7.72061e+57
          1210.78750	         7.76432e+57
          1211.59380	         1.36181e+58
          1212.40010	         2.15907e+58
          1213.20640	         2.22609e+58
          1214.01270	         2.07232e+58
          1214.81900	         2.84126e+58
          1215.62530	         4.75702e+58
          1216.43160	         9.03710e+58
          1217.23790	         1.51545e+59
          1218.04420	         1.16922e+59
          1218.85050	         9.03399e+58
          1219.65680	         6.23365e+58
          1220.46310	         3.32305e+58
          1221.26940	         2.12868e+58
          1222.07570	         1.27512e+58
          1222.88200	         1.04301e+58
          1223.68830	         1.14634e+58
          1224.49460	         1.00481e+58
          1225.30090	         6.47562e+57
          1226.10720	         4.53369e+57
          1226.91350	         5.89752e+57
          1227.71980	         8.22415e+57
          1228.52610	         1.15487e+58
          1229.33240	         1.01137e+58
          1230.13870	         9.38118e+57
          1230.94500	         8.31449e+57
          1231.75130	         3.70444e+57
          1232.55760	         5.95363e+57
          1233.36390	         1.00547e+58
          1234.17020	         7.65322e+57
          1234.97650	         6.00342e+57
          1235.78280	         6.62283e+57
          1236.58910	         7.03493e+57
          1237.39540	         1.06189e+58
          1238.20170	         1.08287e+58
          1239.00800	         1.38019e+58
          1239.81430	         1.63621e+58
          1240.62060	         9.42115e+57
          1241.42690	         7.77101e+57
          1242.23320	         1.05381e+58
          1243.03950	         5.91868e+57
          1243.84580	         6.14319e+57
          1244.65210	         1.00865e+58
          1245.45840	         1.11402e+58
          1246.26470	         1.07861e+58
          1247.07100	         8.10371e+57
          1247.87730	         5.04811e+57
          1248.68360	         3.08184e+57
          1249.48990	         6.43177e+57
          1250.29620	         1.05827e+58
          1251.10250	         7.65451e+57
          1251.90880	         4.29892e+57
          1252.71510	         5.18632e+57
          1253.52140	         5.74216e+57
          1254.32770	         8.92276e+57
          1255.13400	         9.75352e+57
          1255.94030	         9.70006e+57
          1256.74660	         9.70703e+57
          1257.55290	         8.91345e+57
          1258.35920	         6.91217e+57
          1259.16550	         5.36936e+57
          1259.97180	         5.31788e+57
          1260.77810	         9.84756e+57
          1261.58440	         1.48635e+58
          1262.39070	         1.17796e+58
          1263.19700	         8.86926e+57
          1264.00330	         8.67451e+57
          1264.80960	         1.00989e+58
          1265.61590	         1.38387e+58
          1266.42220	         1.36139e+58
          1267.22850	         1.16635e+58
          1268.03480	         1.34900e+58
          1268.84110	         1.49034e+58
          1269.64740	         1.29011e+58
          1270.45370	         1.19972e+58
          1271.26000	         1.03295e+58
          1272.06630	         1.25209e+58
          1272.87260	         1.41540e+58
          1273.67890	         1.45657e+58
          1274.48520	         1.49476e+58
          1275.29150	         1.41075e+58
          1276.09780	         1.14173e+58
          1276.90410	         1.45667e+58
          1277.71040	         1.37015e+58
          1278.51670	         1.30316e+58
          1279.32300	         1.44984e+58
          1280.12930	         1.44987e+58
          1280.93560	         1.20283e+58
          1281.74190	         1.27211e+58
          1282.54820	         1.38790e+58
          1283.35450	         1.21567e+58
          1284.16080	         1.16978e+58
          1284.96710	         1.24997e+58
          1285.77340	         1.34081e+58
          1286.57970	         1.22184e+58
          1287.38600	         1.40037e+58
          1288.19230	         1.80539e+58
          1288.99860	         1.67694e+58
          1289.80490	         1.23284e+58
          1290.61120	         1.45009e+58
          1291.41750	         1.51825e+58
          1292.22380	         1.47972e+58
          1293.03010	         1.27995e+58
          1293.83640	         1.27572e+58
          1294.64270	         1.03784e+58
          1295.44900	         7.12081e+57
          1296.25530	         8.34840e+57
          1297.06160	         1.02929e+58
          1297.86790	         1.05079e+58
          1298.67420	         1.11426e+58
          1299.48050	         1.16538e+58
          1300.28680	         8.41890e+57
          1301.09310	         7.77504e+57
          1301.89940	         5.67888e+57
          1302.70570	         6.96593e+57
          1303.51200	         7.28591e+57
          1304.31830	         8.98979e+57
          1305.12460	         1.07924e+58
          1305.93090	         1.16722e+58
          1306.73720	         1.32424e+58
          1307.54350	         1.34832e+58
          1308.34980	         1.28875e+58
          1309.15610	         1.46442e+58
          1309.96240	         1.43707e+58
          1310.76870	         1.38652e+58
          1311.57500	         1.28307e+58
          1312.38130	         9.96714e+57
          1313.18760	         1.18811e+58
          1313.99390	         1.50603e+58
          1314.80020	         1.59420e+58
          1315.60650	         1.56021e+58
          1316.41280	         1.26843e+58
          1317.21910	         1.19801e+58
          1318.02540	         1.42959e+58
          1318.83170	         1.47301e+58
          1319.63800	         1.31834e+58
          1320.44430	         1.38237e+58
          1321.25060	         1.30981e+58
          1322.05690	         1.22577e+58
          1322.86320	         1.13815e+58
          1323.66950	         1.16554e+58
          1324.47580	         1.05654e+58
          1325.28210	         1.00248e+58
          1326.08840	         1.23734e+58
          1326.89470	         1.38303e+58
          1327.70100	         1.05000e+58
          1328.50730	         7.59858e+57
          1329.31360	         7.49592e+57
          1330.11990	         7.77716e+57
          1330.92620	         8.78825e+57
          1331.73250	         1.04883e+58
          1332.53880	         1.14008e+58
          1333.34510	         9.77174e+57
          1334.15140	         9.40482e+57
          1334.95770	         9.52527e+57
          1335.76400	         1.11655e+58
          1336.57030	         1.10877e+58
          1337.37660	         1.03937e+58
          1338.18290	         9.93384e+57
          1338.98920	         1.13813e+58
          1339.79550	         1.15676e+58
          1340.60180	         1.12486e+58
          1341.40810	         1.48655e+58
          1342.21440	         1.45916e+58
          1343.02070	         1.17008e+58
          1343.82700	         1.23031e+58
          1344.63330	         1.19932e+58
          1345.43960	         1.18367e+58
          1346.24590	         1.30041e+58
          1347.05220	         1.42628e+58
          1347.85850	         1.19949e+58
          1348.66480	         1.20798e+58
          1349.47110	         1.33553e+58
          1350.27740	         1.24879e+58
          1351.08370	         1.22363e+58
          1351.89000	         9.89238e+57
          1352.69630	         1.10159e+58
          1353.50260	         1.19562e+58
          1354.30890	         1.21718e+58
          1355.11520	         1.17785e+58
          1355.92150	         1.01234e+58
          1356.72780	         1.00292e+58
          1357.53410	         1.23378e+58
          1358.34040	         1.17529e+58
          1359.14670	         1.06180e+58
          1359.95300	         1.12725e+58
          1360.75930	         1.12618e+58
          1361.56560	         1.10994e+58
          1362.37190	         1.14981e+58
          1363.17820	         1.16521e+58
          1363.98450	         1.25255e+58
          1364.79080	         1.42704e+58
          1365.59710	         1.44477e+58
          1366.40340	         1.25250e+58
          1367.20970	         1.15761e+58
          1368.01600	         1.00254e+58
          1368.82230	         9.08718e+57
          1369.62860	         1.04475e+58
          1370.43490	         8.84058e+57
          1371.24120	         8.33180e+57
          1372.04750	         1.01106e+58
          1372.85380	         1.23574e+58
          1373.66010	         1.17309e+58
          1374.46640	         1.10588e+58
          1375.27270	         1.08028e+58
          1376.07900	         7.79846e+57
          1376.88530	         8.57060e+57
          1377.69160	         9.44923e+57
          1378.49790	         8.04997e+57
          1379.30420	         7.59582e+57
          1380.11050	         8.33970e+57
          1380.91680	         8.50690e+57
          1381.72310	         8.47745e+57
          1382.52940	         1.01925e+58
          1383.33570	         1.11867e+58
          1384.14200	         1.13526e+58
          1384.94830	         1.11126e+58
          1385.75460	         1.11295e+58
          1386.56090	         1.25918e+58
          1387.36720	         1.03942e+58
          1388.17350	         1.10206e+58
          1388.97980	         1.12701e+58
          1389.78610	         9.13255e+57
          1390.59240	         7.87979e+57
          1391.39870	         7.38351e+57
          1392.20500	         8.46014e+57
          1393.01130	         8.41160e+57
          1393.81760	         8.56624e+57
          1394.62390	         8.41542e+57
          1395.43020	         7.95840e+57
          1396.23650	         7.51387e+57
          1397.04280	         7.60271e+57
          1397.84910	         8.59198e+57
          1398.65540	         8.78349e+57
          1399.46170	         9.46966e+57
          1400.26800	         8.10099e+57
          1401.07430	         7.45344e+57
          1401.88060	         9.41656e+57
          1402.68690	         1.04017e+58
          1403.49320	         9.43175e+57
          1404.29950	         8.91384e+57
          1405.10580	         1.04139e+58
          1405.91210	         1.13720e+58
          1406.71840	         1.15591e+58
          1407.52470	         1.08501e+58
          1408.33100	         9.18033e+57
          1409.13730	         1.01443e+58
          1409.94360	         1.11611e+58
          1410.74990	         1.06801e+58
          1411.55620	         1.01352e+58
          1412.36250	         9.66554e+57
          1413.16880	         9.31132e+57
          1413.97510	         8.86658e+57
          1414.78140	         9.80985e+57
          1415.58770	         1.21618e+58
          1416.39400	         1.17204e+58
          1417.20030	         1.03548e+58
          1418.00660	         9.55708e+57
          1418.81290	         9.01463e+57
          1419.61920	         9.95498e+57
          1420.42550	         1.30744e+58
          1421.23180	         1.40139e+58
          1422.03810	         1.28549e+58
          1422.84440	         1.23311e+58
          1423.65070	         1.41314e+58
          1424.45700	         1.21741e+58
          1425.26330	         8.59785e+57
          1426.06960	         7.20118e+57
          1426.87590	         9.47438e+57
          1427.68220	         9.02382e+57
          1428.48850	         1.00948e+58
          1429.29480	         1.03330e+58
          1430.10110	         1.03057e+58
          1430.90740	         9.14721e+57
          1431.71370	         8.43937e+57
          1432.52000	         7.78083e+57
          1433.32630	         6.83379e+57
          1434.13260	         7.74534e+57
          1434.93890	         8.84688e+57
          1435.74520	         9.89837e+57
          1436.55150	         1.04856e+58
          1437.35780	         8.71122e+57
          1438.16410	         8.91040e+57
          1438.97040	         9.00583e+57
          1439.77670	         9.18015e+57
          1440.58300	         9.49504e+57
          1441.38930	         9.20977e+57
          1442.19560	         9.33043e+57
          1443.00190	         9.49728e+57
          1443.80820	         1.08095e+58
          1444.61450	         9.77524e+57
          1445.42080	         7.70649e+57
          1446.22710	         9.85966e+57
          1447.03340	         9.52204e+57
          1447.83970	         9.62501e+57
          1448.64600	         1.00768e+58
          1449.45230	         1.05814e+58
          1450.25860	         1.21235e+58
          1451.06490	         9.81173e+57
          1451.87120	         8.21032e+57
          1452.67750	         7.89727e+57
          1453.48380	         8.40848e+57
          1454.29010	         8.00989e+57
          1455.09640	         7.91262e+57
          1455.90270	         8.77754e+57
          1456.70900	         8.26705e+57
          1457.51530	         9.11268e+57
          1458.32160	         1.15784e+58
          1459.12790	         1.22707e+58
          1459.93420	         9.88325e+57
          1460.74050	         7.99958e+57
          1461.54680	         9.01493e+57
          1462.35310	         8.14177e+57
          1463.15940	         9.27640e+57
          1463.96570	         1.12743e+58
          1464.77200	         1.05838e+58
          1465.57830	         1.01482e+58
          1466.38460	         1.08076e+58
          1467.19090	         9.60604e+57
          1467.99720	         8.37693e+57
          1468.80350	         8.94593e+57
          1469.60980	         9.53875e+57
          1470.41610	         1.02899e+58
          1471.22240	         1.00482e+58
          1472.02870	         1.00305e+58
          1472.83500	         9.57284e+57
          1473.64130	         9.85421e+57
          1474.44760	         8.41465e+57
          1475.25390	         8.41628e+57
          1476.06020	         9.39152e+57
          1476.86650	         9.12283e+57
          1477.67280	         8.32729e+57
          1478.47910	         7.89703e+57
          1479.28540	         7.07289e+57
          1480.09170	         8.22440e+57
          1480.89800	         8.79010e+57
          1481.70430	         8.73126e+57
          1482.51060	         7.71732e+57
          1483.31690	         7.23490e+57
          1484.12320	         7.49433e+57
          1484.92950	         7.97583e+57
          1485.73580	         8.26007e+57
          1486.54210	         8.79503e+57
          1487.34840	         9.22204e+57
          1488.15470	         8.68082e+57
          1488.96100	         8.20776e+57
          1489.76730	         8.28155e+57
