#sample_209_stacked_spectrum_rest_UV-bands_median_H-alpha_noDC.txt
#median Lum: 1.67392e+42
#Rest-frame wavelength (A) | Luminosity (erg/s/A)
#
          1110.00000	         0.00000e+00
          1110.80630	        -2.71372e+59
          1111.61260	        -2.65108e+58
          1112.41890	         2.54906e+58
          1113.22520	         5.69513e+58
          1114.03150	        -1.81511e+59
          1114.83780	         1.58761e+59
          1115.64410	         2.88925e+59
          1116.45040	         1.23980e+59
          1117.25670	         5.77296e+58
          1118.06300	        -1.42276e+58
          1118.86930	        -2.22014e+59
          1119.67560	         7.34056e+57
          1120.48190	         1.94783e+58
          1121.28820	        -1.15366e+59
          1122.09450	         1.74181e+58
          1122.90080	        -5.86388e+58
          1123.70710	         5.16285e+58
          1124.51340	         9.65211e+58
          1125.31970	         1.66801e+58
          1126.12600	         5.28523e+58
          1126.93230	        -4.81136e+58
          1127.73860	        -3.56044e+58
          1128.54490	         3.25759e+58
          1129.35120	         5.66976e+57
          1130.15750	         2.01607e+58
          1130.96380	        -1.47185e+58
          1131.77010	         6.52038e+58
          1132.57640	         6.84494e+58
          1133.38270	         7.14975e+58
          1134.18900	         2.91737e+58
          1134.99530	         1.54378e+58
          1135.80160	         2.53250e+57
          1136.60790	         1.11281e+56
          1137.41420	         1.26168e+58
          1138.22050	         4.07912e+58
          1139.02680	         2.28997e+58
          1139.83310	         1.49941e+58
          1140.63940	        -4.81565e+57
          1141.44570	         1.47393e+56
          1142.25200	        -1.32688e+58
          1143.05830	         1.52160e+58
          1143.86460	         1.84201e+58
          1144.67090	         1.92864e+58
          1145.47720	         3.13750e+57
          1146.28350	         6.47361e+57
          1147.08980	         1.57704e+58
          1147.89610	         2.20486e+58
          1148.70240	         1.81260e+58
          1149.50870	         2.57600e+58
          1150.31500	         2.03711e+58
          1151.12130	        -5.63437e+56
          1151.92760	        -2.11687e+57
          1152.73390	         3.05115e+57
          1153.54020	         1.95508e+58
          1154.34650	         2.58291e+58
          1155.15280	         1.67115e+58
          1155.95910	         1.04539e+58
          1156.76540	         1.16853e+58
          1157.57170	         8.72923e+57
          1158.37800	        -9.15721e+57
          1159.18430	        -6.42864e+57
          1159.99060	         6.09797e+56
          1160.79690	         3.51577e+57
          1161.60320	         1.34798e+57
          1162.40950	         1.50861e+58
          1163.21580	         1.67935e+58
          1164.02210	         2.06644e+58
          1164.82840	         1.03469e+58
          1165.63470	         1.73674e+58
          1166.44100	         2.72421e+58
          1167.24730	         1.91442e+58
          1168.05360	         6.05068e+57
          1168.85990	         6.15723e+57
          1169.66620	         1.18618e+58
          1170.47250	         1.97317e+58
          1171.27880	         1.34047e+58
          1172.08510	         4.94867e+57
          1172.89140	        -8.17827e+56
          1173.69770	         1.20686e+58
          1174.50400	         1.83398e+58
          1175.31030	         1.83364e+58
          1176.11660	         1.71635e+58
          1176.92290	         1.69026e+58
          1177.72920	         1.41455e+58
          1178.53550	         1.95748e+57
          1179.34180	         4.57872e+57
          1180.14810	         9.29540e+57
          1180.95440	         1.40012e+58
          1181.76070	         9.57415e+57
          1182.56700	         7.56069e+57
          1183.37330	         4.54945e+57
          1184.17960	         1.15505e+58
          1184.98590	         1.34257e+58
          1185.79220	         8.49724e+57
          1186.59850	         9.91164e+57
          1187.40480	         7.11985e+57
          1188.21110	         1.36054e+58
          1189.01740	         8.61477e+57
          1189.82370	         9.37590e+57
          1190.63000	         1.27595e+58
          1191.43630	         1.63471e+58
          1192.24260	         1.18386e+58
          1193.04890	         1.00928e+58
          1193.85520	         1.08514e+58
          1194.66150	         3.07847e+57
          1195.46780	         1.11216e+58
          1196.27410	         1.73882e+58
          1197.08040	         1.04598e+58
          1197.88670	         1.41261e+58
          1198.69300	         1.89295e+58
          1199.49930	         1.92046e+58
          1200.30560	         1.20233e+58
          1201.11190	         1.20860e+58
          1201.91820	         1.31567e+58
          1202.72450	         8.33577e+57
          1203.53080	         1.71569e+58
          1204.33710	         1.10849e+58
          1205.14340	         2.93957e+57
          1205.94970	         2.61677e+57
          1206.75600	         6.22434e+57
          1207.56230	         5.63568e+57
          1208.36860	         1.26750e+58
          1209.17490	         5.95427e+57
          1209.98120	         7.32786e+57
          1210.78750	         8.95682e+57
          1211.59380	         1.10154e+58
          1212.40010	         1.82677e+58
          1213.20640	         2.07717e+58
          1214.01270	         1.82636e+58
          1214.81900	         2.34727e+58
          1215.62530	         4.43021e+58
          1216.43160	         8.80207e+58
          1217.23790	         1.51712e+59
          1218.04420	         1.14318e+59
          1218.85050	         8.31695e+58
          1219.65680	         5.50759e+58
          1220.46310	         3.26806e+58
          1221.26940	         2.37380e+58
          1222.07570	         1.54796e+58
          1222.88200	         1.04198e+58
          1223.68830	         8.08360e+57
          1224.49460	         6.90026e+57
          1225.30090	         6.36818e+57
          1226.10720	         5.92295e+57
          1226.91350	         6.68161e+57
          1227.71980	         9.79635e+57
          1228.52610	         1.01366e+58
          1229.33240	         9.90335e+57
          1230.13870	         6.93857e+57
          1230.94500	         1.07287e+58
          1231.75130	         8.11513e+57
          1232.55760	         1.02193e+58
          1233.36390	         8.96234e+57
          1234.17020	         7.86102e+57
          1234.97650	         6.92379e+57
          1235.78280	         7.29962e+57
          1236.58910	         7.61822e+57
          1237.39540	         8.18874e+57
          1238.20170	         1.05099e+58
          1239.00800	         1.38938e+58
          1239.81430	         1.39581e+58
          1240.62060	         1.07523e+58
          1241.42690	         1.06165e+58
          1242.23320	         1.23354e+58
          1243.03950	         7.90527e+57
          1243.84580	         7.72972e+57
          1244.65210	         8.85800e+57
          1245.45840	         7.49093e+57
          1246.26470	         7.34738e+57
          1247.07100	         5.36012e+57
          1247.87730	         6.53300e+57
          1248.68360	         5.47219e+57
          1249.48990	         8.13287e+57
          1250.29620	         9.27542e+57
          1251.10250	         7.77893e+57
          1251.90880	         7.88035e+57
          1252.71510	         6.62426e+57
          1253.52140	         6.27513e+57
          1254.32770	         9.21635e+57
          1255.13400	         1.21615e+58
          1255.94030	         1.04214e+58
          1256.74660	         9.02701e+57
          1257.55290	         9.58757e+57
          1258.35920	         8.99588e+57
          1259.16550	         5.32296e+57
          1259.97180	         3.79422e+57
          1260.77810	         8.68317e+57
          1261.58440	         1.08628e+58
          1262.39070	         8.91524e+57
          1263.19700	         9.90600e+57
          1264.00330	         9.49310e+57
          1264.80960	         1.02282e+58
          1265.61590	         1.25098e+58
          1266.42220	         1.18225e+58
          1267.22850	         1.09559e+58
          1268.03480	         1.34939e+58
          1268.84110	         1.43132e+58
          1269.64740	         1.17328e+58
          1270.45370	         1.27400e+58
          1271.26000	         1.09224e+58
          1272.06630	         1.03474e+58
          1272.87260	         1.09524e+58
          1273.67890	         1.17175e+58
          1274.48520	         1.39862e+58
          1275.29150	         1.30924e+58
          1276.09780	         9.67743e+57
          1276.90410	         1.42669e+58
          1277.71040	         1.56656e+58
          1278.51670	         1.34792e+58
          1279.32300	         1.32553e+58
          1280.12930	         1.09469e+58
          1280.93560	         1.10493e+58
          1281.74190	         1.05852e+58
          1282.54820	         1.34156e+58
          1283.35450	         1.32113e+58
          1284.16080	         1.18742e+58
          1284.96710	         1.38008e+58
          1285.77340	         1.02425e+58
          1286.57970	         1.02437e+58
          1287.38600	         1.41677e+58
          1288.19230	         1.57239e+58
          1288.99860	         1.38054e+58
          1289.80490	         1.08699e+58
          1290.61120	         1.33813e+58
          1291.41750	         1.52344e+58
          1292.22380	         1.28754e+58
          1293.03010	         1.25902e+58
          1293.83640	         1.29661e+58
          1294.64270	         1.17931e+58
          1295.44900	         8.89095e+57
          1296.25530	         8.34292e+57
          1297.06160	         8.94256e+57
          1297.86790	         1.11025e+58
          1298.67420	         8.23266e+57
          1299.48050	         9.12733e+57
          1300.28680	         1.06359e+58
          1301.09310	         7.75694e+57
          1301.89940	         5.53768e+57
          1302.70570	         4.97114e+57
          1303.51200	         6.77500e+57
          1304.31830	         9.16899e+57
          1305.12460	         9.88946e+57
          1305.93090	         1.09881e+58
          1306.73720	         1.20606e+58
          1307.54350	         1.25287e+58
          1308.34980	         1.23976e+58
          1309.15610	         1.26897e+58
          1309.96240	         1.60867e+58
          1310.76870	         1.62482e+58
          1311.57500	         1.44581e+58
          1312.38130	         1.19518e+58
          1313.18760	         1.06411e+58
          1313.99390	         1.53606e+58
          1314.80020	         1.68944e+58
          1315.60650	         1.26906e+58
          1316.41280	         1.13029e+58
          1317.21910	         1.02642e+58
          1318.02540	         1.08985e+58
          1318.83170	         1.21078e+58
          1319.63800	         1.18868e+58
          1320.44430	         1.23463e+58
          1321.25060	         1.21955e+58
          1322.05690	         1.22183e+58
          1322.86320	         1.16874e+58
          1323.66950	         1.06565e+58
          1324.47580	         9.30788e+57
          1325.28210	         8.81413e+57
          1326.08840	         1.01899e+58
          1326.89470	         1.28855e+58
          1327.70100	         1.10294e+58
          1328.50730	         8.61731e+57
          1329.31360	         9.40294e+57
          1330.11990	         1.08577e+58
          1330.92620	         9.94149e+57
          1331.73250	         1.00827e+58
          1332.53880	         9.77442e+57
          1333.34510	         8.54456e+57
          1334.15140	         7.90389e+57
          1334.95770	         7.70023e+57
          1335.76400	         9.69119e+57
          1336.57030	         1.07791e+58
          1337.37660	         9.82823e+57
          1338.18290	         1.10184e+58
          1338.98920	         1.08631e+58
          1339.79550	         1.00579e+58
          1340.60180	         1.24147e+58
          1341.40810	         1.43055e+58
          1342.21440	         1.16765e+58
          1343.02070	         1.09804e+58
          1343.82700	         1.32250e+58
          1344.63330	         1.15038e+58
          1345.43960	         1.09752e+58
          1346.24590	         1.15736e+58
          1347.05220	         1.11921e+58
          1347.85850	         1.05216e+58
          1348.66480	         1.05708e+58
          1349.47110	         1.12576e+58
          1350.27740	         1.09963e+58
          1351.08370	         1.09595e+58
          1351.89000	         1.23528e+58
          1352.69630	         1.34888e+58
          1353.50260	         1.26285e+58
          1354.30890	         1.23122e+58
          1355.11520	         1.17174e+58
          1355.92150	         1.02294e+58
          1356.72780	         9.67680e+57
          1357.53410	         1.03467e+58
          1358.34040	         1.08119e+58
          1359.14670	         9.86006e+57
          1359.95300	         1.07960e+58
          1360.75930	         1.15344e+58
          1361.56560	         1.17816e+58
          1362.37190	         1.21902e+58
          1363.17820	         1.13373e+58
          1363.98450	         1.11828e+58
          1364.79080	         1.05284e+58
          1365.59710	         1.13640e+58
          1366.40340	         1.23671e+58
          1367.20970	         1.13170e+58
          1368.01600	         9.70939e+57
          1368.82230	         8.75098e+57
          1369.62860	         1.05532e+58
          1370.43490	         1.00702e+58
          1371.24120	         9.46931e+57
          1372.04750	         8.80058e+57
          1372.85380	         1.01029e+58
          1373.66010	         1.14648e+58
          1374.46640	         1.11917e+58
          1375.27270	         1.05798e+58
          1376.07900	         9.39659e+57
          1376.88530	         8.67936e+57
          1377.69160	         8.06969e+57
          1378.49790	         5.95682e+57
          1379.30420	         6.27779e+57
          1380.11050	         8.99571e+57
          1380.91680	         8.31718e+57
          1381.72310	         7.29552e+57
          1382.52940	         7.71766e+57
          1383.33570	         7.82426e+57
          1384.14200	         9.34377e+57
          1384.94830	         1.20635e+58
          1385.75460	         1.02727e+58
          1386.56090	         1.03503e+58
          1387.36720	         1.07194e+58
          1388.17350	         1.18310e+58
          1388.97980	         1.10837e+58
          1389.78610	         9.26675e+57
          1390.59240	         8.02082e+57
          1391.39870	         6.68141e+57
          1392.20500	         7.10654e+57
          1393.01130	         8.13968e+57
          1393.81760	         8.57613e+57
          1394.62390	         8.13282e+57
          1395.43020	         6.26393e+57
          1396.23650	         6.63073e+57
          1397.04280	         6.79518e+57
          1397.84910	         8.73367e+57
          1398.65540	         9.47045e+57
          1399.46170	         9.40000e+57
          1400.26800	         8.60573e+57
          1401.07430	         8.72767e+57
          1401.88060	         9.53481e+57
          1402.68690	         9.40920e+57
          1403.49320	         9.41412e+57
          1404.29950	         9.10496e+57
          1405.10580	         1.12711e+58
          1405.91210	         1.10331e+58
          1406.71840	         1.07330e+58
          1407.52470	         1.04521e+58
          1408.33100	         1.00764e+58
          1409.13730	         1.18961e+58
          1409.94360	         1.20058e+58
          1410.74990	         1.13876e+58
          1411.55620	         1.01362e+58
          1412.36250	         8.65709e+57
          1413.16880	         8.15772e+57
          1413.97510	         8.55266e+57
          1414.78140	         8.82333e+57
          1415.58770	         8.59396e+57
          1416.39400	         9.06848e+57
          1417.20030	         9.33716e+57
          1418.00660	         7.25844e+57
          1418.81290	         8.27870e+57
          1419.61920	         9.67842e+57
          1420.42550	         1.14682e+58
          1421.23180	         1.33923e+58
          1422.03810	         1.16075e+58
          1422.84440	         9.48336e+57
          1423.65070	         1.26074e+58
          1424.45700	         1.29595e+58
          1425.26330	         9.36744e+57
          1426.06960	         9.12835e+57
          1426.87590	         8.77109e+57
          1427.68220	         9.23008e+57
          1428.48850	         1.10736e+58
          1429.29480	         9.94044e+57
          1430.10110	         8.98639e+57
          1430.90740	         8.20699e+57
          1431.71370	         8.57780e+57
          1432.52000	         8.37810e+57
          1433.32630	         7.41860e+57
          1434.13260	         8.31336e+57
          1434.93890	         8.60336e+57
          1435.74520	         8.53627e+57
          1436.55150	         8.71100e+57
          1437.35780	         8.34657e+57
          1438.16410	         9.16425e+57
          1438.97040	         9.49894e+57
          1439.77670	         8.88006e+57
          1440.58300	         8.42169e+57
          1441.38930	         9.43131e+57
          1442.19560	         9.45878e+57
          1443.00190	         9.28340e+57
          1443.80820	         1.10387e+58
          1444.61450	         1.04131e+58
          1445.42080	         8.31383e+57
          1446.22710	         9.31698e+57
          1447.03340	         9.94736e+57
          1447.83970	         1.01582e+58
          1448.64600	         1.00415e+58
          1449.45230	         1.00640e+58
          1450.25860	         1.13087e+58
          1451.06490	         9.64884e+57
          1451.87120	         7.07701e+57
          1452.67750	         7.65748e+57
          1453.48380	         9.21476e+57
          1454.29010	         8.42744e+57
          1455.09640	         7.56043e+57
          1455.90270	         9.56629e+57
          1456.70900	         8.89325e+57
          1457.51530	         8.23846e+57
          1458.32160	         1.15476e+58
          1459.12790	         1.21483e+58
          1459.93420	         1.02475e+58
          1460.74050	         7.96047e+57
          1461.54680	         8.39295e+57
          1462.35310	         9.00072e+57
          1463.15940	         8.97078e+57
          1463.96570	         1.08802e+58
          1464.77200	         1.18796e+58
          1465.57830	         9.91696e+57
          1466.38460	         8.75839e+57
          1467.19090	         9.90130e+57
          1467.99720	         9.54142e+57
          1468.80350	         9.84867e+57
          1469.60980	         9.86146e+57
          1470.41610	         1.01887e+58
          1471.22240	         9.08795e+57
          1472.02870	         9.31530e+57
          1472.83500	         9.75698e+57
          1473.64130	         1.07960e+58
          1474.44760	         1.11590e+58
          1475.25390	         9.77133e+57
          1476.06020	         8.41350e+57
          1476.86650	         8.06780e+57
          1477.67280	         7.76863e+57
          1478.47910	         7.84871e+57
          1479.28540	         7.40233e+57
          1480.09170	         8.08436e+57
          1480.89800	         8.82604e+57
          1481.70430	         8.92282e+57
          1482.51060	         8.89735e+57
          1483.31690	         8.55819e+57
          1484.12320	         8.34369e+57
          1484.92950	         8.08698e+57
          1485.73580	         8.44270e+57
          1486.54210	         7.68402e+57
          1487.34840	         7.88511e+57
          1488.15470	         8.28796e+57
          1488.96100	         7.67324e+57
          1489.76730	         7.69036e+57
