#sample_469_stacked_spectrum_rest_UV-bands_median_H-alpha_noDC.txt
#median Lum: 1.70180e+42
#Rest-frame wavelength (A) | Luminosity (erg/s/A)
#
          1110.00000	         0.00000e+00
          1110.80630	        -3.11971e+59
          1111.61260	         2.07074e+59
          1112.41890	         2.40615e+59
          1113.22520	         7.17100e+58
          1114.03150	        -2.55346e+59
          1114.83780	         8.50524e+58
          1115.64410	         1.63006e+59
          1116.45040	         2.58619e+59
          1117.25670	         1.16089e+59
          1118.06300	        -6.70931e+57
          1118.86930	         1.40317e+58
          1119.67560	         7.60545e+58
          1120.48190	        -1.81112e+58
          1121.28820	        -6.27197e+58
          1122.09450	         3.00505e+58
          1122.90080	        -4.08888e+58
          1123.70710	         3.15375e+58
          1124.51340	         6.75608e+58
          1125.31970	         2.71449e+58
          1126.12600	         2.93175e+58
          1126.93230	        -2.87256e+58
          1127.73860	        -7.54966e+58
          1128.54490	        -1.85793e+58
          1129.35120	        -1.46233e+58
          1130.15750	        -1.93212e+58
          1130.96380	         2.44890e+58
          1131.77010	         6.04134e+58
          1132.57640	         2.89315e+58
          1133.38270	         5.03964e+58
          1134.18900	         8.71343e+57
          1134.99530	         1.61249e+58
          1135.80160	         2.92249e+58
          1136.60790	         3.66888e+58
          1137.41420	         2.41509e+58
          1138.22050	         4.14069e+58
          1139.02680	         3.90932e+58
          1139.83310	         2.45580e+58
          1140.63940	         3.10072e+58
          1141.44570	        -6.52655e+57
          1142.25200	         8.48215e+57
          1143.05830	         2.43047e+58
          1143.86460	         1.67170e+58
          1144.67090	         1.08909e+58
          1145.47720	         1.06103e+58
          1146.28350	         1.01782e+58
          1147.08980	         1.49615e+57
          1147.89610	         9.25828e+57
          1148.70240	         1.83965e+58
          1149.50870	         2.16784e+58
          1150.31500	         2.33913e+58
          1151.12130	         1.36971e+58
          1151.92760	         4.83742e+57
          1152.73390	         1.24280e+58
          1153.54020	         1.45875e+57
          1154.34650	         2.75859e+58
          1155.15280	         1.86221e+58
          1155.95910	         8.52757e+57
          1156.76540	         5.41554e+57
          1157.57170	        -3.12908e+56
          1158.37800	         4.08235e+57
          1159.18430	         2.43160e+57
          1159.99060	         1.20208e+58
          1160.79690	        -6.55060e+56
          1161.60320	         1.17011e+58
          1162.40950	         1.79725e+58
          1163.21580	         1.01020e+58
          1164.02210	         1.85470e+58
          1164.82840	         5.37558e+57
          1165.63470	         1.34148e+58
          1166.44100	         3.13506e+58
          1167.24730	         2.35548e+58
          1168.05360	         9.90080e+57
          1168.85990	         4.56841e+57
          1169.66620	         9.77346e+57
          1170.47250	         2.01592e+58
          1171.27880	         1.02130e+58
          1172.08510	         6.16916e+57
          1172.89140	         1.42134e+58
          1173.69770	         1.04257e+58
          1174.50400	         1.25555e+58
          1175.31030	         1.93557e+58
          1176.11660	         1.60639e+58
          1176.92290	         1.53649e+58
          1177.72920	         1.20921e+58
          1178.53550	         2.89414e+57
          1179.34180	         1.55601e+57
          1180.14810	         3.48371e+57
          1180.95440	         6.24763e+57
          1181.76070	         9.23871e+57
          1182.56700	         1.05060e+58
          1183.37330	         8.38787e+57
          1184.17960	         1.31866e+58
          1184.98590	         1.53884e+58
          1185.79220	         1.21259e+58
          1186.59850	         1.20033e+58
          1187.40480	         1.11831e+58
          1188.21110	         1.36246e+58
          1189.01740	         5.14027e+57
          1189.82370	         8.03786e+57
          1190.63000	         1.43771e+58
          1191.43630	         1.51041e+58
          1192.24260	         8.74272e+57
          1193.04890	         9.10364e+57
          1193.85520	         1.01804e+58
          1194.66150	         6.81176e+57
          1195.46780	         1.05301e+58
          1196.27410	         1.13427e+58
          1197.08040	         7.06505e+57
          1197.88670	         1.24861e+58
          1198.69300	         1.65060e+58
          1199.49930	         1.57661e+58
          1200.30560	         1.13671e+58
          1201.11190	         1.08691e+58
          1201.91820	         1.25006e+58
          1202.72450	         9.54536e+57
          1203.53080	         1.04341e+58
          1204.33710	         7.14465e+57
          1205.14340	         4.58532e+57
          1205.94970	         3.89758e+57
          1206.75600	         6.65896e+57
          1207.56230	         6.12426e+57
          1208.36860	         6.13649e+57
          1209.17490	         5.58294e+57
          1209.98120	         5.96472e+57
          1210.78750	         8.74696e+57
          1211.59380	         8.68021e+57
          1212.40010	         1.14111e+58
          1213.20640	         2.04047e+58
          1214.01270	         2.08316e+58
          1214.81900	         2.87900e+58
          1215.62530	         4.73981e+58
          1216.43160	         9.31304e+58
          1217.23790	         1.52975e+59
          1218.04420	         1.15074e+59
          1218.85050	         8.74624e+58
          1219.65680	         5.99734e+58
          1220.46310	         3.11984e+58
          1221.26940	         2.08677e+58
          1222.07570	         1.36429e+58
          1222.88200	         1.06915e+58
          1223.68830	         9.44425e+57
          1224.49460	         7.54106e+57
          1225.30090	         6.41978e+57
          1226.10720	         7.66102e+57
          1226.91350	         1.17289e+58
          1227.71980	         1.26484e+58
          1228.52610	         1.46362e+58
          1229.33240	         1.31933e+58
          1230.13870	         1.23465e+58
          1230.94500	         1.03573e+58
          1231.75130	         5.37364e+57
          1232.55760	         8.83753e+57
          1233.36390	         8.87786e+57
          1234.17020	         7.26985e+57
          1234.97650	         7.99094e+57
          1235.78280	         8.94842e+57
          1236.58910	         9.66072e+57
          1237.39540	         9.52379e+57
          1238.20170	         9.10723e+57
          1239.00800	         8.51237e+57
          1239.81430	         1.41048e+58
          1240.62060	         9.60756e+57
          1241.42690	         9.08920e+57
          1242.23320	         1.35122e+58
          1243.03950	         8.64988e+57
          1243.84580	         8.70672e+57
          1244.65210	         1.08232e+58
          1245.45840	         1.25725e+58
          1246.26470	         8.76898e+57
          1247.07100	         5.72822e+57
          1247.87730	         7.20526e+57
          1248.68360	         4.91724e+57
          1249.48990	         5.94763e+57
          1250.29620	         7.98332e+57
          1251.10250	         7.91696e+57
          1251.90880	         4.27716e+57
          1252.71510	         2.97208e+57
          1253.52140	         7.34682e+57
          1254.32770	         9.71848e+57
          1255.13400	         1.17227e+58
          1255.94030	         9.88760e+57
          1256.74660	         9.97974e+57
          1257.55290	         1.23887e+58
          1258.35920	         7.55024e+57
          1259.16550	         4.31284e+57
          1259.97180	         4.97447e+57
          1260.77810	         8.21315e+57
          1261.58440	         1.20243e+58
          1262.39070	         8.00160e+57
          1263.19700	         5.55490e+57
          1264.00330	         9.69966e+57
          1264.80960	         1.17969e+58
          1265.61590	         1.19418e+58
          1266.42220	         1.11844e+58
          1267.22850	         8.74822e+57
          1268.03480	         1.30663e+58
          1268.84110	         1.42691e+58
          1269.64740	         1.23419e+58
          1270.45370	         1.18872e+58
          1271.26000	         1.03973e+58
          1272.06630	         1.10930e+58
          1272.87260	         1.30194e+58
          1273.67890	         1.27176e+58
          1274.48520	         1.21802e+58
          1275.29150	         1.27459e+58
          1276.09780	         1.29518e+58
          1276.90410	         1.45544e+58
          1277.71040	         1.27782e+58
          1278.51670	         1.22328e+58
          1279.32300	         1.37729e+58
          1280.12930	         1.18971e+58
          1280.93560	         1.14037e+58
          1281.74190	         1.26400e+58
          1282.54820	         1.13758e+58
          1283.35450	         1.07557e+58
          1284.16080	         1.22978e+58
          1284.96710	         1.33032e+58
          1285.77340	         1.26181e+58
          1286.57970	         1.23275e+58
          1287.38600	         1.47902e+58
          1288.19230	         1.74127e+58
          1288.99860	         1.75831e+58
          1289.80490	         1.26612e+58
          1290.61120	         1.19632e+58
          1291.41750	         1.39805e+58
          1292.22380	         1.28044e+58
          1293.03010	         1.13004e+58
          1293.83640	         1.20193e+58
          1294.64270	         1.07062e+58
          1295.44900	         7.93516e+57
          1296.25530	         6.87430e+57
          1297.06160	         8.42223e+57
          1297.86790	         9.61948e+57
          1298.67420	         9.16290e+57
          1299.48050	         1.02728e+58
          1300.28680	         1.02400e+58
          1301.09310	         7.27012e+57
          1301.89940	         3.14303e+57
          1302.70570	         6.45128e+57
          1303.51200	         7.95318e+57
          1304.31830	         1.06787e+58
          1305.12460	         1.21814e+58
          1305.93090	         1.08930e+58
          1306.73720	         1.13881e+58
          1307.54350	         1.39924e+58
          1308.34980	         1.44164e+58
          1309.15610	         1.33440e+58
          1309.96240	         1.50516e+58
          1310.76870	         1.56609e+58
          1311.57500	         1.14673e+58
          1312.38130	         8.75979e+57
          1313.18760	         1.28191e+58
          1313.99390	         1.75317e+58
          1314.80020	         1.71365e+58
          1315.60650	         1.44390e+58
          1316.41280	         1.30643e+58
          1317.21910	         1.06900e+58
          1318.02540	         1.08844e+58
          1318.83170	         1.18640e+58
          1319.63800	         1.13069e+58
          1320.44430	         1.04838e+58
          1321.25060	         1.16206e+58
          1322.05690	         1.24910e+58
          1322.86320	         1.13496e+58
          1323.66950	         9.89864e+57
          1324.47580	         9.61547e+57
          1325.28210	         1.04534e+58
          1326.08840	         1.09892e+58
          1326.89470	         1.36592e+58
          1327.70100	         1.26778e+58
          1328.50730	         8.80552e+57
          1329.31360	         9.31008e+57
          1330.11990	         9.88900e+57
          1330.92620	         9.32739e+57
          1331.73250	         1.10809e+58
          1332.53880	         1.06315e+58
          1333.34510	         9.64729e+57
          1334.15140	         1.05568e+58
          1334.95770	         1.03247e+58
          1335.76400	         9.34232e+57
          1336.57030	         9.67104e+57
          1337.37660	         1.06937e+58
          1338.18290	         1.18390e+58
          1338.98920	         1.22449e+58
          1339.79550	         1.19204e+58
          1340.60180	         1.08082e+58
          1341.40810	         1.23497e+58
          1342.21440	         1.26084e+58
          1343.02070	         1.13283e+58
          1343.82700	         1.22608e+58
          1344.63330	         1.36797e+58
          1345.43960	         1.30268e+58
          1346.24590	         1.09748e+58
          1347.05220	         1.13663e+58
          1347.85850	         9.47261e+57
          1348.66480	         1.21311e+58
          1349.47110	         1.27393e+58
          1350.27740	         1.28679e+58
          1351.08370	         1.39226e+58
          1351.89000	         1.29558e+58
          1352.69630	         1.17053e+58
          1353.50260	         1.02496e+58
          1354.30890	         1.09417e+58
          1355.11520	         1.25171e+58
          1355.92150	         1.10139e+58
          1356.72780	         1.04044e+58
          1357.53410	         1.00934e+58
          1358.34040	         1.00141e+58
          1359.14670	         1.07961e+58
          1359.95300	         1.17500e+58
          1360.75930	         1.12255e+58
          1361.56560	         9.63530e+57
          1362.37190	         1.18261e+58
          1363.17820	         1.17635e+58
          1363.98450	         1.15797e+58
          1364.79080	         1.41905e+58
          1365.59710	         1.29841e+58
          1366.40340	         1.18882e+58
          1367.20970	         1.13111e+58
          1368.01600	         1.01793e+58
          1368.82230	         7.63314e+57
          1369.62860	         9.40423e+57
          1370.43490	         9.22263e+57
          1371.24120	         1.01485e+58
          1372.04750	         1.06225e+58
          1372.85380	         1.04840e+58
          1373.66010	         1.17250e+58
          1374.46640	         1.14042e+58
          1375.27270	         1.07217e+58
          1376.07900	         9.57756e+57
          1376.88530	         1.02012e+58
          1377.69160	         1.13045e+58
          1378.49790	         7.95272e+57
          1379.30420	         7.29298e+57
          1380.11050	         8.81030e+57
          1380.91680	         8.13623e+57
          1381.72310	         6.05679e+57
          1382.52940	         7.98424e+57
          1383.33570	         1.05201e+58
          1384.14200	         1.05470e+58
          1384.94830	         1.07918e+58
          1385.75460	         1.15121e+58
          1386.56090	         1.13295e+58
          1387.36720	         1.01750e+58
          1388.17350	         1.20880e+58
          1388.97980	         1.14388e+58
          1389.78610	         9.28118e+57
          1390.59240	         7.83769e+57
          1391.39870	         7.07748e+57
          1392.20500	         8.33257e+57
          1393.01130	         8.61222e+57
          1393.81760	         7.65874e+57
          1394.62390	         7.19735e+57
          1395.43020	         6.05201e+57
          1396.23650	         5.98846e+57
          1397.04280	         6.65420e+57
          1397.84910	         9.05034e+57
          1398.65540	         9.77686e+57
          1399.46170	         9.73271e+57
          1400.26800	         8.39819e+57
          1401.07430	         7.32608e+57
          1401.88060	         8.10777e+57
          1402.68690	         1.01014e+58
          1403.49320	         1.01677e+58
          1404.29950	         9.61732e+57
          1405.10580	         1.09093e+58
          1405.91210	         1.22454e+58
          1406.71840	         1.11322e+58
          1407.52470	         9.68118e+57
          1408.33100	         9.55330e+57
          1409.13730	         1.07785e+58
          1409.94360	         1.17927e+58
          1410.74990	         1.17492e+58
          1411.55620	         9.92880e+57
          1412.36250	         9.12398e+57
          1413.16880	         8.50772e+57
          1413.97510	         7.76162e+57
          1414.78140	         8.51439e+57
          1415.58770	         1.07038e+58
          1416.39400	         1.14564e+58
          1417.20030	         1.12767e+58
          1418.00660	         1.13604e+58
          1418.81290	         1.07873e+58
          1419.61920	         1.05652e+58
          1420.42550	         1.24136e+58
          1421.23180	         1.31987e+58
          1422.03810	         1.22799e+58
          1422.84440	         1.17965e+58
          1423.65070	         1.37676e+58
          1424.45700	         1.11684e+58
          1425.26330	         9.21948e+57
          1426.06960	         8.71676e+57
          1426.87590	         8.74638e+57
          1427.68220	         9.60570e+57
          1428.48850	         1.04938e+58
          1429.29480	         9.98951e+57
          1430.10110	         1.00368e+58
          1430.90740	         9.19020e+57
          1431.71370	         8.57299e+57
          1432.52000	         8.72260e+57
          1433.32630	         8.14745e+57
          1434.13260	         7.79042e+57
          1434.93890	         8.10603e+57
          1435.74520	         8.97730e+57
          1436.55150	         9.62931e+57
          1437.35780	         9.05634e+57
          1438.16410	         9.46963e+57
          1438.97040	         1.02712e+58
          1439.77670	         9.43275e+57
          1440.58300	         1.04487e+58
          1441.38930	         1.00986e+58
          1442.19560	         9.24036e+57
          1443.00190	         1.00268e+58
          1443.80820	         1.14591e+58
          1444.61450	         1.03329e+58
          1445.42080	         9.06043e+57
          1446.22710	         9.99916e+57
          1447.03340	         9.48523e+57
          1447.83970	         9.61177e+57
          1448.64600	         1.00515e+58
          1449.45230	         9.41558e+57
          1450.25860	         1.00857e+58
          1451.06490	         9.67343e+57
          1451.87120	         8.08424e+57
          1452.67750	         6.72642e+57
          1453.48380	         8.47599e+57
          1454.29010	         9.00376e+57
          1455.09640	         7.94318e+57
          1455.90270	         9.19658e+57
          1456.70900	         8.87641e+57
          1457.51530	         9.42249e+57
          1458.32160	         1.21725e+58
          1459.12790	         1.14405e+58
          1459.93420	         9.78987e+57
          1460.74050	         7.79115e+57
          1461.54680	         7.37677e+57
          1462.35310	         7.53040e+57
          1463.15940	         9.21161e+57
          1463.96570	         1.16922e+58
          1464.77200	         1.16281e+58
          1465.57830	         9.11440e+57
          1466.38460	         8.01701e+57
          1467.19090	         7.68366e+57
          1467.99720	         7.69651e+57
          1468.80350	         8.33933e+57
          1469.60980	         9.76421e+57
          1470.41610	         1.10928e+58
          1471.22240	         9.43898e+57
          1472.02870	         9.10389e+57
          1472.83500	         1.07027e+58
          1473.64130	         1.04240e+58
          1474.44760	         1.04761e+58
          1475.25390	         9.81648e+57
          1476.06020	         8.99430e+57
          1476.86650	         8.25592e+57
          1477.67280	         7.93770e+57
          1478.47910	         7.50237e+57
          1479.28540	         6.63426e+57
          1480.09170	         7.54811e+57
          1480.89800	         9.12088e+57
          1481.70430	         8.83935e+57
          1482.51060	         7.88092e+57
          1483.31690	         8.10957e+57
          1484.12320	         8.20768e+57
          1484.92950	         7.75917e+57
          1485.73580	         8.63341e+57
          1486.54210	         8.76560e+57
          1487.34840	         8.92579e+57
          1488.15470	         9.07803e+57
          1488.96100	         8.66055e+57
          1489.76730	         9.40420e+57
