#sample_158_stacked_spectrum_rest_UV-bands_median_H-alpha_noDC.txt
#median Lum: 1.69051e+42
#Rest-frame wavelength (A) | Luminosity (erg/s/A)
#
          1110.00000	         0.00000e+00
          1110.80630	         8.26446e+58
          1111.61260	         3.59857e+59
          1112.41890	         1.74782e+59
          1113.22520	         1.17891e+59
          1114.03150	         7.06949e+58
          1114.83780	         1.57871e+59
          1115.64410	        -6.37933e+58
          1116.45040	        -7.36811e+58
          1117.25670	         1.80207e+59
          1118.06300	         5.42643e+58
          1118.86930	         1.01858e+58
          1119.67560	         3.05587e+58
          1120.48190	        -2.64146e+57
          1121.28820	        -1.38067e+59
          1122.09450	        -6.41538e+58
          1122.90080	        -2.95823e+58
          1123.70710	         2.00792e+58
          1124.51340	         8.31710e+58
          1125.31970	        -2.41068e+58
          1126.12600	         1.37587e+58
          1126.93230	        -4.86023e+58
          1127.73860	        -6.50088e+58
          1128.54490	        -3.67688e+58
          1129.35120	         2.03335e+58
          1130.15750	        -3.98225e+58
          1130.96380	        -9.87322e+57
          1131.77010	         6.16687e+58
          1132.57640	         3.76993e+58
          1133.38270	         5.24214e+58
          1134.18900	         2.32261e+58
          1134.99530	         2.32910e+58
          1135.80160	         4.69495e+58
          1136.60790	         3.18358e+58
          1137.41420	        -7.11138e+57
          1138.22050	         3.18509e+58
          1139.02680	         4.12050e+58
          1139.83310	         2.52272e+58
          1140.63940	         1.74542e+58
          1141.44570	         1.85259e+58
          1142.25200	         2.80776e+57
          1143.05830	         2.24645e+58
          1143.86460	         2.64628e+58
          1144.67090	         2.37301e+58
          1145.47720	         1.55848e+58
          1146.28350	         2.22502e+58
          1147.08980	         2.41309e+58
          1147.89610	         1.96277e+58
          1148.70240	         3.05878e+58
          1149.50870	         2.52225e+58
          1150.31500	         3.41821e+57
          1151.12130	         1.16611e+58
          1151.92760	         8.54152e+57
          1152.73390	         2.66224e+57
          1153.54020	        -7.19384e+57
          1154.34650	         2.24065e+58
          1155.15280	         2.42698e+58
          1155.95910	         1.36844e+57
          1156.76540	         1.00788e+58
          1157.57170	         6.38173e+57
          1158.37800	         4.40893e+57
          1159.18430	        -5.13689e+57
          1159.99060	         2.05519e+57
          1160.79690	        -2.26260e+57
          1161.60320	         1.23475e+58
          1162.40950	         1.38969e+58
          1163.21580	         2.02436e+58
          1164.02210	         1.67967e+58
          1164.82840	         6.61908e+57
          1165.63470	         1.91088e+58
          1166.44100	         3.19965e+58
          1167.24730	         2.71049e+58
          1168.05360	         1.01442e+58
          1168.85990	         5.57951e+57
          1169.66620	         1.15291e+58
          1170.47250	         1.09735e+58
          1171.27880	         6.58006e+57
          1172.08510	         1.39032e+58
          1172.89140	         1.51033e+58
          1173.69770	         7.53924e+57
          1174.50400	         1.43505e+58
          1175.31030	         9.48599e+57
          1176.11660	         1.13542e+58
          1176.92290	         1.29306e+58
          1177.72920	         8.03714e+57
          1178.53550	         6.39385e+57
          1179.34180	         6.11899e+57
          1180.14810	         3.55632e+57
          1180.95440	         1.07206e+58
          1181.76070	         1.08541e+58
          1182.56700	         1.36069e+58
          1183.37330	         1.18497e+58
          1184.17960	         1.16635e+58
          1184.98590	         9.34928e+57
          1185.79220	         7.44135e+57
          1186.59850	         1.08499e+58
          1187.40480	         9.83896e+57
          1188.21110	         1.26767e+58
          1189.01740	         1.01386e+58
          1189.82370	         9.80696e+57
          1190.63000	         1.03825e+58
          1191.43630	         1.61660e+58
          1192.24260	         1.31740e+58
          1193.04890	         8.12153e+57
          1193.85520	         4.06975e+57
          1194.66150	         7.39750e+57
          1195.46780	         1.23088e+58
          1196.27410	         1.37499e+58
          1197.08040	         8.56458e+57
          1197.88670	         1.30958e+58
          1198.69300	         1.72600e+58
          1199.49930	         1.58283e+58
          1200.30560	         1.21508e+58
          1201.11190	         1.17005e+58
          1201.91820	         7.99918e+57
          1202.72450	         4.77419e+57
          1203.53080	         1.36226e+58
          1204.33710	         1.11959e+58
          1205.14340	         8.65268e+57
          1205.94970	         5.71777e+57
          1206.75600	         3.56238e+57
          1207.56230	         3.57016e+57
          1208.36860	         8.79454e+57
          1209.17490	         7.50742e+57
          1209.98120	         6.52844e+57
          1210.78750	         8.15457e+57
          1211.59380	         1.15258e+58
          1212.40010	         1.73087e+58
          1213.20640	         2.13750e+58
          1214.01270	         1.85666e+58
          1214.81900	         2.37526e+58
          1215.62530	         4.50950e+58
          1216.43160	         9.02684e+58
          1217.23790	         1.52842e+59
          1218.04420	         1.14413e+59
          1218.85050	         8.92865e+58
          1219.65680	         5.89126e+58
          1220.46310	         3.35975e+58
          1221.26940	         2.19750e+58
          1222.07570	         1.31688e+58
          1222.88200	         1.29411e+58
          1223.68830	         7.85527e+57
          1224.49460	         4.49618e+57
          1225.30090	         6.12887e+57
          1226.10720	         5.82322e+57
          1226.91350	         8.26939e+57
          1227.71980	         1.25624e+58
          1228.52610	         1.39745e+58
          1229.33240	         1.15710e+58
          1230.13870	         9.30038e+57
          1230.94500	         8.33584e+57
          1231.75130	         7.59850e+57
          1232.55760	         8.83851e+57
          1233.36390	         9.94358e+57
          1234.17020	         9.30174e+57
          1234.97650	         5.56500e+57
          1235.78280	         5.51056e+57
          1236.58910	         9.85503e+57
          1237.39540	         1.14920e+58
          1238.20170	         8.07881e+57
          1239.00800	         1.01782e+58
          1239.81430	         1.23980e+58
          1240.62060	         1.04950e+58
          1241.42690	         9.29398e+57
          1242.23320	         9.62051e+57
          1243.03950	         6.31391e+57
          1243.84580	         8.48553e+57
          1244.65210	         1.14133e+58
          1245.45840	         1.12252e+58
          1246.26470	         7.71848e+57
          1247.07100	         6.09245e+57
          1247.87730	         6.36160e+57
          1248.68360	         4.30125e+57
          1249.48990	         6.68975e+57
          1250.29620	         1.07005e+58
          1251.10250	         6.58219e+57
          1251.90880	         4.12748e+57
          1252.71510	         4.45022e+57
          1253.52140	         5.64948e+57
          1254.32770	         1.00495e+58
          1255.13400	         1.16031e+58
          1255.94030	         1.18524e+58
          1256.74660	         1.11905e+58
          1257.55290	         9.85971e+57
          1258.35920	         9.34739e+57
          1259.16550	         8.21825e+57
          1259.97180	         4.17207e+57
          1260.77810	         6.85889e+57
          1261.58440	         9.40315e+57
          1262.39070	         7.91030e+57
          1263.19700	         8.06445e+57
          1264.00330	         9.07953e+57
          1264.80960	         9.88284e+57
          1265.61590	         1.17105e+58
          1266.42220	         1.15307e+58
          1267.22850	         1.21036e+58
          1268.03480	         1.45754e+58
          1268.84110	         1.49051e+58
          1269.64740	         1.34093e+58
          1270.45370	         1.25369e+58
          1271.26000	         1.01419e+58
          1272.06630	         1.08798e+58
          1272.87260	         1.08488e+58
          1273.67890	         1.07047e+58
          1274.48520	         1.21749e+58
          1275.29150	         1.13859e+58
          1276.09780	         1.01769e+58
          1276.90410	         1.48970e+58
          1277.71040	         1.45772e+58
          1278.51670	         1.24157e+58
          1279.32300	         1.33627e+58
          1280.12930	         1.27379e+58
          1280.93560	         1.15171e+58
          1281.74190	         1.38648e+58
          1282.54820	         1.40554e+58
          1283.35450	         1.11554e+58
          1284.16080	         8.59914e+57
          1284.96710	         1.04184e+58
          1285.77340	         1.06519e+58
          1286.57970	         9.65202e+57
          1287.38600	         1.46765e+58
          1288.19230	         1.88511e+58
          1288.99860	         1.61307e+58
          1289.80490	         1.06008e+58
          1290.61120	         1.43000e+58
          1291.41750	         1.60195e+58
          1292.22380	         1.30757e+58
          1293.03010	         1.04970e+58
          1293.83640	         1.14110e+58
          1294.64270	         1.12669e+58
          1295.44900	         5.89887e+57
          1296.25530	         6.35566e+57
          1297.06160	         1.03712e+58
          1297.86790	         1.16760e+58
          1298.67420	         1.00603e+58
          1299.48050	         9.44208e+57
          1300.28680	         1.06336e+58
          1301.09310	         8.04184e+57
          1301.89940	         2.65276e+57
          1302.70570	         5.11746e+57
          1303.51200	         8.51008e+57
          1304.31830	         9.83579e+57
          1305.12460	         1.01010e+58
          1305.93090	         9.61334e+57
          1306.73720	         1.18162e+58
          1307.54350	         1.30669e+58
          1308.34980	         1.36463e+58
          1309.15610	         1.49067e+58
          1309.96240	         1.53281e+58
          1310.76870	         1.02814e+58
          1311.57500	         8.45933e+57
          1312.38130	         1.13310e+58
          1313.18760	         1.42945e+58
          1313.99390	         1.58927e+58
          1314.80020	         1.64529e+58
          1315.60650	         1.54321e+58
          1316.41280	         1.28219e+58
          1317.21910	         1.20419e+58
          1318.02540	         1.28910e+58
          1318.83170	         1.32802e+58
          1319.63800	         1.13047e+58
          1320.44430	         1.15511e+58
          1321.25060	         1.15881e+58
          1322.05690	         1.18088e+58
          1322.86320	         1.12903e+58
          1323.66950	         1.02162e+58
          1324.47580	         7.52960e+57
          1325.28210	         8.98212e+57
          1326.08840	         1.15955e+58
          1326.89470	         1.28099e+58
          1327.70100	         1.13332e+58
          1328.50730	         9.48023e+57
          1329.31360	         9.24919e+57
          1330.11990	         9.11586e+57
          1330.92620	         8.11836e+57
          1331.73250	         1.00162e+58
          1332.53880	         9.38792e+57
          1333.34510	         8.32121e+57
          1334.15140	         8.56962e+57
          1334.95770	         8.35645e+57
          1335.76400	         9.87796e+57
          1336.57030	         1.04611e+58
          1337.37660	         1.05544e+58
          1338.18290	         1.00796e+58
          1338.98920	         1.06917e+58
          1339.79550	         1.10020e+58
          1340.60180	         1.20053e+58
          1341.40810	         1.44116e+58
          1342.21440	         1.21464e+58
          1343.02070	         1.01025e+58
          1343.82700	         1.20698e+58
          1344.63330	         1.33805e+58
          1345.43960	         1.31201e+58
          1346.24590	         1.14834e+58
          1347.05220	         1.14166e+58
          1347.85850	         9.25223e+57
          1348.66480	         1.04421e+58
          1349.47110	         1.27648e+58
          1350.27740	         1.32995e+58
          1351.08370	         1.25409e+58
          1351.89000	         1.17238e+58
          1352.69630	         1.00930e+58
          1353.50260	         9.22373e+57
          1354.30890	         1.07091e+58
          1355.11520	         1.04283e+58
          1355.92150	         1.10315e+58
          1356.72780	         1.17389e+58
          1357.53410	         1.03167e+58
          1358.34040	         1.11536e+58
          1359.14670	         1.16976e+58
          1359.95300	         1.13040e+58
          1360.75930	         1.08169e+58
          1361.56560	         1.02386e+58
          1362.37190	         9.78457e+57
          1363.17820	         9.19147e+57
          1363.98450	         1.12976e+58
          1364.79080	         1.33884e+58
          1365.59710	         1.35684e+58
          1366.40340	         1.20575e+58
          1367.20970	         1.01217e+58
          1368.01600	         9.04951e+57
          1368.82230	         9.28034e+57
          1369.62860	         1.03438e+58
          1370.43490	         8.88353e+57
          1371.24120	         8.97202e+57
          1372.04750	         6.53419e+57
          1372.85380	         8.46130e+57
          1373.66010	         1.03315e+58
          1374.46640	         1.05488e+58
          1375.27270	         1.01886e+58
          1376.07900	         8.41874e+57
          1376.88530	         8.10533e+57
          1377.69160	         7.01953e+57
          1378.49790	         6.09708e+57
          1379.30420	         8.95205e+57
          1380.11050	         1.03340e+58
          1380.91680	         7.79489e+57
          1381.72310	         6.54368e+57
          1382.52940	         7.74918e+57
          1383.33570	         8.82198e+57
          1384.14200	         1.06170e+58
          1384.94830	         1.10688e+58
          1385.75460	         1.12198e+58
          1386.56090	         1.05227e+58
          1387.36720	         1.04099e+58
          1388.17350	         1.26209e+58
          1388.97980	         1.14256e+58
          1389.78610	         8.23110e+57
          1390.59240	         7.28096e+57
          1391.39870	         8.08792e+57
          1392.20500	         8.59320e+57
          1393.01130	         7.73410e+57
          1393.81760	         8.15834e+57
          1394.62390	         7.14266e+57
          1395.43020	         5.26857e+57
          1396.23650	         5.31706e+57
          1397.04280	         6.56588e+57
          1397.84910	         8.24210e+57
          1398.65540	         8.16215e+57
          1399.46170	         9.07099e+57
          1400.26800	         8.08822e+57
          1401.07430	         7.69631e+57
          1401.88060	         8.30565e+57
          1402.68690	         8.86740e+57
          1403.49320	         9.58649e+57
          1404.29950	         9.38988e+57
          1405.10580	         9.52214e+57
          1405.91210	         1.11063e+58
          1406.71840	         1.08197e+58
          1407.52470	         9.66818e+57
          1408.33100	         9.95592e+57
          1409.13730	         1.05392e+58
          1409.94360	         1.17511e+58
          1410.74990	         1.19911e+58
          1411.55620	         1.09265e+58
          1412.36250	         9.75323e+57
          1413.16880	         8.25549e+57
          1413.97510	         7.48256e+57
          1414.78140	         9.84019e+57
          1415.58770	         1.09042e+58
          1416.39400	         9.91225e+57
          1417.20030	         1.04681e+58
          1418.00660	         8.95296e+57
          1418.81290	         9.74310e+57
          1419.61920	         1.02415e+58
          1420.42550	         1.20212e+58
          1421.23180	         1.28646e+58
          1422.03810	         1.14711e+58
          1422.84440	         1.09682e+58
          1423.65070	         1.24878e+58
          1424.45700	         1.11908e+58
          1425.26330	         8.08535e+57
          1426.06960	         8.48751e+57
          1426.87590	         9.33219e+57
          1427.68220	         9.06797e+57
          1428.48850	         1.08350e+58
          1429.29480	         1.09687e+58
          1430.10110	         1.05185e+58
          1430.90740	         8.39566e+57
          1431.71370	         8.05646e+57
          1432.52000	         8.23142e+57
          1433.32630	         7.60012e+57
          1434.13260	         8.07815e+57
          1434.93890	         8.37280e+57
          1435.74520	         8.85452e+57
          1436.55150	         8.76942e+57
          1437.35780	         9.27776e+57
          1438.16410	         9.52488e+57
          1438.97040	         8.87283e+57
          1439.77670	         8.83635e+57
          1440.58300	         9.73902e+57
          1441.38930	         9.24634e+57
          1442.19560	         9.00768e+57
          1443.00190	         9.69360e+57
          1443.80820	         1.01646e+58
          1444.61450	         8.63971e+57
          1445.42080	         7.78826e+57
          1446.22710	         9.14132e+57
          1447.03340	         9.26371e+57
          1447.83970	         1.00744e+58
          1448.64600	         1.11068e+58
          1449.45230	         1.01909e+58
          1450.25860	         1.01557e+58
          1451.06490	         8.62595e+57
          1451.87120	         7.11687e+57
          1452.67750	         7.04435e+57
          1453.48380	         7.41587e+57
          1454.29010	         6.99107e+57
          1455.09640	         6.81431e+57
          1455.90270	         8.25044e+57
          1456.70900	         8.77346e+57
          1457.51530	         1.03879e+58
          1458.32160	         1.20303e+58
          1459.12790	         1.13823e+58
          1459.93420	         9.27189e+57
          1460.74050	         7.78791e+57
          1461.54680	         8.92848e+57
          1462.35310	         8.08740e+57
          1463.15940	         9.20194e+57
          1463.96570	         1.03032e+58
          1464.77200	         1.07741e+58
          1465.57830	         1.09720e+58
          1466.38460	         1.00580e+58
          1467.19090	         8.78040e+57
          1467.99720	         8.99531e+57
          1468.80350	         9.48762e+57
          1469.60980	         9.40618e+57
          1470.41610	         1.08602e+58
          1471.22240	         1.05497e+58
          1472.02870	         1.03153e+58
          1472.83500	         9.57618e+57
          1473.64130	         9.24417e+57
          1474.44760	         9.09264e+57
          1475.25390	         8.56080e+57
          1476.06020	         7.88849e+57
          1476.86650	         8.12675e+57
          1477.67280	         9.15783e+57
          1478.47910	         7.48938e+57
          1479.28540	         6.84113e+57
          1480.09170	         7.54358e+57
          1480.89800	         6.94512e+57
          1481.70430	         8.47524e+57
          1482.51060	         8.00767e+57
          1483.31690	         7.40827e+57
          1484.12320	         7.22999e+57
          1484.92950	         6.63829e+57
          1485.73580	         7.75115e+57
          1486.54210	         8.49200e+57
          1487.34840	         8.51743e+57
          1488.15470	         9.29057e+57
          1488.96100	         9.31384e+57
          1489.76730	         9.24119e+57
