#sample_478_stacked_spectrum_rest_UV-bands_median_H-alpha_noDC.txt
#median Lum: 1.71689e+42
#Rest-frame wavelength (A) | Luminosity (erg/s/A)
#
          1110.00000	         0.00000e+00
          1110.80630	        -8.74043e+58
          1111.61260	         1.12613e+59
          1112.41890	         5.80550e+57
          1113.22520	        -1.68728e+59
          1114.03150	        -2.31666e+59
          1114.83780	         6.94901e+58
          1115.64410	         5.78919e+58
          1116.45040	         1.87182e+59
          1117.25670	         1.60952e+59
          1118.06300	         1.72332e+59
          1118.86930	         1.04170e+58
          1119.67560	         6.34414e+58
          1120.48190	         5.94299e+58
          1121.28820	        -1.20315e+59
          1122.09450	        -4.87138e+58
          1122.90080	        -1.77756e+58
          1123.70710	         4.38475e+57
          1124.51340	         7.52745e+58
          1125.31970	         4.26062e+58
          1126.12600	         1.20529e+58
          1126.93230	        -3.27575e+58
          1127.73860	        -6.39776e+58
          1128.54490	         1.35432e+58
          1129.35120	         1.52201e+58
          1130.15750	        -3.14263e+58
          1130.96380	        -2.44012e+58
          1131.77010	         5.54478e+58
          1132.57640	         4.78934e+58
          1133.38270	         3.04933e+58
          1134.18900	         5.25794e+58
          1134.99530	        -9.28070e+57
          1135.80160	        -1.67995e+58
          1136.60790	         6.94345e+57
          1137.41420	        -3.99288e+57
          1138.22050	         2.81331e+58
          1139.02680	         4.04570e+58
          1139.83310	         3.59621e+58
          1140.63940	         2.32582e+58
          1141.44570	         4.70514e+57
          1142.25200	         3.17385e+57
          1143.05830	         1.87184e+58
          1143.86460	         3.71240e+58
          1144.67090	         2.02889e+58
          1145.47720	         2.49249e+58
          1146.28350	         2.20871e+58
          1147.08980	         2.10516e+58
          1147.89610	         2.27405e+58
          1148.70240	         2.97965e+58
          1149.50870	         1.71995e+58
          1150.31500	         1.15706e+58
          1151.12130	         3.30006e+57
          1151.92760	        -5.18984e+56
          1152.73390	         1.21400e+58
          1153.54020	         4.19417e+57
          1154.34650	         1.84653e+58
          1155.15280	         2.06279e+58
          1155.95910	         1.74048e+57
          1156.76540	         8.14959e+56
          1157.57170	         7.22556e+57
          1158.37800	         2.62097e+57
          1159.18430	        -5.76252e+56
          1159.99060	         2.16062e+57
          1160.79690	        -8.19714e+56
          1161.60320	         4.18642e+57
          1162.40950	         1.09798e+58
          1163.21580	         1.61067e+58
          1164.02210	         9.90656e+57
          1164.82840	         1.57513e+58
          1165.63470	         2.06578e+58
          1166.44100	         1.90909e+58
          1167.24730	         1.87207e+58
          1168.05360	         9.71565e+57
          1168.85990	         7.66753e+57
          1169.66620	         1.18055e+58
          1170.47250	         6.26058e+57
          1171.27880	         6.93684e+57
          1172.08510	         1.34684e+58
          1172.89140	         5.44047e+57
          1173.69770	         6.35984e+57
          1174.50400	         9.78792e+57
          1175.31030	         1.92736e+58
          1176.11660	         1.92376e+58
          1176.92290	         1.63029e+58
          1177.72920	         9.60688e+57
          1178.53550	         5.55048e+57
          1179.34180	         4.63080e+57
          1180.14810	         5.64521e+57
          1180.95440	         6.26487e+57
          1181.76070	         6.20147e+57
          1182.56700	         7.19672e+57
          1183.37330	         6.45049e+57
          1184.17960	         1.34393e+58
          1184.98590	         1.82821e+58
          1185.79220	         9.69855e+57
          1186.59850	         1.42254e+58
          1187.40480	         6.96334e+57
          1188.21110	         9.72222e+57
          1189.01740	         1.21722e+58
          1189.82370	         1.28016e+58
          1190.63000	         1.32757e+58
          1191.43630	         1.46779e+58
          1192.24260	         8.92879e+57
          1193.04890	         7.68516e+57
          1193.85520	         4.85252e+57
          1194.66150	         1.88278e+56
          1195.46780	         7.38891e+57
          1196.27410	         1.77779e+58
          1197.08040	         1.34722e+58
          1197.88670	         1.45895e+58
          1198.69300	         1.61268e+58
          1199.49930	         1.70224e+58
          1200.30560	         9.05807e+57
          1201.11190	         1.11317e+58
          1201.91820	         1.20641e+58
          1202.72450	         1.17058e+58
          1203.53080	         1.00531e+58
          1204.33710	         7.10481e+57
          1205.14340	         1.10369e+58
          1205.94970	         7.86590e+57
          1206.75600	         1.17844e+58
          1207.56230	         5.37730e+57
          1208.36860	         8.24721e+57
          1209.17490	         6.19737e+57
          1209.98120	         5.25883e+57
          1210.78750	         8.09610e+57
          1211.59380	         1.29608e+58
          1212.40010	         1.80240e+58
          1213.20640	         2.02350e+58
          1214.01270	         1.73755e+58
          1214.81900	         2.38122e+58
          1215.62530	         4.39471e+58
          1216.43160	         8.97363e+58
          1217.23790	         1.52436e+59
          1218.04420	         1.19424e+59
          1218.85050	         8.91312e+58
          1219.65680	         5.59031e+58
          1220.46310	         2.80443e+58
          1221.26940	         2.12025e+58
          1222.07570	         1.91923e+58
          1222.88200	         1.56102e+58
          1223.68830	         1.08913e+58
          1224.49460	         8.69013e+57
          1225.30090	         9.51411e+57
          1226.10720	         5.94526e+57
          1226.91350	         6.16874e+57
          1227.71980	         1.02847e+58
          1228.52610	         1.23284e+58
          1229.33240	         1.26631e+58
          1230.13870	         1.26830e+58
          1230.94500	         1.09197e+58
          1231.75130	         8.80462e+57
          1232.55760	         9.24359e+57
          1233.36390	         8.56850e+57
          1234.17020	         8.41809e+57
          1234.97650	         8.22958e+57
          1235.78280	         7.45323e+57
          1236.58910	         8.28681e+57
          1237.39540	         9.86512e+57
          1238.20170	         9.17149e+57
          1239.00800	         1.21167e+58
          1239.81430	         1.72661e+58
          1240.62060	         1.27381e+58
          1241.42690	         9.44727e+57
          1242.23320	         1.12204e+58
          1243.03950	         9.33570e+57
          1243.84580	         1.02239e+58
          1244.65210	         1.14960e+58
          1245.45840	         1.16728e+58
          1246.26470	         9.88467e+57
          1247.07100	         7.00822e+57
          1247.87730	         5.11656e+57
          1248.68360	         5.27558e+57
          1249.48990	         1.01704e+58
          1250.29620	         1.09573e+58
          1251.10250	         6.51274e+57
          1251.90880	         3.02137e+57
          1252.71510	         5.21292e+57
          1253.52140	         6.74490e+57
          1254.32770	         1.12177e+58
          1255.13400	         1.31667e+58
          1255.94030	         1.12376e+58
          1256.74660	         1.05521e+58
          1257.55290	         1.16463e+58
          1258.35920	         1.05592e+58
          1259.16550	         5.91443e+57
          1259.97180	         5.27154e+57
          1260.77810	         6.40664e+57
          1261.58440	         7.66071e+57
          1262.39070	         5.40443e+57
          1263.19700	         7.63980e+57
          1264.00330	         1.05628e+58
          1264.80960	         1.15826e+58
          1265.61590	         1.28525e+58
          1266.42220	         1.21451e+58
          1267.22850	         1.00756e+58
          1268.03480	         1.12363e+58
          1268.84110	         1.30530e+58
          1269.64740	         1.51968e+58
          1270.45370	         1.66037e+58
          1271.26000	         1.23717e+58
          1272.06630	         1.15973e+58
          1272.87260	         1.31610e+58
          1273.67890	         1.31276e+58
          1274.48520	         1.21654e+58
          1275.29150	         1.30954e+58
          1276.09780	         1.19615e+58
          1276.90410	         1.57078e+58
          1277.71040	         1.50043e+58
          1278.51670	         1.06316e+58
          1279.32300	         1.23643e+58
          1280.12930	         1.22716e+58
          1280.93560	         1.13663e+58
          1281.74190	         1.28738e+58
          1282.54820	         1.34933e+58
          1283.35450	         1.20832e+58
          1284.16080	         1.19005e+58
          1284.96710	         1.40128e+58
          1285.77340	         1.27287e+58
          1286.57970	         1.24266e+58
          1287.38600	         1.48344e+58
          1288.19230	         1.80969e+58
          1288.99860	         1.61515e+58
          1289.80490	         1.22470e+58
          1290.61120	         1.21722e+58
          1291.41750	         1.28830e+58
          1292.22380	         1.25304e+58
          1293.03010	         1.34352e+58
          1293.83640	         1.26590e+58
          1294.64270	         8.91431e+57
          1295.44900	         5.95504e+57
          1296.25530	         7.99291e+57
          1297.06160	         1.05314e+58
          1297.86790	         1.17319e+58
          1298.67420	         1.07711e+58
          1299.48050	         1.19898e+58
          1300.28680	         1.12351e+58
          1301.09310	         7.38617e+57
          1301.89940	         5.54172e+57
          1302.70570	         7.88421e+57
          1303.51200	         9.60114e+57
          1304.31830	         1.14308e+58
          1305.12460	         1.33955e+58
          1305.93090	         1.39774e+58
          1306.73720	         1.32756e+58
          1307.54350	         1.44229e+58
          1308.34980	         1.54049e+58
          1309.15610	         1.61958e+58
          1309.96240	         1.64138e+58
          1310.76870	         1.57813e+58
          1311.57500	         1.35555e+58
          1312.38130	         1.21727e+58
          1313.18760	         1.26365e+58
          1313.99390	         1.60365e+58
          1314.80020	         1.70964e+58
          1315.60650	         1.51268e+58
          1316.41280	         1.29680e+58
          1317.21910	         1.30016e+58
          1318.02540	         1.60809e+58
          1318.83170	         1.38442e+58
          1319.63800	         1.14256e+58
          1320.44430	         1.20017e+58
          1321.25060	         1.23516e+58
          1322.05690	         1.27547e+58
          1322.86320	         1.11533e+58
          1323.66950	         1.09465e+58
          1324.47580	         1.12818e+58
          1325.28210	         1.16125e+58
          1326.08840	         1.23597e+58
          1326.89470	         1.34522e+58
          1327.70100	         1.14763e+58
          1328.50730	         7.22136e+57
          1329.31360	         9.73501e+57
          1330.11990	         1.10219e+58
          1330.92620	         8.95782e+57
          1331.73250	         9.98376e+57
          1332.53880	         1.04201e+58
          1333.34510	         9.59491e+57
          1334.15140	         9.18610e+57
          1334.95770	         9.18251e+57
          1335.76400	         1.14884e+58
          1336.57030	         1.22523e+58
          1337.37660	         1.17454e+58
          1338.18290	         1.18720e+58
          1338.98920	         1.18111e+58
          1339.79550	         1.20101e+58
          1340.60180	         1.26284e+58
          1341.40810	         1.50168e+58
          1342.21440	         1.30452e+58
          1343.02070	         1.19055e+58
          1343.82700	         1.34429e+58
          1344.63330	         1.28395e+58
          1345.43960	         1.40552e+58
          1346.24590	         1.16427e+58
          1347.05220	         1.09710e+58
          1347.85850	         9.36685e+57
          1348.66480	         1.08476e+58
          1349.47110	         1.19042e+58
          1350.27740	         1.06017e+58
          1351.08370	         1.17556e+58
          1351.89000	         1.27349e+58
          1352.69630	         1.42536e+58
          1353.50260	         1.47285e+58
          1354.30890	         1.40959e+58
          1355.11520	         1.33042e+58
          1355.92150	         1.28231e+58
          1356.72780	         1.12500e+58
          1357.53410	         1.05524e+58
          1358.34040	         1.05936e+58
          1359.14670	         9.79860e+57
          1359.95300	         1.16292e+58
          1360.75930	         1.29548e+58
          1361.56560	         1.05965e+58
          1362.37190	         1.03080e+58
          1363.17820	         1.14042e+58
          1363.98450	         1.32258e+58
          1364.79080	         1.26999e+58
          1365.59710	         1.39477e+58
          1366.40340	         1.33786e+58
          1367.20970	         1.07062e+58
          1368.01600	         8.92412e+57
          1368.82230	         8.57326e+57
          1369.62860	         9.28251e+57
          1370.43490	         9.04038e+57
          1371.24120	         9.61162e+57
          1372.04750	         7.58935e+57
          1372.85380	         9.60978e+57
          1373.66010	         1.07172e+58
          1374.46640	         1.20192e+58
          1375.27270	         1.25438e+58
          1376.07900	         1.00584e+58
          1376.88530	         9.64136e+57
          1377.69160	         9.13921e+57
          1378.49790	         7.81283e+57
          1379.30420	         7.66446e+57
          1380.11050	         9.53051e+57
          1380.91680	         9.37496e+57
          1381.72310	         7.50689e+57
          1382.52940	         8.54477e+57
          1383.33570	         1.07938e+58
          1384.14200	         1.12885e+58
          1384.94830	         1.16409e+58
          1385.75460	         1.11878e+58
          1386.56090	         1.20222e+58
          1387.36720	         1.19345e+58
          1388.17350	         1.28120e+58
          1388.97980	         1.22486e+58
          1389.78610	         1.07906e+58
          1390.59240	         9.24967e+57
          1391.39870	         8.38080e+57
          1392.20500	         8.89404e+57
          1393.01130	         7.47946e+57
          1393.81760	         7.40158e+57
          1394.62390	         8.91939e+57
          1395.43020	         8.24410e+57
          1396.23650	         6.82828e+57
          1397.04280	         7.72076e+57
          1397.84910	         9.80075e+57
          1398.65540	         9.77846e+57
          1399.46170	         9.26013e+57
          1400.26800	         8.10296e+57
          1401.07430	         8.33972e+57
          1401.88060	         1.01775e+58
          1402.68690	         1.09223e+58
          1403.49320	         9.75950e+57
          1404.29950	         9.54784e+57
          1405.10580	         9.79712e+57
          1405.91210	         1.12085e+58
          1406.71840	         1.23823e+58
          1407.52470	         1.22003e+58
          1408.33100	         1.11857e+58
          1409.13730	         1.20865e+58
          1409.94360	         1.20323e+58
          1410.74990	         1.06395e+58
          1411.55620	         1.00069e+58
          1412.36250	         9.32081e+57
          1413.16880	         8.88305e+57
          1413.97510	         7.53778e+57
          1414.78140	         6.70212e+57
          1415.58770	         8.20342e+57
          1416.39400	         9.58135e+57
          1417.20030	         1.04513e+58
          1418.00660	         1.07567e+58
          1418.81290	         1.05126e+58
          1419.61920	         1.15386e+58
          1420.42550	         1.25782e+58
          1421.23180	         1.38358e+58
          1422.03810	         1.22608e+58
          1422.84440	         1.00775e+58
          1423.65070	         1.22079e+58
          1424.45700	         1.22537e+58
          1425.26330	         9.64482e+57
          1426.06960	         9.04179e+57
          1426.87590	         1.14584e+58
          1427.68220	         1.08413e+58
          1428.48850	         1.03105e+58
          1429.29480	         1.01780e+58
          1430.10110	         1.05276e+58
          1430.90740	         9.58049e+57
          1431.71370	         9.53012e+57
          1432.52000	         9.90689e+57
          1433.32630	         8.00002e+57
          1434.13260	         7.44868e+57
          1434.93890	         8.69755e+57
          1435.74520	         9.24919e+57
          1436.55150	         8.64367e+57
          1437.35780	         8.72425e+57
          1438.16410	         9.67906e+57
          1438.97040	         1.01538e+58
          1439.77670	         9.57004e+57
          1440.58300	         1.08421e+58
          1441.38930	         1.03759e+58
          1442.19560	         1.02950e+58
          1443.00190	         9.68076e+57
          1443.80820	         1.02223e+58
          1444.61450	         1.02225e+58
          1445.42080	         1.00314e+58
          1446.22710	         1.16747e+58
          1447.03340	         1.01211e+58
          1447.83970	         1.00829e+58
          1448.64600	         1.05135e+58
          1449.45230	         9.99061e+57
          1450.25860	         1.02332e+58
          1451.06490	         8.95532e+57
          1451.87120	         6.96929e+57
          1452.67750	         6.32671e+57
          1453.48380	         8.79322e+57
          1454.29010	         7.42537e+57
          1455.09640	         6.92480e+57
          1455.90270	         8.98644e+57
          1456.70900	         8.54793e+57
          1457.51530	         1.12845e+58
          1458.32160	         1.34378e+58
          1459.12790	         1.20163e+58
          1459.93420	         1.17995e+58
          1460.74050	         8.78781e+57
          1461.54680	         8.14902e+57
          1462.35310	         8.12233e+57
          1463.15940	         9.52332e+57
          1463.96570	         1.15060e+58
          1464.77200	         1.20661e+58
          1465.57830	         1.06527e+58
          1466.38460	         1.09490e+58
          1467.19090	         1.02719e+58
          1467.99720	         8.76209e+57
          1468.80350	         1.00572e+58
          1469.60980	         1.13004e+58
          1470.41610	         1.16613e+58
          1471.22240	         1.01446e+58
          1472.02870	         9.24748e+57
          1472.83500	         8.81434e+57
          1473.64130	         8.91742e+57
          1474.44760	         1.01049e+58
          1475.25390	         9.51848e+57
          1476.06020	         8.55107e+57
          1476.86650	         8.84498e+57
          1477.67280	         7.78416e+57
          1478.47910	         7.52477e+57
          1479.28540	         8.23366e+57
          1480.09170	         8.92096e+57
          1480.89800	         9.71375e+57
          1481.70430	         1.05719e+58
          1482.51060	         1.03042e+58
          1483.31690	         8.34356e+57
          1484.12320	         8.67070e+57
          1484.92950	         8.01969e+57
          1485.73580	         8.12370e+57
          1486.54210	         8.59410e+57
          1487.34840	         9.23724e+57
          1488.15470	         8.34633e+57
          1488.96100	         8.72976e+57
          1489.76730	         9.34983e+57
