#sample_136_stacked_spectrum_rest_UV-bands_median_H-alpha_noDC.txt
#median Lum: 1.69039e+42
#Rest-frame wavelength (A) | Luminosity (erg/s/A)
#
          1110.00000	         0.00000e+00
          1110.80630	         1.17553e+59
          1111.61260	         1.19790e+59
          1112.41890	        -3.51532e+58
          1113.22520	        -4.79897e+58
          1114.03150	        -6.74055e+58
          1114.83780	         2.87178e+59
          1115.64410	         1.02329e+59
          1116.45040	         1.76143e+59
          1117.25670	         5.21816e+58
          1118.06300	         2.19520e+59
          1118.86930	         2.25213e+58
          1119.67560	         1.02811e+59
          1120.48190	         5.85875e+58
          1121.28820	        -6.27692e+58
          1122.09450	         8.10596e+57
          1122.90080	        -1.09272e+59
          1123.70710	         6.18321e+58
          1124.51340	         7.54649e+58
          1125.31970	        -1.88967e+58
          1126.12600	         7.46749e+58
          1126.93230	        -6.53404e+58
          1127.73860	        -8.91043e+58
          1128.54490	         7.77125e+57
          1129.35120	        -2.14865e+58
          1130.15750	        -3.03735e+58
          1130.96380	        -3.22082e+58
          1131.77010	         4.55049e+58
          1132.57640	         2.89902e+58
          1133.38270	         4.71203e+58
          1134.18900	         2.19369e+58
          1134.99530	         3.37868e+58
          1135.80160	        -5.44942e+56
          1136.60790	        -1.34948e+58
          1137.41420	         8.32200e+57
          1138.22050	         4.05754e+58
          1139.02680	         3.02408e+58
          1139.83310	         1.78459e+57
          1140.63940	         1.81895e+58
          1141.44570	        -1.35193e+58
          1142.25200	        -5.17283e+57
          1143.05830	         3.35720e+58
          1143.86460	         4.21768e+58
          1144.67090	         1.31102e+58
          1145.47720	         1.09022e+58
          1146.28350	         1.79946e+58
          1147.08980	         1.33319e+58
          1147.89610	         2.51878e+58
          1148.70240	         3.75386e+58
          1149.50870	         1.85121e+58
          1150.31500	         8.41792e+56
          1151.12130	         5.71097e+57
          1151.92760	         1.28552e+58
          1152.73390	         5.17311e+57
          1153.54020	         8.59311e+57
          1154.34650	         2.80651e+58
          1155.15280	         1.21818e+58
          1155.95910	         1.10702e+58
          1156.76540	         4.03729e+57
          1157.57170	         1.90199e+57
          1158.37800	         8.37587e+56
          1159.18430	        -8.77941e+56
          1159.99060	         3.82151e+57
          1160.79690	        -1.92867e+57
          1161.60320	         1.13740e+58
          1162.40950	         1.79006e+58
          1163.21580	         2.43789e+57
          1164.02210	         7.71303e+57
          1164.82840	         5.44058e+57
          1165.63470	         1.82533e+58
          1166.44100	         3.32577e+58
          1167.24730	         2.04395e+58
          1168.05360	         1.15718e+58
          1168.85990	         2.89437e+57
          1169.66620	         1.06147e+58
          1170.47250	         1.53686e+58
          1171.27880	         1.31121e+58
          1172.08510	         1.55975e+58
          1172.89140	         1.05444e+58
          1173.69770	         9.31161e+57
          1174.50400	         1.02726e+58
          1175.31030	         1.29027e+58
          1176.11660	         1.39153e+58
          1176.92290	         1.54355e+58
          1177.72920	         1.09817e+58
          1178.53550	         9.47613e+57
          1179.34180	         6.66926e+57
          1180.14810	         2.92551e+57
          1180.95440	         8.39561e+57
          1181.76070	         8.69103e+57
          1182.56700	         8.72943e+57
          1183.37330	         8.25941e+57
          1184.17960	         1.00875e+58
          1184.98590	         1.15236e+58
          1185.79220	         9.15441e+57
          1186.59850	         1.04783e+58
          1187.40480	         5.67505e+57
          1188.21110	         1.41500e+58
          1189.01740	         1.46778e+58
          1189.82370	         1.17115e+58
          1190.63000	         1.48948e+58
          1191.43630	         1.12909e+58
          1192.24260	         9.57653e+57
          1193.04890	         1.24593e+58
          1193.85520	         1.15177e+58
          1194.66150	         2.46607e+57
          1195.46780	         9.69321e+57
          1196.27410	         1.80977e+58
          1197.08040	         1.10428e+58
          1197.88670	         1.31003e+58
          1198.69300	         1.63825e+58
          1199.49930	         1.96232e+58
          1200.30560	         1.49663e+58
          1201.11190	         1.10800e+58
          1201.91820	         1.12015e+58
          1202.72450	         9.22427e+57
          1203.53080	         1.11746e+58
          1204.33710	         8.87966e+57
          1205.14340	         1.02690e+58
          1205.94970	         5.66989e+57
          1206.75600	         7.53831e+57
          1207.56230	         3.46999e+57
          1208.36860	         8.35533e+57
          1209.17490	         4.81333e+57
          1209.98120	         6.93553e+57
          1210.78750	         5.81430e+57
          1211.59380	         1.25543e+58
          1212.40010	         1.82944e+58
          1213.20640	         2.26598e+58
          1214.01270	         2.12447e+58
          1214.81900	         2.62918e+58
          1215.62530	         4.59828e+58
          1216.43160	         9.16377e+58
          1217.23790	         1.49897e+59
          1218.04420	         1.11865e+59
          1218.85050	         8.97974e+58
          1219.65680	         6.03762e+58
          1220.46310	         3.46797e+58
          1221.26940	         2.36280e+58
          1222.07570	         1.35225e+58
          1222.88200	         1.15614e+58
          1223.68830	         1.24215e+58
          1224.49460	         9.54876e+57
          1225.30090	         7.01312e+57
          1226.10720	         7.11648e+57
          1226.91350	         8.63073e+57
          1227.71980	         8.17899e+57
          1228.52610	         1.30780e+58
          1229.33240	         1.04400e+58
          1230.13870	         9.63733e+57
          1230.94500	         9.50445e+57
          1231.75130	         4.35657e+57
          1232.55760	         6.51949e+57
          1233.36390	         9.46471e+57
          1234.17020	         9.46852e+57
          1234.97650	         9.22280e+57
          1235.78280	         1.00181e+58
          1236.58910	         8.78208e+57
          1237.39540	         8.53285e+57
          1238.20170	         8.33576e+57
          1239.00800	         1.35447e+58
          1239.81430	         1.80135e+58
          1240.62060	         1.17254e+58
          1241.42690	         1.00175e+58
          1242.23320	         1.27315e+58
          1243.03950	         7.60876e+57
          1243.84580	         8.97919e+57
          1244.65210	         1.30940e+58
          1245.45840	         9.94146e+57
          1246.26470	         7.56069e+57
          1247.07100	         6.44260e+57
          1247.87730	         5.12976e+57
          1248.68360	         2.90024e+57
          1249.48990	         5.91523e+57
          1250.29620	         1.07506e+58
          1251.10250	         7.17551e+57
          1251.90880	         4.05914e+57
          1252.71510	         7.82817e+57
          1253.52140	         9.36759e+57
          1254.32770	         1.12533e+58
          1255.13400	         1.50101e+58
          1255.94030	         1.27057e+58
          1256.74660	         1.03692e+58
          1257.55290	         1.11768e+58
          1258.35920	         9.28087e+57
          1259.16550	         4.98797e+57
          1259.97180	         5.15875e+57
          1260.77810	         7.37119e+57
          1261.58440	         1.22179e+58
          1262.39070	         1.12419e+58
          1263.19700	         7.54192e+57
          1264.00330	         9.46643e+57
          1264.80960	         1.25450e+58
          1265.61590	         1.35332e+58
          1266.42220	         1.32372e+58
          1267.22850	         1.09520e+58
          1268.03480	         1.32298e+58
          1268.84110	         1.42711e+58
          1269.64740	         1.17456e+58
          1270.45370	         9.91149e+57
          1271.26000	         1.01844e+58
          1272.06630	         1.23072e+58
          1272.87260	         1.29324e+58
          1273.67890	         1.16975e+58
          1274.48520	         1.10760e+58
          1275.29150	         1.15585e+58
          1276.09780	         1.09241e+58
          1276.90410	         1.28561e+58
          1277.71040	         1.15725e+58
          1278.51670	         1.12024e+58
          1279.32300	         1.43652e+58
          1280.12930	         1.48638e+58
          1280.93560	         1.42402e+58
          1281.74190	         1.24853e+58
          1282.54820	         1.31935e+58
          1283.35450	         1.10221e+58
          1284.16080	         9.46094e+57
          1284.96710	         1.39872e+58
          1285.77340	         1.30334e+58
          1286.57970	         1.25878e+58
          1287.38600	         1.67666e+58
          1288.19230	         1.81620e+58
          1288.99860	         1.26994e+58
          1289.80490	         9.20943e+57
          1290.61120	         1.20378e+58
          1291.41750	         1.20969e+58
          1292.22380	         1.14405e+58
          1293.03010	         1.11420e+58
          1293.83640	         1.16086e+58
          1294.64270	         1.11711e+58
          1295.44900	         9.07602e+57
          1296.25530	         8.03410e+57
          1297.06160	         9.88072e+57
          1297.86790	         1.03198e+58
          1298.67420	         1.00651e+58
          1299.48050	         1.07163e+58
          1300.28680	         1.13001e+58
          1301.09310	         9.30151e+57
          1301.89940	         4.34720e+57
          1302.70570	         5.99139e+57
          1303.51200	         8.09259e+57
          1304.31830	         1.00752e+58
          1305.12460	         1.03138e+58
          1305.93090	         1.05388e+58
          1306.73720	         1.11272e+58
          1307.54350	         1.39783e+58
          1308.34980	         1.46412e+58
          1309.15610	         1.37603e+58
          1309.96240	         1.45572e+58
          1310.76870	         1.41486e+58
          1311.57500	         1.08261e+58
          1312.38130	         1.17498e+58
          1313.18760	         1.37271e+58
          1313.99390	         1.35961e+58
          1314.80020	         1.57349e+58
          1315.60650	         1.57259e+58
          1316.41280	         1.30873e+58
          1317.21910	         1.17815e+58
          1318.02540	         1.24544e+58
          1318.83170	         1.43493e+58
          1319.63800	         1.26455e+58
          1320.44430	         1.22505e+58
          1321.25060	         1.36369e+58
          1322.05690	         1.26295e+58
          1322.86320	         1.08189e+58
          1323.66950	         1.02061e+58
          1324.47580	         9.12709e+57
          1325.28210	         8.60172e+57
          1326.08840	         1.09130e+58
          1326.89470	         1.42007e+58
          1327.70100	         1.16187e+58
          1328.50730	         8.59542e+57
          1329.31360	         1.01008e+58
          1330.11990	         1.06099e+58
          1330.92620	         9.09619e+57
          1331.73250	         9.80991e+57
          1332.53880	         1.03245e+58
          1333.34510	         9.34162e+57
          1334.15140	         9.20872e+57
          1334.95770	         9.55226e+57
          1335.76400	         9.97292e+57
          1336.57030	         1.14473e+58
          1337.37660	         1.11638e+58
          1338.18290	         1.12380e+58
          1338.98920	         1.13941e+58
          1339.79550	         1.17605e+58
          1340.60180	         1.27882e+58
          1341.40810	         1.33986e+58
          1342.21440	         1.19146e+58
          1343.02070	         1.15839e+58
          1343.82700	         1.32033e+58
          1344.63330	         1.21856e+58
          1345.43960	         1.44467e+58
          1346.24590	         1.22732e+58
          1347.05220	         1.19870e+58
          1347.85850	         1.03612e+58
          1348.66480	         1.07815e+58
          1349.47110	         1.25850e+58
          1350.27740	         1.23989e+58
          1351.08370	         1.23983e+58
          1351.89000	         1.27014e+58
          1352.69630	         1.27748e+58
          1353.50260	         1.22312e+58
          1354.30890	         1.19581e+58
          1355.11520	         1.17997e+58
          1355.92150	         1.03597e+58
          1356.72780	         9.60816e+57
          1357.53410	         9.38930e+57
          1358.34040	         1.07297e+58
          1359.14670	         9.25944e+57
          1359.95300	         9.96279e+57
          1360.75930	         1.28908e+58
          1361.56560	         1.09225e+58
          1362.37190	         1.14247e+58
          1363.17820	         1.22716e+58
          1363.98450	         1.12001e+58
          1364.79080	         1.34789e+58
          1365.59710	         1.28647e+58
          1366.40340	         1.22129e+58
          1367.20970	         1.20087e+58
          1368.01600	         1.07844e+58
          1368.82230	         9.62339e+57
          1369.62860	         9.66169e+57
          1370.43490	         8.08448e+57
          1371.24120	         9.21038e+57
          1372.04750	         9.73858e+57
          1372.85380	         1.16738e+58
          1373.66010	         1.15904e+58
          1374.46640	         1.14220e+58
          1375.27270	         1.06513e+58
          1376.07900	         9.04976e+57
          1376.88530	         8.33398e+57
          1377.69160	         9.56811e+57
          1378.49790	         8.71025e+57
          1379.30420	         8.32948e+57
          1380.11050	         9.09609e+57
          1380.91680	         8.16467e+57
          1381.72310	         7.82052e+57
          1382.52940	         8.28938e+57
          1383.33570	         9.45476e+57
          1384.14200	         1.00440e+58
          1384.94830	         1.01881e+58
          1385.75460	         1.17752e+58
          1386.56090	         1.26599e+58
          1387.36720	         1.10398e+58
          1388.17350	         1.07024e+58
          1388.97980	         1.11115e+58
          1389.78610	         1.07226e+58
          1390.59240	         7.74909e+57
          1391.39870	         5.62161e+57
          1392.20500	         8.07575e+57
          1393.01130	         6.91866e+57
          1393.81760	         6.34777e+57
          1394.62390	         7.62141e+57
          1395.43020	         6.39672e+57
          1396.23650	         6.48527e+57
          1397.04280	         8.14014e+57
          1397.84910	         9.52178e+57
          1398.65540	         8.93365e+57
          1399.46170	         1.01092e+58
          1400.26800	         8.79847e+57
          1401.07430	         7.08204e+57
          1401.88060	         7.40039e+57
          1402.68690	         8.67509e+57
          1403.49320	         9.31670e+57
          1404.29950	         8.95109e+57
          1405.10580	         9.45391e+57
          1405.91210	         1.00870e+58
          1406.71840	         1.06730e+58
          1407.52470	         1.11496e+58
          1408.33100	         1.06375e+58
          1409.13730	         1.23019e+58
          1409.94360	         1.18647e+58
          1410.74990	         1.15880e+58
          1411.55620	         1.00094e+58
          1412.36250	         9.40159e+57
          1413.16880	         8.44697e+57
          1413.97510	         7.93934e+57
          1414.78140	         8.24280e+57
          1415.58770	         9.94519e+57
          1416.39400	         1.05603e+58
          1417.20030	         9.33195e+57
          1418.00660	         8.76168e+57
          1418.81290	         1.02674e+58
          1419.61920	         1.08568e+58
          1420.42550	         1.37882e+58
          1421.23180	         1.42524e+58
          1422.03810	         1.20637e+58
          1422.84440	         1.12059e+58
          1423.65070	         1.25580e+58
          1424.45700	         1.19451e+58
          1425.26330	         9.05411e+57
          1426.06960	         8.57829e+57
          1426.87590	         9.71105e+57
          1427.68220	         9.53652e+57
          1428.48850	         9.99864e+57
          1429.29480	         1.05188e+58
          1430.10110	         9.92843e+57
          1430.90740	         8.42428e+57
          1431.71370	         8.21101e+57
          1432.52000	         8.31384e+57
          1433.32630	         7.65332e+57
          1434.13260	         8.20877e+57
          1434.93890	         7.73170e+57
          1435.74520	         8.71002e+57
          1436.55150	         9.64506e+57
          1437.35780	         9.14487e+57
          1438.16410	         9.02076e+57
          1438.97040	         8.61802e+57
          1439.77670	         8.68200e+57
          1440.58300	         9.38392e+57
          1441.38930	         9.34302e+57
          1442.19560	         1.00850e+58
          1443.00190	         9.99978e+57
          1443.80820	         1.02589e+58
          1444.61450	         9.55141e+57
          1445.42080	         9.24108e+57
          1446.22710	         1.03999e+58
          1447.03340	         9.97674e+57
          1447.83970	         1.07712e+58
          1448.64600	         1.16106e+58
          1449.45230	         1.03604e+58
          1450.25860	         9.78029e+57
          1451.06490	         8.35088e+57
          1451.87120	         7.54564e+57
          1452.67750	         7.56874e+57
          1453.48380	         8.99990e+57
          1454.29010	         8.68286e+57
          1455.09640	         7.80565e+57
          1455.90270	         9.36352e+57
          1456.70900	         8.82515e+57
          1457.51530	         8.89600e+57
          1458.32160	         1.08924e+58
          1459.12790	         1.15794e+58
          1459.93420	         1.01191e+58
          1460.74050	         8.70385e+57
          1461.54680	         8.74918e+57
          1462.35310	         7.99913e+57
          1463.15940	         8.95400e+57
          1463.96570	         1.03318e+58
          1464.77200	         1.11929e+58
          1465.57830	         9.96850e+57
          1466.38460	         8.96623e+57
          1467.19090	         8.64622e+57
          1467.99720	         8.87657e+57
          1468.80350	         9.42088e+57
          1469.60980	         1.07834e+58
          1470.41610	         1.12143e+58
          1471.22240	         1.06595e+58
          1472.02870	         9.77661e+57
          1472.83500	         9.13963e+57
          1473.64130	         1.02466e+58
          1474.44760	         1.04308e+58
          1475.25390	         9.15220e+57
          1476.06020	         8.40348e+57
          1476.86650	         8.77194e+57
          1477.67280	         8.96222e+57
          1478.47910	         7.55345e+57
          1479.28540	         7.07025e+57
          1480.09170	         8.24076e+57
          1480.89800	         8.06673e+57
          1481.70430	         8.41778e+57
          1482.51060	         8.55815e+57
          1483.31690	         8.71927e+57
          1484.12320	         7.61044e+57
          1484.92950	         7.30280e+57
          1485.73580	         7.77981e+57
          1486.54210	         8.06187e+57
          1487.34840	         8.50501e+57
          1488.15470	         8.26538e+57
          1488.96100	         7.86025e+57
          1489.76730	         8.13255e+57
