#sample_241_stacked_spectrum_rest_UV-bands_median_H-alpha_noDC.txt
#median Lum: 1.71366e+42
#Rest-frame wavelength (A) | Luminosity (erg/s/A)
#
          1110.00000	         0.00000e+00
          1110.80630	        -1.20118e+58
          1111.61260	         1.48153e+59
          1112.41890	         5.58863e+58
          1113.22520	         2.08950e+59
          1114.03150	         1.25306e+58
          1114.83780	         1.46953e+59
          1115.64410	         1.13285e+59
          1116.45040	         2.43842e+59
          1117.25670	         1.77116e+59
          1118.06300	         2.08302e+59
          1118.86930	        -4.73977e+58
          1119.67560	         9.32600e+58
          1120.48190	         8.68838e+58
          1121.28820	        -3.07252e+58
          1122.09450	         2.89812e+58
          1122.90080	         3.49927e+58
          1123.70710	         8.28010e+58
          1124.51340	         5.95642e+58
          1125.31970	        -2.18551e+58
          1126.12600	        -3.54325e+58
          1126.93230	        -3.65542e+58
          1127.73860	        -5.53400e+58
          1128.54490	         1.64348e+58
          1129.35120	         5.92853e+57
          1130.15750	        -1.15567e+58
          1130.96380	        -3.12148e+58
          1131.77010	         4.86964e+58
          1132.57640	         3.64791e+58
          1133.38270	         3.22991e+58
          1134.18900	         4.14468e+58
          1134.99530	         2.66467e+58
          1135.80160	         1.05569e+58
          1136.60790	         3.11661e+57
          1137.41420	        -1.19707e+58
          1138.22050	         2.17003e+57
          1139.02680	         1.33549e+58
          1139.83310	         2.93575e+58
          1140.63940	         2.32127e+58
          1141.44570	        -3.94201e+57
          1142.25200	         7.76832e+57
          1143.05830	         1.62987e+58
          1143.86460	         3.53448e+58
          1144.67090	         2.71488e+58
          1145.47720	         1.91249e+58
          1146.28350	         1.61044e+58
          1147.08980	         1.53760e+58
          1147.89610	         7.35856e+57
          1148.70240	         2.08454e+58
          1149.50870	         1.72047e+58
          1150.31500	         1.47969e+58
          1151.12130	         3.82433e+57
          1151.92760	        -3.31357e+57
          1152.73390	        -5.87338e+57
          1153.54020	         4.30720e+57
          1154.34650	         1.81590e+58
          1155.15280	         1.47608e+58
          1155.95910	         1.60618e+57
          1156.76540	        -2.39319e+57
          1157.57170	        -8.62697e+56
          1158.37800	        -4.13599e+57
          1159.18430	        -1.31834e+57
          1159.99060	         1.24839e+58
          1160.79690	         1.26027e+58
          1161.60320	         1.64220e+58
          1162.40950	         1.70513e+58
          1163.21580	         1.36183e+58
          1164.02210	         1.66870e+58
          1164.82840	         4.74546e+57
          1165.63470	         1.73631e+58
          1166.44100	         3.19871e+58
          1167.24730	         2.46273e+58
          1168.05360	         6.05626e+57
          1168.85990	         3.49430e+57
          1169.66620	         4.74775e+57
          1170.47250	         1.39247e+58
          1171.27880	         1.45749e+58
          1172.08510	         1.79277e+58
          1172.89140	         1.78819e+58
          1173.69770	         8.91100e+57
          1174.50400	         1.77793e+58
          1175.31030	         1.51066e+58
          1176.11660	         1.60850e+58
          1176.92290	         1.28354e+58
          1177.72920	         1.06286e+58
          1178.53550	         8.03308e+57
          1179.34180	         3.57094e+57
          1180.14810	         5.23463e+57
          1180.95440	         6.35234e+57
          1181.76070	         6.89969e+57
          1182.56700	         8.74930e+57
          1183.37330	         7.42453e+57
          1184.17960	         1.31124e+58
          1184.98590	         9.34469e+57
          1185.79220	         3.45535e+57
          1186.59850	         1.51407e+58
          1187.40480	         1.51035e+58
          1188.21110	         1.13244e+58
          1189.01740	         1.04114e+58
          1189.82370	         1.22074e+58
          1190.63000	         1.13029e+58
          1191.43630	         1.27863e+58
          1192.24260	         8.51052e+57
          1193.04890	         8.57741e+57
          1193.85520	         1.03687e+58
          1194.66150	         8.48802e+57
          1195.46780	         9.83683e+57
          1196.27410	         1.16103e+58
          1197.08040	         8.95943e+57
          1197.88670	         1.26017e+58
          1198.69300	         1.19464e+58
          1199.49930	         1.35651e+58
          1200.30560	         1.22351e+58
          1201.11190	         1.03276e+58
          1201.91820	         1.30574e+58
          1202.72450	         7.44927e+57
          1203.53080	         1.78151e+58
          1204.33710	         9.81445e+57
          1205.14340	         4.61597e+57
          1205.94970	         9.29595e+57
          1206.75600	         7.30630e+57
          1207.56230	         6.44350e+57
          1208.36860	         6.70512e+57
          1209.17490	         5.15587e+57
          1209.98120	         6.34574e+57
          1210.78750	         6.65104e+57
          1211.59380	         7.48361e+57
          1212.40010	         1.88529e+58
          1213.20640	         1.96121e+58
          1214.01270	         2.12261e+58
          1214.81900	         2.52881e+58
          1215.62530	         4.71743e+58
          1216.43160	         9.43225e+58
          1217.23790	         1.51756e+59
          1218.04420	         1.15595e+59
          1218.85050	         8.74757e+58
          1219.65680	         5.95878e+58
          1220.46310	         3.67125e+58
          1221.26940	         2.41483e+58
          1222.07570	         1.56242e+58
          1222.88200	         1.32603e+58
          1223.68830	         9.97419e+57
          1224.49460	         7.75887e+57
          1225.30090	         6.78109e+57
          1226.10720	         7.21104e+57
          1226.91350	         7.34827e+57
          1227.71980	         7.91139e+57
          1228.52610	         1.19290e+58
          1229.33240	         1.13831e+58
          1230.13870	         1.06835e+58
          1230.94500	         1.10132e+58
          1231.75130	         8.32834e+57
          1232.55760	         1.11962e+58
          1233.36390	         1.05631e+58
          1234.17020	         9.15998e+57
          1234.97650	         9.99601e+57
          1235.78280	         9.06483e+57
          1236.58910	         9.50033e+57
          1237.39540	         1.15517e+58
          1238.20170	         1.16011e+58
          1239.00800	         1.14397e+58
          1239.81430	         1.31804e+58
          1240.62060	         1.30809e+58
          1241.42690	         1.05530e+58
          1242.23320	         1.01887e+58
          1243.03950	         8.99949e+57
          1243.84580	         9.12824e+57
          1244.65210	         1.05834e+58
          1245.45840	         1.08174e+58
          1246.26470	         8.13716e+57
          1247.07100	         6.52511e+57
          1247.87730	         7.32166e+57
          1248.68360	         3.80921e+57
          1249.48990	         6.99111e+57
          1250.29620	         1.10012e+58
          1251.10250	         1.01418e+58
          1251.90880	         5.26668e+57
          1252.71510	         4.46780e+57
          1253.52140	         7.54990e+57
          1254.32770	         1.14855e+58
          1255.13400	         1.15508e+58
          1255.94030	         8.26629e+57
          1256.74660	         8.37801e+57
          1257.55290	         1.02663e+58
          1258.35920	         8.91417e+57
          1259.16550	         5.55731e+57
          1259.97180	         4.56184e+57
          1260.77810	         8.02664e+57
          1261.58440	         1.01946e+58
          1262.39070	         8.63165e+57
          1263.19700	         6.59660e+57
          1264.00330	         8.06410e+57
          1264.80960	         1.02950e+58
          1265.61590	         1.35417e+58
          1266.42220	         1.26278e+58
          1267.22850	         1.14085e+58
          1268.03480	         1.41948e+58
          1268.84110	         1.43873e+58
          1269.64740	         1.22972e+58
          1270.45370	         9.46084e+57
          1271.26000	         1.04025e+58
          1272.06630	         1.19877e+58
          1272.87260	         1.29523e+58
          1273.67890	         1.28044e+58
          1274.48520	         1.20315e+58
          1275.29150	         1.22677e+58
          1276.09780	         1.28838e+58
          1276.90410	         1.52789e+58
          1277.71040	         1.24983e+58
          1278.51670	         1.04557e+58
          1279.32300	         1.21357e+58
          1280.12930	         1.23845e+58
          1280.93560	         1.18869e+58
          1281.74190	         1.41976e+58
          1282.54820	         1.56002e+58
          1283.35450	         1.15796e+58
          1284.16080	         1.03908e+58
          1284.96710	         1.46897e+58
          1285.77340	         1.28902e+58
          1286.57970	         1.01706e+58
          1287.38600	         1.50618e+58
          1288.19230	         1.77713e+58
          1288.99860	         1.68616e+58
          1289.80490	         1.33247e+58
          1290.61120	         1.32285e+58
          1291.41750	         1.36884e+58
          1292.22380	         1.22093e+58
          1293.03010	         1.10486e+58
          1293.83640	         9.90639e+57
          1294.64270	         8.51009e+57
          1295.44900	         7.87903e+57
          1296.25530	         7.90420e+57
          1297.06160	         9.04513e+57
          1297.86790	         1.03420e+58
          1298.67420	         9.95303e+57
          1299.48050	         1.03155e+58
          1300.28680	         9.40081e+57
          1301.09310	         7.24831e+57
          1301.89940	         3.83007e+57
          1302.70570	         4.49521e+57
          1303.51200	         7.42047e+57
          1304.31830	         9.74615e+57
          1305.12460	         1.04169e+58
          1305.93090	         1.09873e+58
          1306.73720	         1.20515e+58
          1307.54350	         1.38052e+58
          1308.34980	         1.49739e+58
          1309.15610	         1.80079e+58
          1309.96240	         1.85612e+58
          1310.76870	         1.60512e+58
          1311.57500	         1.43618e+58
          1312.38130	         1.34462e+58
          1313.18760	         1.56681e+58
          1313.99390	         1.86321e+58
          1314.80020	         1.74818e+58
          1315.60650	         1.60490e+58
          1316.41280	         1.31033e+58
          1317.21910	         1.12243e+58
          1318.02540	         1.22629e+58
          1318.83170	         1.21062e+58
          1319.63800	         1.09186e+58
          1320.44430	         1.11443e+58
          1321.25060	         1.11531e+58
          1322.05690	         1.16634e+58
          1322.86320	         1.24943e+58
          1323.66950	         1.21696e+58
          1324.47580	         1.05260e+58
          1325.28210	         1.01227e+58
          1326.08840	         1.08800e+58
          1326.89470	         1.20379e+58
          1327.70100	         1.05376e+58
          1328.50730	         9.26229e+57
          1329.31360	         1.09138e+58
          1330.11990	         1.12639e+58
          1330.92620	         1.01741e+58
          1331.73250	         1.12302e+58
          1332.53880	         1.06517e+58
          1333.34510	         1.03481e+58
          1334.15140	         9.87146e+57
          1334.95770	         7.88166e+57
          1335.76400	         9.25267e+57
          1336.57030	         1.13460e+58
          1337.37660	         1.16385e+58
          1338.18290	         9.64658e+57
          1338.98920	         1.03466e+58
          1339.79550	         1.13403e+58
          1340.60180	         1.13402e+58
          1341.40810	         1.20621e+58
          1342.21440	         1.08022e+58
          1343.02070	         1.15648e+58
          1343.82700	         1.36791e+58
          1344.63330	         1.49061e+58
          1345.43960	         1.34587e+58
          1346.24590	         1.16340e+58
          1347.05220	         1.28886e+58
          1347.85850	         1.03141e+58
          1348.66480	         1.19771e+58
          1349.47110	         1.31618e+58
          1350.27740	         1.26281e+58
          1351.08370	         1.24790e+58
          1351.89000	         1.13817e+58
          1352.69630	         1.25698e+58
          1353.50260	         1.28062e+58
          1354.30890	         1.11333e+58
          1355.11520	         1.15033e+58
          1355.92150	         1.16398e+58
          1356.72780	         1.10552e+58
          1357.53410	         9.73119e+57
          1358.34040	         9.65455e+57
          1359.14670	         1.01401e+58
          1359.95300	         1.19588e+58
          1360.75930	         1.12075e+58
          1361.56560	         9.42685e+57
          1362.37190	         1.09868e+58
          1363.17820	         1.14754e+58
          1363.98450	         1.16135e+58
          1364.79080	         1.31769e+58
          1365.59710	         1.30060e+58
          1366.40340	         1.17349e+58
          1367.20970	         1.06598e+58
          1368.01600	         1.04079e+58
          1368.82230	         1.00632e+58
          1369.62860	         1.13129e+58
          1370.43490	         1.07397e+58
          1371.24120	         1.00047e+58
          1372.04750	         8.98755e+57
          1372.85380	         9.97553e+57
          1373.66010	         1.06851e+58
          1374.46640	         1.03866e+58
          1375.27270	         1.11624e+58
          1376.07900	         9.55401e+57
          1376.88530	         8.99483e+57
          1377.69160	         8.94142e+57
          1378.49790	         7.26415e+57
          1379.30420	         7.87349e+57
          1380.11050	         9.21987e+57
          1380.91680	         8.63499e+57
          1381.72310	         6.90514e+57
          1382.52940	         7.17170e+57
          1383.33570	         8.87226e+57
          1384.14200	         9.64857e+57
          1384.94830	         1.08007e+58
          1385.75460	         1.13778e+58
          1386.56090	         1.21128e+58
          1387.36720	         1.20213e+58
          1388.17350	         1.33159e+58
          1388.97980	         1.16384e+58
          1389.78610	         9.16770e+57
          1390.59240	         8.67121e+57
          1391.39870	         8.85774e+57
          1392.20500	         8.83542e+57
          1393.01130	         8.21572e+57
          1393.81760	         7.84720e+57
          1394.62390	         8.03487e+57
          1395.43020	         6.59890e+57
          1396.23650	         6.82612e+57
          1397.04280	         8.21818e+57
          1397.84910	         1.02608e+58
          1398.65540	         9.29630e+57
          1399.46170	         8.11829e+57
          1400.26800	         6.54350e+57
          1401.07430	         7.25639e+57
          1401.88060	         8.24355e+57
          1402.68690	         8.91004e+57
          1403.49320	         9.98655e+57
          1404.29950	         1.04575e+58
          1405.10580	         1.11693e+58
          1405.91210	         1.09293e+58
          1406.71840	         1.07312e+58
          1407.52470	         1.10701e+58
          1408.33100	         1.03723e+58
          1409.13730	         1.06513e+58
          1409.94360	         1.17369e+58
          1410.74990	         1.25958e+58
          1411.55620	         1.20521e+58
          1412.36250	         1.02966e+58
          1413.16880	         9.97998e+57
          1413.97510	         8.54207e+57
          1414.78140	         9.06203e+57
          1415.58770	         1.09497e+58
          1416.39400	         1.03105e+58
          1417.20030	         1.04167e+58
          1418.00660	         1.10193e+58
          1418.81290	         9.54974e+57
          1419.61920	         1.03490e+58
          1420.42550	         1.36126e+58
          1421.23180	         1.46285e+58
          1422.03810	         1.34314e+58
          1422.84440	         1.18492e+58
          1423.65070	         1.32105e+58
          1424.45700	         1.19400e+58
          1425.26330	         8.01867e+57
          1426.06960	         8.97305e+57
          1426.87590	         9.59246e+57
          1427.68220	         9.13305e+57
          1428.48850	         1.05685e+58
          1429.29480	         1.06095e+58
          1430.10110	         9.28033e+57
          1430.90740	         8.01395e+57
          1431.71370	         8.19150e+57
          1432.52000	         8.92942e+57
          1433.32630	         8.28160e+57
          1434.13260	         7.71652e+57
          1434.93890	         7.34686e+57
          1435.74520	         9.30523e+57
          1436.55150	         9.65304e+57
          1437.35780	         8.33575e+57
          1438.16410	         8.72139e+57
          1438.97040	         9.41867e+57
          1439.77670	         9.15323e+57
          1440.58300	         8.92533e+57
          1441.38930	         9.25563e+57
          1442.19560	         9.80358e+57
          1443.00190	         1.08835e+58
          1443.80820	         1.15811e+58
          1444.61450	         9.69769e+57
          1445.42080	         7.38340e+57
          1446.22710	         9.73508e+57
          1447.03340	         9.62311e+57
          1447.83970	         1.05756e+58
          1448.64600	         1.18256e+58
          1449.45230	         1.00771e+58
          1450.25860	         1.05667e+58
          1451.06490	         9.36763e+57
          1451.87120	         8.08775e+57
          1452.67750	         7.97105e+57
          1453.48380	         9.36501e+57
          1454.29010	         8.47504e+57
          1455.09640	         7.62343e+57
          1455.90270	         8.67356e+57
          1456.70900	         9.48393e+57
          1457.51530	         1.10544e+58
          1458.32160	         1.23781e+58
          1459.12790	         1.32338e+58
          1459.93420	         1.03379e+58
          1460.74050	         7.43056e+57
          1461.54680	         7.81123e+57
          1462.35310	         8.33441e+57
          1463.15940	         9.27972e+57
          1463.96570	         1.10229e+58
          1464.77200	         1.18331e+58
          1465.57830	         1.01267e+58
          1466.38460	         9.89734e+57
          1467.19090	         9.70125e+57
          1467.99720	         8.34546e+57
          1468.80350	         8.93588e+57
          1469.60980	         9.83710e+57
          1470.41610	         1.06640e+58
          1471.22240	         1.02501e+58
          1472.02870	         1.06845e+58
          1472.83500	         1.19300e+58
          1473.64130	         1.09413e+58
          1474.44760	         1.05794e+58
          1475.25390	         8.96496e+57
          1476.06020	         7.21178e+57
          1476.86650	         8.64877e+57
          1477.67280	         8.24372e+57
          1478.47910	         6.26140e+57
          1479.28540	         7.16509e+57
          1480.09170	         8.47220e+57
          1480.89800	         8.57335e+57
          1481.70430	         8.24897e+57
          1482.51060	         7.98376e+57
          1483.31690	         8.21205e+57
          1484.12320	         8.41218e+57
          1484.92950	         8.83726e+57
          1485.73580	         7.71017e+57
          1486.54210	         8.62968e+57
          1487.34840	         9.01725e+57
          1488.15470	         7.94316e+57
          1488.96100	         8.42947e+57
          1489.76730	         8.54717e+57
