#sample_289_stacked_spectrum_rest_UV-bands_median_H-alpha_noDC.txt
#median Lum: 1.69377e+42
#Rest-frame wavelength (A) | Luminosity (erg/s/A)
#
          1110.00000	         0.00000e+00
          1110.80630	        -5.41225e+59
          1111.61260	        -7.84097e+58
          1112.41890	         1.49857e+59
          1113.22520	        -6.17969e+58
          1114.03150	        -2.88148e+59
          1114.83780	         5.73651e+58
          1115.64410	         1.40438e+59
          1116.45040	         1.71856e+59
          1117.25670	         9.80275e+58
          1118.06300	         1.44654e+59
          1118.86930	         5.08987e+58
          1119.67560	         7.41375e+58
          1120.48190	        -5.35997e+58
          1121.28820	        -1.15426e+59
          1122.09450	         1.40329e+58
          1122.90080	         9.79927e+58
          1123.70710	         5.95379e+58
          1124.51340	         1.05511e+59
          1125.31970	         3.84075e+58
          1126.12600	        -2.65327e+58
          1126.93230	        -1.74421e+58
          1127.73860	        -8.74150e+58
          1128.54490	        -1.22500e+58
          1129.35120	         8.94532e+57
          1130.15750	        -2.51370e+58
          1130.96380	        -1.73240e+58
          1131.77010	         3.46839e+58
          1132.57640	         3.37745e+58
          1133.38270	         2.49352e+58
          1134.18900	         1.09888e+58
          1134.99530	         2.99821e+58
          1135.80160	         4.90879e+58
          1136.60790	         1.12584e+58
          1137.41420	        -3.78755e+57
          1138.22050	         3.06638e+58
          1139.02680	         3.18680e+58
          1139.83310	         1.11373e+58
          1140.63940	         1.12633e+58
          1141.44570	        -2.87589e+58
          1142.25200	        -1.64411e+57
          1143.05830	         4.65780e+58
          1143.86460	         3.38093e+58
          1144.67090	         2.27018e+58
          1145.47720	         1.16229e+58
          1146.28350	        -8.10978e+56
          1147.08980	         1.23358e+58
          1147.89610	         1.29606e+58
          1148.70240	         1.84279e+58
          1149.50870	         1.94862e+58
          1150.31500	         1.51520e+58
          1151.12130	         1.50972e+58
          1151.92760	        -8.12408e+57
          1152.73390	         2.58015e+57
          1153.54020	         3.76163e+56
          1154.34650	         2.54573e+58
          1155.15280	         2.81130e+58
          1155.95910	         1.23285e+58
          1156.76540	         2.31923e+58
          1157.57170	         8.98785e+57
          1158.37800	        -5.37767e+57
          1159.18430	         4.48986e+57
          1159.99060	         3.85335e+57
          1160.79690	        -9.85892e+56
          1161.60320	         7.16426e+57
          1162.40950	         1.23947e+58
          1163.21580	         1.69906e+58
          1164.02210	         1.32471e+58
          1164.82840	         8.73709e+57
          1165.63470	         2.07119e+58
          1166.44100	         2.81908e+58
          1167.24730	         1.92862e+58
          1168.05360	         6.75810e+57
          1168.85990	         1.11094e+58
          1169.66620	         1.07544e+58
          1170.47250	         1.03630e+58
          1171.27880	         8.55501e+57
          1172.08510	         9.44936e+57
          1172.89140	         1.29959e+58
          1173.69770	         5.76054e+57
          1174.50400	         6.41175e+57
          1175.31030	         1.56123e+58
          1176.11660	         1.73769e+58
          1176.92290	         1.32152e+58
          1177.72920	         1.23461e+58
          1178.53550	         4.96406e+57
          1179.34180	         2.29752e+57
          1180.14810	         3.53231e+57
          1180.95440	         5.33460e+57
          1181.76070	         5.14017e+57
          1182.56700	         6.48790e+57
          1183.37330	         4.58121e+57
          1184.17960	         1.00044e+58
          1184.98590	         1.23819e+58
          1185.79220	         1.05881e+58
          1186.59850	         8.25695e+57
          1187.40480	         1.22292e+58
          1188.21110	         9.70384e+57
          1189.01740	         5.32848e+57
          1189.82370	         1.34657e+58
          1190.63000	         1.41555e+58
          1191.43630	         9.73786e+57
          1192.24260	         1.03995e+58
          1193.04890	         9.31977e+57
          1193.85520	         6.21597e+57
          1194.66150	         7.55680e+57
          1195.46780	         1.22232e+58
          1196.27410	         1.74088e+58
          1197.08040	         9.95147e+57
          1197.88670	         1.22074e+58
          1198.69300	         1.35912e+58
          1199.49930	         1.58645e+58
          1200.30560	         1.02082e+58
          1201.11190	         6.86633e+57
          1201.91820	         1.26580e+58
          1202.72450	         9.58506e+57
          1203.53080	         1.24773e+58
          1204.33710	         1.12452e+58
          1205.14340	         5.77644e+57
          1205.94970	         7.51210e+57
          1206.75600	         4.84447e+57
          1207.56230	         6.01894e+57
          1208.36860	         1.11469e+58
          1209.17490	         6.78343e+57
          1209.98120	         2.57476e+57
          1210.78750	         3.36147e+57
          1211.59380	         1.12378e+58
          1212.40010	         1.84649e+58
          1213.20640	         2.31987e+58
          1214.01270	         2.23635e+58
          1214.81900	         2.73847e+58
          1215.62530	         4.43695e+58
          1216.43160	         9.17376e+58
          1217.23790	         1.52643e+59
          1218.04420	         1.13752e+59
          1218.85050	         8.72448e+58
          1219.65680	         5.76877e+58
          1220.46310	         3.22976e+58
          1221.26940	         2.14662e+58
          1222.07570	         1.17644e+58
          1222.88200	         9.44491e+57
          1223.68830	         8.25103e+57
          1224.49460	         7.20877e+57
          1225.30090	         7.59565e+57
          1226.10720	         6.72167e+57
          1226.91350	         6.57339e+57
          1227.71980	         5.36627e+57
          1228.52610	         1.07705e+58
          1229.33240	         1.18789e+58
          1230.13870	         8.16235e+57
          1230.94500	         1.06782e+58
          1231.75130	         7.47804e+57
          1232.55760	         6.79695e+57
          1233.36390	         7.69012e+57
          1234.17020	         8.68430e+57
          1234.97650	         8.21174e+57
          1235.78280	         6.77026e+57
          1236.58910	         9.03083e+57
          1237.39540	         1.03660e+58
          1238.20170	         9.96764e+57
          1239.00800	         1.11602e+58
          1239.81430	         1.68777e+58
          1240.62060	         1.55315e+58
          1241.42690	         1.24420e+58
          1242.23320	         1.16628e+58
          1243.03950	         9.03936e+57
          1243.84580	         9.75379e+57
          1244.65210	         1.01205e+58
          1245.45840	         9.05943e+57
          1246.26470	         9.44605e+57
          1247.07100	         6.66579e+57
          1247.87730	         4.48860e+57
          1248.68360	         4.26840e+57
          1249.48990	         7.41373e+57
          1250.29620	         1.04016e+58
          1251.10250	         9.80976e+57
          1251.90880	         7.00100e+57
          1252.71510	         4.37064e+57
          1253.52140	         3.97735e+57
          1254.32770	         8.08268e+57
          1255.13400	         1.17044e+58
          1255.94030	         1.11089e+58
          1256.74660	         8.56743e+57
          1257.55290	         1.04529e+58
          1258.35920	         1.03198e+58
          1259.16550	         6.19932e+57
          1259.97180	         6.36333e+57
          1260.77810	         8.34756e+57
          1261.58440	         1.32884e+58
          1262.39070	         1.09754e+58
          1263.19700	         7.71064e+57
          1264.00330	         9.40979e+57
          1264.80960	         1.19977e+58
          1265.61590	         1.49828e+58
          1266.42220	         1.38992e+58
          1267.22850	         1.19492e+58
          1268.03480	         1.36006e+58
          1268.84110	         1.35441e+58
          1269.64740	         1.28020e+58
          1270.45370	         1.31128e+58
          1271.26000	         9.73304e+57
          1272.06630	         1.06078e+58
          1272.87260	         1.25144e+58
          1273.67890	         1.26091e+58
          1274.48520	         1.32075e+58
          1275.29150	         1.40968e+58
          1276.09780	         1.19642e+58
          1276.90410	         1.37369e+58
          1277.71040	         1.32751e+58
          1278.51670	         1.18589e+58
          1279.32300	         1.47420e+58
          1280.12930	         1.32726e+58
          1280.93560	         1.12572e+58
          1281.74190	         1.21868e+58
          1282.54820	         9.99729e+57
          1283.35450	         8.51379e+57
          1284.16080	         1.28615e+58
          1284.96710	         1.47336e+58
          1285.77340	         1.15428e+58
          1286.57970	         1.19954e+58
          1287.38600	         1.36568e+58
          1288.19230	         1.57865e+58
          1288.99860	         1.51303e+58
          1289.80490	         8.83886e+57
          1290.61120	         1.04755e+58
          1291.41750	         1.30089e+58
          1292.22380	         1.09852e+58
          1293.03010	         8.46343e+57
          1293.83640	         1.06207e+58
          1294.64270	         1.01732e+58
          1295.44900	         6.07290e+57
          1296.25530	         4.19443e+57
          1297.06160	         7.95907e+57
          1297.86790	         9.98652e+57
          1298.67420	         8.24792e+57
          1299.48050	         8.97770e+57
          1300.28680	         1.03736e+58
          1301.09310	         7.63533e+57
          1301.89940	         4.28916e+57
          1302.70570	         6.15076e+57
          1303.51200	         8.28206e+57
          1304.31830	         9.74018e+57
          1305.12460	         1.10774e+58
          1305.93090	         1.17067e+58
          1306.73720	         1.20932e+58
          1307.54350	         1.54669e+58
          1308.34980	         1.60435e+58
          1309.15610	         1.55474e+58
          1309.96240	         1.72421e+58
          1310.76870	         1.29902e+58
          1311.57500	         8.63418e+57
          1312.38130	         9.75338e+57
          1313.18760	         1.28771e+58
          1313.99390	         1.61252e+58
          1314.80020	         1.58724e+58
          1315.60650	         1.42103e+58
          1316.41280	         1.14959e+58
          1317.21910	         9.66858e+57
          1318.02540	         1.02935e+58
          1318.83170	         1.16419e+58
          1319.63800	         1.20904e+58
          1320.44430	         1.05408e+58
          1321.25060	         1.18127e+58
          1322.05690	         1.33332e+58
          1322.86320	         1.09696e+58
          1323.66950	         9.90315e+57
          1324.47580	         9.13291e+57
          1325.28210	         9.47637e+57
          1326.08840	         1.16713e+58
          1326.89470	         1.24899e+58
          1327.70100	         1.03679e+58
          1328.50730	         8.40538e+57
          1329.31360	         1.07199e+58
          1330.11990	         1.08495e+58
          1330.92620	         9.96002e+57
          1331.73250	         1.07788e+58
          1332.53880	         9.69434e+57
          1333.34510	         8.94025e+57
          1334.15140	         8.17658e+57
          1334.95770	         8.51251e+57
          1335.76400	         1.01928e+58
          1336.57030	         1.10816e+58
          1337.37660	         1.13495e+58
          1338.18290	         1.03448e+58
          1338.98920	         1.11577e+58
          1339.79550	         1.17914e+58
          1340.60180	         1.27613e+58
          1341.40810	         1.45723e+58
          1342.21440	         1.21514e+58
          1343.02070	         1.16643e+58
          1343.82700	         1.23900e+58
          1344.63330	         1.12003e+58
          1345.43960	         1.12214e+58
          1346.24590	         8.89555e+57
          1347.05220	         1.12833e+58
          1347.85850	         1.15093e+58
          1348.66480	         1.29782e+58
          1349.47110	         1.37034e+58
          1350.27740	         1.29091e+58
          1351.08370	         1.18426e+58
          1351.89000	         1.16227e+58
          1352.69630	         1.16450e+58
          1353.50260	         1.02601e+58
          1354.30890	         1.07744e+58
          1355.11520	         1.21121e+58
          1355.92150	         1.12235e+58
          1356.72780	         1.15208e+58
          1357.53410	         1.19467e+58
          1358.34040	         1.08856e+58
          1359.14670	         9.52215e+57
          1359.95300	         1.00111e+58
          1360.75930	         1.18124e+58
          1361.56560	         1.14471e+58
          1362.37190	         1.20522e+58
          1363.17820	         1.24082e+58
          1363.98450	         1.24139e+58
          1364.79080	         1.28381e+58
          1365.59710	         1.32649e+58
          1366.40340	         1.07806e+58
          1367.20970	         9.07974e+57
          1368.01600	         9.44414e+57
          1368.82230	         9.35423e+57
          1369.62860	         1.06557e+58
          1370.43490	         9.87108e+57
          1371.24120	         9.30328e+57
          1372.04750	         8.74395e+57
          1372.85380	         1.12369e+58
          1373.66010	         1.13963e+58
          1374.46640	         1.06046e+58
          1375.27270	         1.21104e+58
          1376.07900	         1.06387e+58
          1376.88530	         8.93519e+57
          1377.69160	         9.36800e+57
          1378.49790	         7.51048e+57
          1379.30420	         7.31856e+57
          1380.11050	         9.93823e+57
          1380.91680	         1.01492e+58
          1381.72310	         9.49881e+57
          1382.52940	         8.05053e+57
          1383.33570	         8.52824e+57
          1384.14200	         1.03247e+58
          1384.94830	         1.07819e+58
          1385.75460	         1.15392e+58
          1386.56090	         1.03845e+58
          1387.36720	         1.12051e+58
          1388.17350	         1.33320e+58
          1388.97980	         1.21657e+58
          1389.78610	         9.35936e+57
          1390.59240	         8.96252e+57
          1391.39870	         6.99340e+57
          1392.20500	         7.88575e+57
          1393.01130	         8.60061e+57
          1393.81760	         8.31790e+57
          1394.62390	         7.07922e+57
          1395.43020	         5.30675e+57
          1396.23650	         6.83390e+57
          1397.04280	         7.31973e+57
          1397.84910	         8.30868e+57
          1398.65540	         9.73869e+57
          1399.46170	         9.46150e+57
          1400.26800	         7.69823e+57
          1401.07430	         7.69127e+57
          1401.88060	         8.33855e+57
          1402.68690	         9.27428e+57
          1403.49320	         1.02854e+58
          1404.29950	         9.93472e+57
          1405.10580	         1.11078e+58
          1405.91210	         1.26583e+58
          1406.71840	         1.18873e+58
          1407.52470	         1.04003e+58
          1408.33100	         1.01908e+58
          1409.13730	         1.08370e+58
          1409.94360	         1.16749e+58
          1410.74990	         1.16697e+58
          1411.55620	         1.02195e+58
          1412.36250	         9.33600e+57
          1413.16880	         8.55595e+57
          1413.97510	         7.88436e+57
          1414.78140	         1.04753e+58
          1415.58770	         1.17056e+58
          1416.39400	         1.13482e+58
          1417.20030	         1.12095e+58
          1418.00660	         1.01281e+58
          1418.81290	         9.90090e+57
          1419.61920	         1.08285e+58
          1420.42550	         1.32376e+58
          1421.23180	         1.43044e+58
          1422.03810	         1.26510e+58
          1422.84440	         1.05710e+58
          1423.65070	         1.18719e+58
          1424.45700	         1.12661e+58
          1425.26330	         8.61809e+57
          1426.06960	         8.83544e+57
          1426.87590	         1.05382e+58
          1427.68220	         1.08862e+58
          1428.48850	         1.13178e+58
          1429.29480	         1.03610e+58
          1430.10110	         9.74435e+57
          1430.90740	         8.39070e+57
          1431.71370	         8.28200e+57
          1432.52000	         9.37484e+57
          1433.32630	         8.30502e+57
          1434.13260	         8.37913e+57
          1434.93890	         7.88235e+57
          1435.74520	         9.16986e+57
          1436.55150	         1.03957e+58
          1437.35780	         9.76651e+57
          1438.16410	         8.81816e+57
          1438.97040	         8.48806e+57
          1439.77670	         9.41778e+57
          1440.58300	         1.00796e+58
          1441.38930	         9.57394e+57
          1442.19560	         8.71337e+57
          1443.00190	         9.48023e+57
          1443.80820	         1.10947e+58
          1444.61450	         1.00637e+58
          1445.42080	         9.12000e+57
          1446.22710	         9.97244e+57
          1447.03340	         9.68330e+57
          1447.83970	         1.00862e+58
          1448.64600	         9.78623e+57
          1449.45230	         9.80497e+57
          1450.25860	         1.04486e+58
          1451.06490	         8.72338e+57
          1451.87120	         6.49423e+57
          1452.67750	         7.37228e+57
          1453.48380	         9.24113e+57
          1454.29010	         7.59987e+57
          1455.09640	         7.33061e+57
          1455.90270	         8.16177e+57
          1456.70900	         8.78870e+57
          1457.51530	         1.06685e+58
          1458.32160	         1.19353e+58
          1459.12790	         1.13605e+58
          1459.93420	         9.96187e+57
          1460.74050	         7.74237e+57
          1461.54680	         8.88912e+57
          1462.35310	         8.24676e+57
          1463.15940	         9.79276e+57
          1463.96570	         1.18659e+58
          1464.77200	         1.22220e+58
          1465.57830	         1.12167e+58
          1466.38460	         9.64540e+57
          1467.19090	         9.00752e+57
          1467.99720	         8.62409e+57
          1468.80350	         9.16060e+57
          1469.60980	         1.09093e+58
          1470.41610	         1.10090e+58
          1471.22240	         9.36600e+57
          1472.02870	         9.36263e+57
          1472.83500	         9.48924e+57
          1473.64130	         1.02816e+58
          1474.44760	         1.01355e+58
          1475.25390	         9.27494e+57
          1476.06020	         8.61094e+57
          1476.86650	         8.89267e+57
          1477.67280	         9.38060e+57
          1478.47910	         7.62948e+57
          1479.28540	         6.80845e+57
          1480.09170	         8.58611e+57
          1480.89800	         7.98916e+57
          1481.70430	         8.61004e+57
          1482.51060	         8.31489e+57
          1483.31690	         7.30907e+57
          1484.12320	         7.61207e+57
          1484.92950	         6.34400e+57
          1485.73580	         7.47148e+57
          1486.54210	         8.37992e+57
          1487.34840	         8.61236e+57
          1488.15470	         9.11174e+57
          1488.96100	         8.93997e+57
          1489.76730	         8.60053e+57
