#sample_424_stacked_spectrum_rest_UV-bands_median_H-alpha_noDC.txt
#median Lum: 1.70885e+42
#Rest-frame wavelength (A) | Luminosity (erg/s/A)
#
          1110.00000	         0.00000e+00
          1110.80630	         3.27519e+59
          1111.61260	         2.43679e+59
          1112.41890	         3.18449e+59
          1113.22520	         5.83888e+58
          1114.03150	        -1.93638e+59
          1114.83780	         1.13888e+59
          1115.64410	         5.34269e+58
          1116.45040	         1.42793e+59
          1117.25670	         1.05580e+59
          1118.06300	         1.44745e+59
          1118.86930	         9.57842e+58
          1119.67560	         1.81393e+59
          1120.48190	        -1.74848e+58
          1121.28820	        -5.06283e+58
          1122.09450	         2.87930e+58
          1122.90080	         2.78776e+57
          1123.70710	         5.11012e+58
          1124.51340	         4.17193e+58
          1125.31970	        -3.04265e+58
          1126.12600	         2.78670e+58
          1126.93230	        -3.12440e+58
          1127.73860	        -4.09121e+58
          1128.54490	         1.51984e+58
          1129.35120	         5.55377e+57
          1130.15750	         6.63699e+57
          1130.96380	        -1.67563e+58
          1131.77010	         4.01717e+58
          1132.57640	         3.57342e+58
          1133.38270	         2.13080e+58
          1134.18900	        -1.87581e+58
          1134.99530	        -1.42666e+57
          1135.80160	         4.57214e+58
          1136.60790	         1.73181e+58
          1137.41420	        -3.34661e+57
          1138.22050	         3.57882e+58
          1139.02680	         3.07877e+58
          1139.83310	         1.27391e+58
          1140.63940	         1.99547e+58
          1141.44570	        -8.20211e+57
          1142.25200	         1.30845e+58
          1143.05830	         3.57606e+58
          1143.86460	         2.34462e+58
          1144.67090	         2.09762e+58
          1145.47720	         2.48060e+58
          1146.28350	         1.94937e+58
          1147.08980	         2.13593e+58
          1147.89610	         9.90111e+57
          1148.70240	         2.74456e+58
          1149.50870	         1.85930e+58
          1150.31500	         6.02182e+57
          1151.12130	         1.06702e+58
          1151.92760	         5.72654e+57
          1152.73390	        -1.95383e+55
          1153.54020	         1.09939e+58
          1154.34650	         2.33953e+58
          1155.15280	         2.21706e+58
          1155.95910	         1.66978e+58
          1156.76540	         3.50037e+57
          1157.57170	        -1.08454e+58
          1158.37800	        -5.24635e+57
          1159.18430	        -1.68860e+57
          1159.99060	         1.38210e+58
          1160.79690	         1.17929e+58
          1161.60320	         8.43268e+57
          1162.40950	         2.11055e+58
          1163.21580	         1.03163e+58
          1164.02210	         1.04268e+58
          1164.82840	         1.09543e+58
          1165.63470	         2.63581e+58
          1166.44100	         2.95960e+58
          1167.24730	         1.94189e+58
          1168.05360	         7.77083e+57
          1168.85990	         1.03453e+58
          1169.66620	         8.08243e+57
          1170.47250	         1.95324e+58
          1171.27880	         1.90110e+58
          1172.08510	         2.72002e+58
          1172.89140	         9.61660e+57
          1173.69770	         1.05024e+58
          1174.50400	         8.68904e+57
          1175.31030	         1.09674e+58
          1176.11660	         1.52789e+58
          1176.92290	         1.27449e+58
          1177.72920	         1.00492e+58
          1178.53550	         6.92101e+57
          1179.34180	         6.75712e+57
          1180.14810	         6.62561e+57
          1180.95440	         8.67877e+57
          1181.76070	         6.45573e+57
          1182.56700	         7.89085e+57
          1183.37330	         2.93106e+57
          1184.17960	         1.12945e+58
          1184.98590	         1.18969e+58
          1185.79220	         1.88322e+58
          1186.59850	         1.71254e+58
          1187.40480	         8.72682e+57
          1188.21110	         1.07152e+58
          1189.01740	         1.28669e+58
          1189.82370	         6.93793e+57
          1190.63000	         9.08651e+57
          1191.43630	         1.46521e+58
          1192.24260	         4.52101e+57
          1193.04890	         1.42279e+58
          1193.85520	         1.63050e+58
          1194.66150	         2.32812e+57
          1195.46780	         1.02879e+58
          1196.27410	         1.57527e+58
          1197.08040	         9.44733e+57
          1197.88670	         1.43775e+58
          1198.69300	         1.62672e+58
          1199.49930	         1.68717e+58
          1200.30560	         1.07319e+58
          1201.11190	         1.18451e+58
          1201.91820	         1.34029e+58
          1202.72450	         7.43347e+57
          1203.53080	         1.56583e+58
          1204.33710	         1.33878e+58
          1205.14340	         4.79273e+57
          1205.94970	         5.86226e+57
          1206.75600	         8.14971e+57
          1207.56230	         5.92403e+57
          1208.36860	         1.01260e+58
          1209.17490	         2.94321e+57
          1209.98120	         6.58593e+57
          1210.78750	         5.22055e+57
          1211.59380	         1.05401e+58
          1212.40010	         1.66847e+58
          1213.20640	         1.73225e+58
          1214.01270	         1.82225e+58
          1214.81900	         2.77905e+58
          1215.62530	         4.85255e+58
          1216.43160	         9.21293e+58
          1217.23790	         1.53555e+59
          1218.04420	         1.16061e+59
          1218.85050	         8.88912e+58
          1219.65680	         6.14426e+58
          1220.46310	         3.70958e+58
          1221.26940	         2.31615e+58
          1222.07570	         1.12798e+58
          1222.88200	         8.67198e+57
          1223.68830	         7.62187e+57
          1224.49460	         9.59528e+57
          1225.30090	         6.92515e+57
          1226.10720	         5.49797e+57
          1226.91350	         6.66622e+57
          1227.71980	         6.53542e+57
          1228.52610	         7.40937e+57
          1229.33240	         8.49279e+57
          1230.13870	         1.00632e+58
          1230.94500	         8.39556e+57
          1231.75130	         4.81404e+57
          1232.55760	         8.65137e+57
          1233.36390	         7.81168e+57
          1234.17020	         7.95385e+57
          1234.97650	         7.55411e+57
          1235.78280	         8.72197e+57
          1236.58910	         1.12389e+58
          1237.39540	         1.06515e+58
          1238.20170	         9.54648e+57
          1239.00800	         1.43322e+58
          1239.81430	         1.67144e+58
          1240.62060	         1.10053e+58
          1241.42690	         1.14145e+58
          1242.23320	         1.24987e+58
          1243.03950	         7.51746e+57
          1243.84580	         7.79849e+57
          1244.65210	         1.20616e+58
          1245.45840	         1.17980e+58
          1246.26470	         8.66674e+57
          1247.07100	         7.61031e+57
          1247.87730	         7.01921e+57
          1248.68360	         5.11763e+57
          1249.48990	         6.97174e+57
          1250.29620	         1.10629e+58
          1251.10250	         8.90677e+57
          1251.90880	         5.03197e+57
          1252.71510	         5.52655e+57
          1253.52140	         7.86236e+57
          1254.32770	         1.12448e+58
          1255.13400	         1.37276e+58
          1255.94030	         1.19261e+58
          1256.74660	         1.10817e+58
          1257.55290	         1.02900e+58
          1258.35920	         8.00578e+57
          1259.16550	         4.65587e+57
          1259.97180	         3.59796e+57
          1260.77810	         7.37066e+57
          1261.58440	         9.76009e+57
          1262.39070	         8.45700e+57
          1263.19700	         7.22321e+57
          1264.00330	         8.77372e+57
          1264.80960	         1.08630e+58
          1265.61590	         1.23856e+58
          1266.42220	         1.24534e+58
          1267.22850	         1.22922e+58
          1268.03480	         1.50284e+58
          1268.84110	         1.51752e+58
          1269.64740	         1.29829e+58
          1270.45370	         1.21188e+58
          1271.26000	         1.25827e+58
          1272.06630	         1.30611e+58
          1272.87260	         1.19761e+58
          1273.67890	         1.13234e+58
          1274.48520	         1.28428e+58
          1275.29150	         1.30147e+58
          1276.09780	         1.05643e+58
          1276.90410	         1.46888e+58
          1277.71040	         1.33664e+58
          1278.51670	         1.05345e+58
          1279.32300	         1.27013e+58
          1280.12930	         1.43243e+58
          1280.93560	         1.20553e+58
          1281.74190	         1.23867e+58
          1282.54820	         1.41459e+58
          1283.35450	         1.14725e+58
          1284.16080	         9.82716e+57
          1284.96710	         1.04369e+58
          1285.77340	         1.20651e+58
          1286.57970	         1.12870e+58
          1287.38600	         1.49986e+58
          1288.19230	         1.51480e+58
          1288.99860	         1.14325e+58
          1289.80490	         1.03288e+58
          1290.61120	         1.25898e+58
          1291.41750	         1.50639e+58
          1292.22380	         1.29630e+58
          1293.03010	         1.03936e+58
          1293.83640	         1.23727e+58
          1294.64270	         1.18289e+58
          1295.44900	         7.90559e+57
          1296.25530	         7.64050e+57
          1297.06160	         8.31765e+57
          1297.86790	         9.15310e+57
          1298.67420	         9.84957e+57
          1299.48050	         8.42185e+57
          1300.28680	         9.46343e+57
          1301.09310	         8.76373e+57
          1301.89940	         4.62408e+57
          1302.70570	         5.90046e+57
          1303.51200	         8.47298e+57
          1304.31830	         1.05722e+58
          1305.12460	         1.18608e+58
          1305.93090	         1.13931e+58
          1306.73720	         1.18322e+58
          1307.54350	         1.46567e+58
          1308.34980	         1.39175e+58
          1309.15610	         1.55462e+58
          1309.96240	         1.73107e+58
          1310.76870	         1.28161e+58
          1311.57500	         1.19784e+58
          1312.38130	         1.03720e+58
          1313.18760	         1.16315e+58
          1313.99390	         1.69831e+58
          1314.80020	         1.59225e+58
          1315.60650	         1.69040e+58
          1316.41280	         1.52874e+58
          1317.21910	         1.23011e+58
          1318.02540	         1.23016e+58
          1318.83170	         1.17291e+58
          1319.63800	         1.26236e+58
          1320.44430	         1.27296e+58
          1321.25060	         1.21037e+58
          1322.05690	         1.12148e+58
          1322.86320	         1.06998e+58
          1323.66950	         1.15440e+58
          1324.47580	         9.72056e+57
          1325.28210	         9.25653e+57
          1326.08840	         1.05019e+58
          1326.89470	         1.16964e+58
          1327.70100	         1.08527e+58
          1328.50730	         9.21327e+57
          1329.31360	         9.81535e+57
          1330.11990	         9.15772e+57
          1330.92620	         8.51761e+57
          1331.73250	         1.12589e+58
          1332.53880	         1.16777e+58
          1333.34510	         9.85459e+57
          1334.15140	         9.66270e+57
          1334.95770	         9.75047e+57
          1335.76400	         1.09489e+58
          1336.57030	         1.16926e+58
          1337.37660	         1.05196e+58
          1338.18290	         1.04323e+58
          1338.98920	         1.12202e+58
          1339.79550	         1.19810e+58
          1340.60180	         1.28479e+58
          1341.40810	         1.48524e+58
          1342.21440	         1.12031e+58
          1343.02070	         9.27661e+57
          1343.82700	         1.24517e+58
          1344.63330	         1.55240e+58
          1345.43960	         1.46297e+58
          1346.24590	         1.11108e+58
          1347.05220	         1.25639e+58
          1347.85850	         1.14920e+58
          1348.66480	         1.15343e+58
          1349.47110	         1.07591e+58
          1350.27740	         9.52789e+57
          1351.08370	         1.10924e+58
          1351.89000	         1.21580e+58
          1352.69630	         1.12043e+58
          1353.50260	         1.20677e+58
          1354.30890	         1.27685e+58
          1355.11520	         1.21621e+58
          1355.92150	         1.23085e+58
          1356.72780	         1.09647e+58
          1357.53410	         1.11583e+58
          1358.34040	         1.08758e+58
          1359.14670	         1.03734e+58
          1359.95300	         1.19172e+58
          1360.75930	         1.20798e+58
          1361.56560	         1.07263e+58
          1362.37190	         1.10430e+58
          1363.17820	         1.06250e+58
          1363.98450	         1.11063e+58
          1364.79080	         1.33825e+58
          1365.59710	         1.28334e+58
          1366.40340	         1.08331e+58
          1367.20970	         8.88876e+57
          1368.01600	         8.61830e+57
          1368.82230	         9.06424e+57
          1369.62860	         1.06262e+58
          1370.43490	         9.56846e+57
          1371.24120	         8.59239e+57
          1372.04750	         7.38436e+57
          1372.85380	         9.29415e+57
          1373.66010	         1.11521e+58
          1374.46640	         1.13756e+58
          1375.27270	         1.10841e+58
          1376.07900	         9.66490e+57
          1376.88530	         9.37012e+57
          1377.69160	         9.82551e+57
          1378.49790	         8.97578e+57
          1379.30420	         8.27705e+57
          1380.11050	         9.07804e+57
          1380.91680	         8.11843e+57
          1381.72310	         7.56795e+57
          1382.52940	         8.65863e+57
          1383.33570	         7.86437e+57
          1384.14200	         9.28593e+57
          1384.94830	         1.17539e+58
          1385.75460	         9.93320e+57
          1386.56090	         9.85879e+57
          1387.36720	         1.02866e+58
          1388.17350	         1.33187e+58
          1388.97980	         1.34071e+58
          1389.78610	         9.75914e+57
          1390.59240	         7.80300e+57
          1391.39870	         8.46963e+57
          1392.20500	         8.57479e+57
          1393.01130	         7.39490e+57
          1393.81760	         7.31398e+57
          1394.62390	         7.57870e+57
          1395.43020	         6.59243e+57
          1396.23650	         6.69685e+57
          1397.04280	         6.95523e+57
          1397.84910	         8.06244e+57
          1398.65540	         8.97917e+57
          1399.46170	         9.58091e+57
          1400.26800	         8.16869e+57
          1401.07430	         6.45953e+57
          1401.88060	         7.35064e+57
          1402.68690	         9.26989e+57
          1403.49320	         1.03115e+58
          1404.29950	         9.00803e+57
          1405.10580	         1.00879e+58
          1405.91210	         1.16216e+58
          1406.71840	         1.08770e+58
          1407.52470	         1.05780e+58
          1408.33100	         9.77122e+57
          1409.13730	         1.02409e+58
          1409.94360	         1.04061e+58
          1410.74990	         1.08749e+58
          1411.55620	         1.08767e+58
          1412.36250	         9.99307e+57
          1413.16880	         8.42286e+57
          1413.97510	         6.69068e+57
          1414.78140	         7.34299e+57
          1415.58770	         9.49694e+57
          1416.39400	         1.11794e+58
          1417.20030	         1.17606e+58
          1418.00660	         9.64281e+57
          1418.81290	         9.42455e+57
          1419.61920	         1.02905e+58
          1420.42550	         1.20505e+58
          1421.23180	         1.21557e+58
          1422.03810	         1.16600e+58
          1422.84440	         1.22669e+58
          1423.65070	         1.34708e+58
          1424.45700	         1.09067e+58
          1425.26330	         8.62326e+57
          1426.06960	         8.29440e+57
          1426.87590	         9.14052e+57
          1427.68220	         9.59446e+57
          1428.48850	         1.04210e+58
          1429.29480	         1.07652e+58
          1430.10110	         9.16903e+57
          1430.90740	         8.66828e+57
          1431.71370	         9.63927e+57
          1432.52000	         9.04741e+57
          1433.32630	         8.01729e+57
          1434.13260	         7.61099e+57
          1434.93890	         8.09819e+57
          1435.74520	         8.79325e+57
          1436.55150	         8.97756e+57
          1437.35780	         9.22232e+57
          1438.16410	         9.22362e+57
          1438.97040	         8.20335e+57
          1439.77670	         8.63342e+57
          1440.58300	         1.00333e+58
          1441.38930	         1.05494e+58
          1442.19560	         1.00125e+58
          1443.00190	         1.00920e+58
          1443.80820	         1.09074e+58
          1444.61450	         1.03336e+58
          1445.42080	         8.23210e+57
          1446.22710	         9.72331e+57
          1447.03340	         1.08810e+58
          1447.83970	         1.12020e+58
          1448.64600	         1.25220e+58
          1449.45230	         1.06196e+58
          1450.25860	         9.02193e+57
          1451.06490	         7.81603e+57
          1451.87120	         6.93011e+57
          1452.67750	         7.56123e+57
          1453.48380	         8.43405e+57
          1454.29010	         8.44609e+57
          1455.09640	         8.09577e+57
          1455.90270	         8.54181e+57
          1456.70900	         9.74874e+57
          1457.51530	         1.09813e+58
          1458.32160	         1.18332e+58
          1459.12790	         1.17121e+58
          1459.93420	         9.64842e+57
          1460.74050	         7.30491e+57
          1461.54680	         8.03780e+57
          1462.35310	         8.67121e+57
          1463.15940	         8.62611e+57
          1463.96570	         1.02931e+58
          1464.77200	         1.15426e+58
          1465.57830	         1.12296e+58
          1466.38460	         1.01292e+58
          1467.19090	         9.80427e+57
          1467.99720	         1.01662e+58
          1468.80350	         1.04331e+58
          1469.60980	         9.98082e+57
          1470.41610	         1.05842e+58
          1471.22240	         9.46526e+57
          1472.02870	         8.72480e+57
          1472.83500	         8.79438e+57
          1473.64130	         9.40159e+57
          1474.44760	         9.26416e+57
          1475.25390	         9.36114e+57
          1476.06020	         8.83511e+57
          1476.86650	         7.62477e+57
          1477.67280	         7.37817e+57
          1478.47910	         6.36166e+57
          1479.28540	         5.75794e+57
          1480.09170	         7.81349e+57
          1480.89800	         9.32113e+57
          1481.70430	         8.90101e+57
          1482.51060	         7.72470e+57
          1483.31690	         7.65214e+57
          1484.12320	         6.94058e+57
          1484.92950	         7.62896e+57
          1485.73580	         8.50461e+57
          1486.54210	         8.90798e+57
          1487.34840	         9.58623e+57
          1488.15470	         8.16066e+57
          1488.96100	         7.85951e+57
          1489.76730	         8.49801e+57
