#sample_279_stacked_spectrum_rest_UV-bands_median_H-alpha_noDC.txt
#median Lum: 1.73151e+42
#Rest-frame wavelength (A) | Luminosity (erg/s/A)
#
          1110.00000	         0.00000e+00
          1110.80630	         1.03479e+59
          1111.61260	         1.41548e+59
          1112.41890	         1.24934e+59
          1113.22520	        -9.68192e+58
          1114.03150	        -7.53105e+58
          1114.83780	         7.64400e+58
          1115.64410	         1.46673e+59
          1116.45040	         1.58907e+59
          1117.25670	         1.22027e+59
          1118.06300	         1.78521e+59
          1118.86930	        -5.17392e+58
          1119.67560	         1.12895e+59
          1120.48190	        -2.59425e+57
          1121.28820	        -1.21866e+59
          1122.09450	        -3.05937e+57
          1122.90080	         4.63278e+58
          1123.70710	         1.97300e+58
          1124.51340	         5.75952e+58
          1125.31970	         2.08456e+58
          1126.12600	         4.51737e+58
          1126.93230	        -1.11466e+58
          1127.73860	        -4.90105e+58
          1128.54490	         3.18378e+58
          1129.35120	        -9.11128e+56
          1130.15750	         1.04364e+58
          1130.96380	        -1.47712e+58
          1131.77010	         4.57053e+58
          1132.57640	         4.63394e+58
          1133.38270	         3.49739e+58
          1134.18900	         1.51358e+58
          1134.99530	         3.10115e+58
          1135.80160	         1.30780e+58
          1136.60790	         2.18090e+58
          1137.41420	         1.56707e+58
          1138.22050	         3.93993e+58
          1139.02680	         4.12773e+58
          1139.83310	         1.85051e+58
          1140.63940	         2.11720e+58
          1141.44570	         9.16389e+57
          1142.25200	        -2.93794e+57
          1143.05830	         2.65337e+58
          1143.86460	         3.45572e+58
          1144.67090	         2.58558e+58
          1145.47720	         6.07621e+57
          1146.28350	         6.98279e+57
          1147.08980	         2.19267e+58
          1147.89610	         2.69455e+58
          1148.70240	         2.48781e+58
          1149.50870	         2.44062e+58
          1150.31500	         1.71937e+58
          1151.12130	         3.07686e+57
          1151.92760	        -2.59069e+57
          1152.73390	         1.11968e+58
          1153.54020	         8.42953e+57
          1154.34650	         2.34468e+58
          1155.15280	         1.86486e+58
          1155.95910	         1.65630e+58
          1156.76540	         5.97062e+57
          1157.57170	         3.38404e+57
          1158.37800	         4.30992e+57
          1159.18430	         3.20390e+57
          1159.99060	         1.17638e+58
          1160.79690	         1.40023e+58
          1161.60320	         1.79486e+58
          1162.40950	         1.51264e+58
          1163.21580	         2.34547e+58
          1164.02210	         1.73844e+58
          1164.82840	         1.76783e+58
          1165.63470	         2.30805e+58
          1166.44100	         3.66419e+58
          1167.24730	         2.37716e+58
          1168.05360	         7.06004e+57
          1168.85990	         4.30328e+57
          1169.66620	         5.10352e+57
          1170.47250	         7.30746e+57
          1171.27880	         9.87462e+57
          1172.08510	         1.97414e+58
          1172.89140	         1.80876e+58
          1173.69770	         1.50203e+57
          1174.50400	         1.28393e+58
          1175.31030	         2.02229e+58
          1176.11660	         1.35422e+58
          1176.92290	         1.57446e+58
          1177.72920	         1.83723e+58
          1178.53550	         8.14459e+57
          1179.34180	         3.27424e+57
          1180.14810	         4.71911e+57
          1180.95440	         4.16487e+57
          1181.76070	         4.46761e+57
          1182.56700	         3.98759e+57
          1183.37330	         3.16350e+57
          1184.17960	         9.65033e+57
          1184.98590	         1.13374e+58
          1185.79220	         1.01857e+58
          1186.59850	         1.34596e+58
          1187.40480	         1.27432e+58
          1188.21110	         1.51168e+58
          1189.01740	         1.24230e+58
          1189.82370	         7.27218e+57
          1190.63000	         1.33690e+58
          1191.43630	         1.74676e+58
          1192.24260	         1.11115e+58
          1193.04890	         1.15637e+58
          1193.85520	         8.77567e+57
          1194.66150	         4.54307e+57
          1195.46780	         7.68835e+57
          1196.27410	         9.92115e+57
          1197.08040	         7.25748e+57
          1197.88670	         1.30793e+58
          1198.69300	         1.72993e+58
          1199.49930	         2.14402e+58
          1200.30560	         1.17658e+58
          1201.11190	         7.40889e+57
          1201.91820	         9.31251e+57
          1202.72450	         1.17102e+58
          1203.53080	         1.25074e+58
          1204.33710	         9.21181e+57
          1205.14340	         5.34818e+57
          1205.94970	         7.38641e+57
          1206.75600	         7.19382e+57
          1207.56230	         6.31108e+57
          1208.36860	         5.73633e+57
          1209.17490	         3.35415e+57
          1209.98120	         6.48334e+57
          1210.78750	         8.39686e+57
          1211.59380	         1.48732e+58
          1212.40010	         2.09377e+58
          1213.20640	         1.82005e+58
          1214.01270	         1.96952e+58
          1214.81900	         2.82622e+58
          1215.62530	         4.49052e+58
          1216.43160	         9.14443e+58
          1217.23790	         1.54144e+59
          1218.04420	         1.17872e+59
          1218.85050	         9.38764e+58
          1219.65680	         6.21935e+58
          1220.46310	         3.30418e+58
          1221.26940	         2.40117e+58
          1222.07570	         1.22120e+58
          1222.88200	         1.12305e+58
          1223.68830	         1.17430e+58
          1224.49460	         7.58728e+57
          1225.30090	         8.25568e+57
          1226.10720	         8.01593e+57
          1226.91350	         8.39335e+57
          1227.71980	         1.31816e+58
          1228.52610	         1.33573e+58
          1229.33240	         6.00665e+57
          1230.13870	         5.78791e+57
          1230.94500	         8.53267e+57
          1231.75130	         4.84288e+57
          1232.55760	         6.27643e+57
          1233.36390	         8.43576e+57
          1234.17020	         1.06614e+58
          1234.97650	         8.30594e+57
          1235.78280	         8.61594e+57
          1236.58910	         1.17148e+58
          1237.39540	         1.17652e+58
          1238.20170	         1.02225e+58
          1239.00800	         1.35018e+58
          1239.81430	         1.81247e+58
          1240.62060	         1.25949e+58
          1241.42690	         9.84175e+57
          1242.23320	         1.16429e+58
          1243.03950	         8.08749e+57
          1243.84580	         9.14583e+57
          1244.65210	         9.94971e+57
          1245.45840	         8.40466e+57
          1246.26470	         8.12200e+57
          1247.07100	         6.97818e+57
          1247.87730	         4.68455e+57
          1248.68360	         6.32333e+57
          1249.48990	         9.41779e+57
          1250.29620	         9.86286e+57
          1251.10250	         7.80812e+57
          1251.90880	         6.32190e+57
          1252.71510	         9.28145e+57
          1253.52140	         8.93922e+57
          1254.32770	         7.87771e+57
          1255.13400	         1.19942e+58
          1255.94030	         1.09150e+58
          1256.74660	         9.25959e+57
          1257.55290	         9.47810e+57
          1258.35920	         7.93287e+57
          1259.16550	         7.16559e+57
          1259.97180	         6.33503e+57
          1260.77810	         8.96027e+57
          1261.58440	         1.15061e+58
          1262.39070	         9.05016e+57
          1263.19700	         7.82255e+57
          1264.00330	         9.90143e+57
          1264.80960	         1.14105e+58
          1265.61590	         1.38843e+58
          1266.42220	         1.31149e+58
          1267.22850	         1.16270e+58
          1268.03480	         1.44678e+58
          1268.84110	         1.37041e+58
          1269.64740	         1.26777e+58
          1270.45370	         1.41589e+58
          1271.26000	         1.09563e+58
          1272.06630	         1.18090e+58
          1272.87260	         1.47931e+58
          1273.67890	         1.37556e+58
          1274.48520	         1.26051e+58
          1275.29150	         1.20141e+58
          1276.09780	         1.18219e+58
          1276.90410	         1.39058e+58
          1277.71040	         1.37803e+58
          1278.51670	         1.45660e+58
          1279.32300	         1.60918e+58
          1280.12930	         1.32296e+58
          1280.93560	         1.09516e+58
          1281.74190	         1.16771e+58
          1282.54820	         1.33191e+58
          1283.35450	         1.15667e+58
          1284.16080	         1.18141e+58
          1284.96710	         1.17396e+58
          1285.77340	         1.11035e+58
          1286.57970	         1.14191e+58
          1287.38600	         1.51206e+58
          1288.19230	         1.76159e+58
          1288.99860	         1.76258e+58
          1289.80490	         1.22824e+58
          1290.61120	         1.29078e+58
          1291.41750	         1.46782e+58
          1292.22380	         1.28481e+58
          1293.03010	         1.24118e+58
          1293.83640	         1.24479e+58
          1294.64270	         1.03013e+58
          1295.44900	         8.44505e+57
          1296.25530	         8.51057e+57
          1297.06160	         9.71577e+57
          1297.86790	         1.10616e+58
          1298.67420	         9.41270e+57
          1299.48050	         9.30478e+57
          1300.28680	         1.05852e+58
          1301.09310	         7.09006e+57
          1301.89940	         4.75126e+57
          1302.70570	         7.99294e+57
          1303.51200	         8.77660e+57
          1304.31830	         1.05253e+58
          1305.12460	         1.24566e+58
          1305.93090	         1.21798e+58
          1306.73720	         1.32785e+58
          1307.54350	         1.45069e+58
          1308.34980	         1.46918e+58
          1309.15610	         1.58172e+58
          1309.96240	         1.55705e+58
          1310.76870	         1.34027e+58
          1311.57500	         8.80148e+57
          1312.38130	         8.92615e+57
          1313.18760	         1.38646e+58
          1313.99390	         1.65800e+58
          1314.80020	         1.62274e+58
          1315.60650	         1.78661e+58
          1316.41280	         1.17305e+58
          1317.21910	         9.92551e+57
          1318.02540	         1.25895e+58
          1318.83170	         1.34074e+58
          1319.63800	         1.23363e+58
          1320.44430	         1.25324e+58
          1321.25060	         1.25237e+58
          1322.05690	         1.28486e+58
          1322.86320	         1.11108e+58
          1323.66950	         1.10226e+58
          1324.47580	         1.21802e+58
          1325.28210	         1.16781e+58
          1326.08840	         1.15433e+58
          1326.89470	         1.23732e+58
          1327.70100	         1.02316e+58
          1328.50730	         8.77500e+57
          1329.31360	         9.87856e+57
          1330.11990	         9.29476e+57
          1330.92620	         9.83065e+57
          1331.73250	         1.13904e+58
          1332.53880	         9.21000e+57
          1333.34510	         7.46965e+57
          1334.15140	         8.45530e+57
          1334.95770	         9.57837e+57
          1335.76400	         1.17112e+58
          1336.57030	         1.19050e+58
          1337.37660	         1.09400e+58
          1338.18290	         1.05429e+58
          1338.98920	         1.13350e+58
          1339.79550	         1.04993e+58
          1340.60180	         1.14719e+58
          1341.40810	         1.36353e+58
          1342.21440	         1.21170e+58
          1343.02070	         1.11183e+58
          1343.82700	         1.17695e+58
          1344.63330	         1.15967e+58
          1345.43960	         1.43278e+58
          1346.24590	         1.30493e+58
          1347.05220	         1.31559e+58
          1347.85850	         1.13092e+58
          1348.66480	         1.09827e+58
          1349.47110	         1.29966e+58
          1350.27740	         1.26721e+58
          1351.08370	         1.05175e+58
          1351.89000	         1.25751e+58
          1352.69630	         1.27945e+58
          1353.50260	         1.14765e+58
          1354.30890	         1.08150e+58
          1355.11520	         1.19708e+58
          1355.92150	         1.20812e+58
          1356.72780	         1.06827e+58
          1357.53410	         1.15318e+58
          1358.34040	         1.22025e+58
          1359.14670	         1.04355e+58
          1359.95300	         1.04683e+58
          1360.75930	         1.14100e+58
          1361.56560	         1.22228e+58
          1362.37190	         1.22043e+58
          1363.17820	         1.13110e+58
          1363.98450	         1.24372e+58
          1364.79080	         1.31175e+58
          1365.59710	         1.21663e+58
          1366.40340	         1.18748e+58
          1367.20970	         1.11682e+58
          1368.01600	         1.01566e+58
          1368.82230	         1.01884e+58
          1369.62860	         1.14267e+58
          1370.43490	         9.45438e+57
          1371.24120	         8.83081e+57
          1372.04750	         9.53975e+57
          1372.85380	         1.18212e+58
          1373.66010	         1.08992e+58
          1374.46640	         1.05205e+58
          1375.27270	         1.11502e+58
          1376.07900	         9.26273e+57
          1376.88530	         8.81527e+57
          1377.69160	         8.26667e+57
          1378.49790	         7.51958e+57
          1379.30420	         8.72660e+57
          1380.11050	         9.86086e+57
          1380.91680	         9.01701e+57
          1381.72310	         8.84869e+57
          1382.52940	         8.57195e+57
          1383.33570	         8.71856e+57
          1384.14200	         8.71187e+57
          1384.94830	         8.98853e+57
          1385.75460	         9.31656e+57
          1386.56090	         1.05454e+58
          1387.36720	         9.75509e+57
          1388.17350	         1.18413e+58
          1388.97980	         1.08990e+58
          1389.78610	         7.90564e+57
          1390.59240	         7.57597e+57
          1391.39870	         7.39433e+57
          1392.20500	         8.21969e+57
          1393.01130	         6.70436e+57
          1393.81760	         6.64741e+57
          1394.62390	         7.72032e+57
          1395.43020	         6.65860e+57
          1396.23650	         7.35745e+57
          1397.04280	         8.11402e+57
          1397.84910	         8.59090e+57
          1398.65540	         8.86379e+57
          1399.46170	         1.02241e+58
          1400.26800	         7.50612e+57
          1401.07430	         6.43979e+57
          1401.88060	         7.93761e+57
          1402.68690	         9.22445e+57
          1403.49320	         1.04704e+58
          1404.29950	         1.06404e+58
          1405.10580	         1.02376e+58
          1405.91210	         1.06388e+58
          1406.71840	         1.01246e+58
          1407.52470	         1.03038e+58
          1408.33100	         1.01653e+58
          1409.13730	         1.14625e+58
          1409.94360	         1.19182e+58
          1410.74990	         1.14760e+58
          1411.55620	         1.12358e+58
          1412.36250	         9.34412e+57
          1413.16880	         9.57309e+57
          1413.97510	         7.80238e+57
          1414.78140	         7.54455e+57
          1415.58770	         8.97168e+57
          1416.39400	         1.11127e+58
          1417.20030	         1.18204e+58
          1418.00660	         9.61351e+57
          1418.81290	         1.12146e+58
          1419.61920	         1.16752e+58
          1420.42550	         1.26171e+58
          1421.23180	         1.31026e+58
          1422.03810	         1.18374e+58
          1422.84440	         1.20225e+58
          1423.65070	         1.42504e+58
          1424.45700	         1.15223e+58
          1425.26330	         8.43128e+57
          1426.06960	         8.52153e+57
          1426.87590	         1.02611e+58
          1427.68220	         1.00085e+58
          1428.48850	         1.14777e+58
          1429.29480	         1.15106e+58
          1430.10110	         1.00094e+58
          1430.90740	         8.19716e+57
          1431.71370	         8.28599e+57
          1432.52000	         8.94119e+57
          1433.32630	         7.29363e+57
          1434.13260	         7.70388e+57
          1434.93890	         8.14303e+57
          1435.74520	         8.42921e+57
          1436.55150	         9.07782e+57
          1437.35780	         8.98113e+57
          1438.16410	         9.34398e+57
          1438.97040	         8.76012e+57
          1439.77670	         9.30333e+57
          1440.58300	         9.08323e+57
          1441.38930	         9.46502e+57
          1442.19560	         9.00969e+57
          1443.00190	         7.95103e+57
          1443.80820	         9.97925e+57
          1444.61450	         9.24543e+57
          1445.42080	         8.97030e+57
          1446.22710	         1.09791e+58
          1447.03340	         1.09428e+58
          1447.83970	         1.09562e+58
          1448.64600	         1.05636e+58
          1449.45230	         9.15881e+57
          1450.25860	         1.00432e+58
          1451.06490	         9.51439e+57
          1451.87120	         6.76549e+57
          1452.67750	         6.97658e+57
          1453.48380	         8.77736e+57
          1454.29010	         7.84329e+57
          1455.09640	         7.28653e+57
          1455.90270	         9.22533e+57
          1456.70900	         9.12581e+57
          1457.51530	         9.85251e+57
          1458.32160	         1.16946e+58
          1459.12790	         1.13338e+58
          1459.93420	         1.05364e+58
          1460.74050	         9.87803e+57
          1461.54680	         8.82605e+57
          1462.35310	         7.41084e+57
          1463.15940	         8.92545e+57
          1463.96570	         1.08197e+58
          1464.77200	         1.25321e+58
          1465.57830	         1.09698e+58
          1466.38460	         1.03081e+58
          1467.19090	         9.52415e+57
          1467.99720	         8.42395e+57
          1468.80350	         8.81660e+57
          1469.60980	         1.03521e+58
          1470.41610	         1.13971e+58
          1471.22240	         9.89173e+57
          1472.02870	         9.84855e+57
          1472.83500	         1.02557e+58
          1473.64130	         1.11231e+58
          1474.44760	         1.02822e+58
          1475.25390	         9.57208e+57
          1476.06020	         8.17107e+57
          1476.86650	         7.21030e+57
          1477.67280	         7.28806e+57
          1478.47910	         6.75498e+57
          1479.28540	         7.78421e+57
          1480.09170	         8.72043e+57
          1480.89800	         8.34787e+57
          1481.70430	         8.20586e+57
          1482.51060	         8.60720e+57
          1483.31690	         9.02543e+57
          1484.12320	         9.37916e+57
          1484.92950	         9.19781e+57
          1485.73580	         9.17397e+57
          1486.54210	         7.83229e+57
          1487.34840	         8.19929e+57
          1488.15470	         8.63717e+57
          1488.96100	         8.52826e+57
          1489.76730	         8.89852e+57
