#sample_387_stacked_spectrum_rest_UV-bands_median_H-alpha_noDC.txt
#median Lum: 1.70907e+42
#Rest-frame wavelength (A) | Luminosity (erg/s/A)
#
          1110.00000	         0.00000e+00
          1110.80630	         4.59761e+59
          1111.61260	         4.63184e+59
          1112.41890	         2.09015e+59
          1113.22520	         1.36675e+59
          1114.03150	        -1.20178e+59
          1114.83780	        -9.41150e+57
          1115.64410	         6.17976e+58
          1116.45040	         2.52749e+59
          1117.25670	         2.42527e+59
          1118.06300	         7.57711e+58
          1118.86930	        -1.44200e+58
          1119.67560	        -2.58004e+58
          1120.48190	         4.33104e+56
          1121.28820	        -7.34708e+58
          1122.09450	         1.59034e+58
          1122.90080	         1.02930e+59
          1123.70710	         6.64777e+58
          1124.51340	        -3.28142e+58
          1125.31970	        -4.60320e+57
          1126.12600	         2.65984e+58
          1126.93230	        -3.65725e+58
          1127.73860	        -8.77615e+58
          1128.54490	        -2.29535e+58
          1129.35120	        -8.59864e+57
          1130.15750	        -2.46879e+58
          1130.96380	        -4.06792e+58
          1131.77010	         6.90677e+58
          1132.57640	         2.34730e+58
          1133.38270	         3.95110e+57
          1134.18900	         1.41607e+58
          1134.99530	         1.94468e+58
          1135.80160	         2.35209e+58
          1136.60790	         2.46065e+58
          1137.41420	        -5.84402e+57
          1138.22050	         4.09864e+58
          1139.02680	         1.81471e+58
          1139.83310	         1.30731e+58
          1140.63940	         1.45255e+58
          1141.44570	        -3.40612e+58
          1142.25200	        -2.42772e+58
          1143.05830	         4.00278e+57
          1143.86460	         2.09710e+58
          1144.67090	         4.19406e+58
          1145.47720	         9.81456e+57
          1146.28350	         8.91655e+57
          1147.08980	         7.04842e+57
          1147.89610	         1.99696e+58
          1148.70240	         2.70101e+58
          1149.50870	         3.41122e+58
          1150.31500	         9.76044e+57
          1151.12130	        -5.26298e+57
          1151.92760	         7.50089e+57
          1152.73390	        -4.47074e+57
          1153.54020	         4.33846e+57
          1154.34650	         2.80648e+58
          1155.15280	         1.82566e+58
          1155.95910	         7.67658e+57
          1156.76540	         1.46080e+58
          1157.57170	         1.30918e+58
          1158.37800	        -1.19745e+57
          1159.18430	         1.58717e+57
          1159.99060	         4.20696e+57
          1160.79690	        -7.47858e+56
          1161.60320	         7.24895e+57
          1162.40950	         1.51058e+58
          1163.21580	         2.62232e+58
          1164.02210	         2.38578e+58
          1164.82840	         1.52346e+58
          1165.63470	         1.92773e+58
          1166.44100	         2.64370e+58
          1167.24730	         1.93928e+58
          1168.05360	         1.34261e+57
          1168.85990	         6.79489e+57
          1169.66620	         1.17650e+58
          1170.47250	         7.75908e+57
          1171.27880	         1.77399e+57
          1172.08510	         7.60805e+57
          1172.89140	         1.07755e+58
          1173.69770	         1.22786e+58
          1174.50400	         1.29740e+58
          1175.31030	         2.04819e+58
          1176.11660	         1.77327e+58
          1176.92290	         2.06715e+58
          1177.72920	         1.54469e+58
          1178.53550	         1.48425e+58
          1179.34180	         2.36200e+57
          1180.14810	         2.42700e+57
          1180.95440	         9.68781e+57
          1181.76070	         7.47035e+57
          1182.56700	         5.76741e+57
          1183.37330	         6.56156e+57
          1184.17960	         1.46773e+58
          1184.98590	         1.32475e+58
          1185.79220	         8.64021e+57
          1186.59850	         9.46942e+57
          1187.40480	         1.02438e+58
          1188.21110	         1.37441e+58
          1189.01740	         6.07262e+57
          1189.82370	         9.47618e+57
          1190.63000	         1.35741e+58
          1191.43630	         1.37451e+58
          1192.24260	         8.68489e+57
          1193.04890	         1.28687e+58
          1193.85520	         1.57704e+58
          1194.66150	         1.07670e+58
          1195.46780	         9.19745e+57
          1196.27410	         1.47039e+58
          1197.08040	         1.24559e+58
          1197.88670	         1.43191e+58
          1198.69300	         1.65210e+58
          1199.49930	         1.25686e+58
          1200.30560	         9.44736e+57
          1201.11190	         1.32693e+58
          1201.91820	         1.05615e+58
          1202.72450	         6.64933e+57
          1203.53080	         1.31952e+58
          1204.33710	         7.13494e+57
          1205.14340	         7.15834e+57
          1205.94970	         6.42645e+57
          1206.75600	         9.44610e+57
          1207.56230	         3.94022e+57
          1208.36860	         9.92479e+57
          1209.17490	         7.45569e+57
          1209.98120	         6.19027e+57
          1210.78750	         8.69417e+57
          1211.59380	         1.04832e+58
          1212.40010	         1.60497e+58
          1213.20640	         1.91894e+58
          1214.01270	         1.93931e+58
          1214.81900	         2.53547e+58
          1215.62530	         4.43121e+58
          1216.43160	         9.02135e+58
          1217.23790	         1.51651e+59
          1218.04420	         1.14286e+59
          1218.85050	         8.41114e+58
          1219.65680	         5.47330e+58
          1220.46310	         3.29912e+58
          1221.26940	         2.43665e+58
          1222.07570	         1.58114e+58
          1222.88200	         1.07652e+58
          1223.68830	         9.03966e+57
          1224.49460	         7.82647e+57
          1225.30090	         6.83146e+57
          1226.10720	         6.95263e+57
          1226.91350	         8.93963e+57
          1227.71980	         1.09641e+58
          1228.52610	         1.10996e+58
          1229.33240	         8.73978e+57
          1230.13870	         8.17834e+57
          1230.94500	         8.80384e+57
          1231.75130	         8.17546e+57
          1232.55760	         9.43068e+57
          1233.36390	         8.59372e+57
          1234.17020	         6.49217e+57
          1234.97650	         4.88057e+57
          1235.78280	         7.16136e+57
          1236.58910	         9.00879e+57
          1237.39540	         1.20087e+58
          1238.20170	         1.29209e+58
          1239.00800	         1.24044e+58
          1239.81430	         1.32279e+58
          1240.62060	         1.18895e+58
          1241.42690	         1.01962e+58
          1242.23320	         9.71670e+57
          1243.03950	         9.16236e+57
          1243.84580	         1.02589e+58
          1244.65210	         1.09151e+58
          1245.45840	         1.02793e+58
          1246.26470	         9.89118e+57
          1247.07100	         8.19666e+57
          1247.87730	         6.40827e+57
          1248.68360	         4.93201e+57
          1249.48990	         7.80465e+57
          1250.29620	         1.07474e+58
          1251.10250	         7.34434e+57
          1251.90880	         4.03818e+57
          1252.71510	         5.67706e+57
          1253.52140	         9.65121e+57
          1254.32770	         1.01639e+58
          1255.13400	         1.05410e+58
          1255.94030	         8.88052e+57
          1256.74660	         8.82452e+57
          1257.55290	         9.82691e+57
          1258.35920	         6.56831e+57
          1259.16550	         5.04610e+57
          1259.97180	         5.05923e+57
          1260.77810	         7.55954e+57
          1261.58440	         1.07311e+58
          1262.39070	         9.08816e+57
          1263.19700	         7.22971e+57
          1264.00330	         5.81262e+57
          1264.80960	         9.14771e+57
          1265.61590	         1.20375e+58
          1266.42220	         1.21654e+58
          1267.22850	         1.07857e+58
          1268.03480	         1.32303e+58
          1268.84110	         1.28931e+58
          1269.64740	         1.23154e+58
          1270.45370	         1.19287e+58
          1271.26000	         1.25912e+58
          1272.06630	         1.48184e+58
          1272.87260	         1.27166e+58
          1273.67890	         1.29398e+58
          1274.48520	         1.21143e+58
          1275.29150	         1.07271e+58
          1276.09780	         8.46853e+57
          1276.90410	         1.31590e+58
          1277.71040	         1.39836e+58
          1278.51670	         1.21194e+58
          1279.32300	         1.47184e+58
          1280.12930	         1.35083e+58
          1280.93560	         1.15682e+58
          1281.74190	         1.28441e+58
          1282.54820	         1.24568e+58
          1283.35450	         1.05991e+58
          1284.16080	         1.03081e+58
          1284.96710	         1.26164e+58
          1285.77340	         1.30067e+58
          1286.57970	         9.01197e+57
          1287.38600	         1.30399e+58
          1288.19230	         1.77365e+58
          1288.99860	         1.65744e+58
          1289.80490	         1.13360e+58
          1290.61120	         9.85287e+57
          1291.41750	         1.33106e+58
          1292.22380	         1.29437e+58
          1293.03010	         1.05087e+58
          1293.83640	         8.36890e+57
          1294.64270	         8.19626e+57
          1295.44900	         8.35276e+57
          1296.25530	         7.97989e+57
          1297.06160	         1.00322e+58
          1297.86790	         1.12193e+58
          1298.67420	         1.01852e+58
          1299.48050	         1.04603e+58
          1300.28680	         1.13384e+58
          1301.09310	         8.30321e+57
          1301.89940	         3.83665e+57
          1302.70570	         4.28512e+57
          1303.51200	         8.06225e+57
          1304.31830	         1.12223e+58
          1305.12460	         1.13618e+58
          1305.93090	         1.17898e+58
          1306.73720	         1.24982e+58
          1307.54350	         1.43842e+58
          1308.34980	         1.37840e+58
          1309.15610	         1.41185e+58
          1309.96240	         1.42300e+58
          1310.76870	         1.37862e+58
          1311.57500	         1.32544e+58
          1312.38130	         1.18700e+58
          1313.18760	         1.34368e+58
          1313.99390	         1.44007e+58
          1314.80020	         1.53340e+58
          1315.60650	         1.59387e+58
          1316.41280	         1.36470e+58
          1317.21910	         1.18819e+58
          1318.02540	         1.16985e+58
          1318.83170	         1.12193e+58
          1319.63800	         1.13696e+58
          1320.44430	         1.02189e+58
          1321.25060	         1.11681e+58
          1322.05690	         1.26706e+58
          1322.86320	         1.20099e+58
          1323.66950	         1.15232e+58
          1324.47580	         8.89606e+57
          1325.28210	         9.77960e+57
          1326.08840	         1.07797e+58
          1326.89470	         1.24193e+58
          1327.70100	         1.06071e+58
          1328.50730	         8.59387e+57
          1329.31360	         9.46097e+57
          1330.11990	         9.43343e+57
          1330.92620	         8.56879e+57
          1331.73250	         9.83614e+57
          1332.53880	         1.04231e+58
          1333.34510	         9.00264e+57
          1334.15140	         8.19943e+57
          1334.95770	         7.60972e+57
          1335.76400	         8.80175e+57
          1336.57030	         1.01366e+58
          1337.37660	         1.13662e+58
          1338.18290	         1.21588e+58
          1338.98920	         1.09221e+58
          1339.79550	         1.05053e+58
          1340.60180	         1.09721e+58
          1341.40810	         1.16926e+58
          1342.21440	         1.14803e+58
          1343.02070	         1.27623e+58
          1343.82700	         1.47603e+58
          1344.63330	         1.40782e+58
          1345.43960	         1.47601e+58
          1346.24590	         1.31558e+58
          1347.05220	         1.14205e+58
          1347.85850	         1.05906e+58
          1348.66480	         1.27557e+58
          1349.47110	         1.25569e+58
          1350.27740	         1.16085e+58
          1351.08370	         1.22879e+58
          1351.89000	         1.16836e+58
          1352.69630	         1.16305e+58
          1353.50260	         9.90414e+57
          1354.30890	         1.08627e+58
          1355.11520	         1.17703e+58
          1355.92150	         1.21424e+58
          1356.72780	         1.07397e+58
          1357.53410	         9.27190e+57
          1358.34040	         1.02336e+58
          1359.14670	         1.04448e+58
          1359.95300	         1.13586e+58
          1360.75930	         1.15320e+58
          1361.56560	         1.00503e+58
          1362.37190	         1.15610e+58
          1363.17820	         1.08101e+58
          1363.98450	         1.05453e+58
          1364.79080	         1.09088e+58
          1365.59710	         1.07694e+58
          1366.40340	         1.05480e+58
          1367.20970	         1.07535e+58
          1368.01600	         9.25844e+57
          1368.82230	         8.71111e+57
          1369.62860	         1.01236e+58
          1370.43490	         8.21943e+57
          1371.24120	         8.13300e+57
          1372.04750	         8.65537e+57
          1372.85380	         1.11923e+58
          1373.66010	         1.07444e+58
          1374.46640	         8.46214e+57
          1375.27270	         9.21482e+57
          1376.07900	         8.25557e+57
          1376.88530	         7.32170e+57
          1377.69160	         8.06205e+57
          1378.49790	         7.95835e+57
          1379.30420	         8.38910e+57
          1380.11050	         8.08173e+57
          1380.91680	         6.75647e+57
          1381.72310	         7.34916e+57
          1382.52940	         7.33909e+57
          1383.33570	         7.63547e+57
          1384.14200	         9.51707e+57
          1384.94830	         1.16877e+58
          1385.75460	         1.14795e+58
          1386.56090	         1.09072e+58
          1387.36720	         1.13309e+58
          1388.17350	         1.25032e+58
          1388.97980	         1.05030e+58
          1389.78610	         8.20500e+57
          1390.59240	         8.52425e+57
          1391.39870	         8.23508e+57
          1392.20500	         9.07200e+57
          1393.01130	         7.51126e+57
          1393.81760	         7.25630e+57
          1394.62390	         7.78113e+57
          1395.43020	         6.60043e+57
          1396.23650	         6.63760e+57
          1397.04280	         7.56194e+57
          1397.84910	         8.76438e+57
          1398.65540	         9.52115e+57
          1399.46170	         9.65547e+57
          1400.26800	         8.19259e+57
          1401.07430	         5.56830e+57
          1401.88060	         6.14683e+57
          1402.68690	         7.86809e+57
          1403.49320	         9.07074e+57
          1404.29950	         8.64013e+57
          1405.10580	         9.57554e+57
          1405.91210	         1.08300e+58
          1406.71840	         1.12182e+58
          1407.52470	         1.13819e+58
          1408.33100	         1.02107e+58
          1409.13730	         1.09316e+58
          1409.94360	         1.14958e+58
          1410.74990	         1.12226e+58
          1411.55620	         9.19888e+57
          1412.36250	         8.28070e+57
          1413.16880	         8.29093e+57
          1413.97510	         8.44059e+57
          1414.78140	         9.34769e+57
          1415.58770	         9.00663e+57
          1416.39400	         9.75179e+57
          1417.20030	         1.15208e+58
          1418.00660	         9.73022e+57
          1418.81290	         9.60892e+57
          1419.61920	         9.50875e+57
          1420.42550	         1.11487e+58
          1421.23180	         1.17774e+58
          1422.03810	         1.21311e+58
          1422.84440	         1.11911e+58
          1423.65070	         1.10157e+58
          1424.45700	         1.08447e+58
          1425.26330	         8.10383e+57
          1426.06960	         8.54700e+57
          1426.87590	         9.63409e+57
          1427.68220	         9.84349e+57
          1428.48850	         1.00340e+58
          1429.29480	         1.11246e+58
          1430.10110	         1.02012e+58
          1430.90740	         9.32135e+57
          1431.71370	         9.30783e+57
          1432.52000	         8.26037e+57
          1433.32630	         7.44595e+57
          1434.13260	         7.38912e+57
          1434.93890	         9.05668e+57
          1435.74520	         9.72531e+57
          1436.55150	         9.25961e+57
          1437.35780	         9.21098e+57
          1438.16410	         9.01661e+57
          1438.97040	         8.58187e+57
          1439.77670	         8.64767e+57
          1440.58300	         9.52744e+57
          1441.38930	         9.23387e+57
          1442.19560	         9.28932e+57
          1443.00190	         8.69239e+57
          1443.80820	         1.03505e+58
          1444.61450	         1.01132e+58
          1445.42080	         8.26986e+57
          1446.22710	         9.87895e+57
          1447.03340	         9.90775e+57
          1447.83970	         9.66909e+57
          1448.64600	         9.44110e+57
          1449.45230	         8.96884e+57
          1450.25860	         9.34819e+57
          1451.06490	         9.47166e+57
          1451.87120	         8.22323e+57
          1452.67750	         7.25086e+57
          1453.48380	         8.44681e+57
          1454.29010	         7.96015e+57
          1455.09640	         6.87281e+57
          1455.90270	         8.99691e+57
          1456.70900	         8.36627e+57
          1457.51530	         9.12222e+57
          1458.32160	         1.18511e+58
          1459.12790	         1.14145e+58
          1459.93420	         9.26159e+57
          1460.74050	         7.44607e+57
          1461.54680	         8.51277e+57
          1462.35310	         7.78345e+57
          1463.15940	         8.83287e+57
          1463.96570	         1.06549e+58
          1464.77200	         1.11936e+58
          1465.57830	         9.30233e+57
          1466.38460	         8.01080e+57
          1467.19090	         8.20574e+57
          1467.99720	         9.50621e+57
          1468.80350	         8.37928e+57
          1469.60980	         9.27138e+57
          1470.41610	         1.07960e+58
          1471.22240	         9.58496e+57
          1472.02870	         9.58791e+57
          1472.83500	         9.81977e+57
          1473.64130	         9.36069e+57
          1474.44760	         9.84292e+57
          1475.25390	         9.97064e+57
          1476.06020	         8.27674e+57
          1476.86650	         8.28928e+57
          1477.67280	         8.06517e+57
          1478.47910	         7.19381e+57
          1479.28540	         8.38815e+57
          1480.09170	         9.01058e+57
          1480.89800	         8.36083e+57
          1481.70430	         8.58194e+57
          1482.51060	         7.83956e+57
          1483.31690	         7.24483e+57
          1484.12320	         7.85938e+57
          1484.92950	         7.79172e+57
          1485.73580	         8.09976e+57
          1486.54210	         8.80275e+57
          1487.34840	         9.01971e+57
          1488.15470	         8.51684e+57
          1488.96100	         8.15932e+57
          1489.76730	         8.69285e+57
