#sample_416_stacked_spectrum_rest_UV-bands_median_H-alpha_noDC.txt
#median Lum: 1.64901e+42
#Rest-frame wavelength (A) | Luminosity (erg/s/A)
#
          1110.00000	         0.00000e+00
          1110.80630	         2.71236e+59
          1111.61260	         4.37758e+58
          1112.41890	         2.13516e+58
          1113.22520	        -1.34617e+59
          1114.03150	        -2.07997e+59
          1114.83780	        -1.06840e+59
          1115.64410	         9.09641e+58
          1116.45040	         1.51432e+59
          1117.25670	        -4.42473e+58
          1118.06300	         8.34759e+58
          1118.86930	         1.29566e+59
          1119.67560	         1.65456e+59
          1120.48190	         4.35071e+58
          1121.28820	        -7.65703e+57
          1122.09450	        -3.45565e+58
          1122.90080	         4.02838e+58
          1123.70710	         8.45246e+58
          1124.51340	         2.53268e+58
          1125.31970	        -5.84972e+58
          1126.12600	        -3.82924e+58
          1126.93230	        -4.97300e+58
          1127.73860	        -3.45944e+58
          1128.54490	         1.19729e+58
          1129.35120	        -3.78246e+58
          1130.15750	        -2.49372e+58
          1130.96380	        -9.10665e+57
          1131.77010	         3.66781e+58
          1132.57640	         3.94526e+58
          1133.38270	         9.58696e+57
          1134.18900	        -1.03060e+58
          1134.99530	         1.95883e+58
          1135.80160	         4.75977e+58
          1136.60790	         8.16722e+57
          1137.41420	        -7.81247e+57
          1138.22050	         3.49593e+58
          1139.02680	         3.88521e+58
          1139.83310	         1.95543e+58
          1140.63940	         1.60913e+58
          1141.44570	        -3.20543e+57
          1142.25200	         1.94484e+57
          1143.05830	         3.07557e+58
          1143.86460	         5.84246e+58
          1144.67090	         3.04304e+58
          1145.47720	         1.92479e+58
          1146.28350	         5.39158e+57
          1147.08980	         5.51012e+57
          1147.89610	         7.66259e+57
          1148.70240	         2.93672e+58
          1149.50870	         2.16676e+58
          1150.31500	         3.19157e+57
          1151.12130	         1.47246e+57
          1151.92760	         4.24405e+57
          1152.73390	         1.05386e+58
          1153.54020	        -2.32398e+57
          1154.34650	         1.76787e+58
          1155.15280	         1.68491e+58
          1155.95910	         1.33715e+58
          1156.76540	         6.33801e+57
          1157.57170	         6.97599e+57
          1158.37800	         7.20246e+56
          1159.18430	        -7.79959e+56
          1159.99060	         4.76158e+57
          1160.79690	         2.14452e+57
          1161.60320	         7.34663e+57
          1162.40950	         1.39067e+58
          1163.21580	         1.99279e+58
          1164.02210	         1.47875e+58
          1164.82840	         2.43967e+58
          1165.63470	         2.07789e+58
          1166.44100	         3.72120e+58
          1167.24730	         1.89664e+58
          1168.05360	         4.60070e+57
          1168.85990	         7.80169e+57
          1169.66620	         1.38763e+58
          1170.47250	         1.45964e+58
          1171.27880	         1.06273e+58
          1172.08510	         1.29990e+58
          1172.89140	         1.68065e+58
          1173.69770	         8.07873e+57
          1174.50400	         1.63854e+58
          1175.31030	         1.98105e+58
          1176.11660	         1.41315e+58
          1176.92290	         1.37961e+58
          1177.72920	         1.09777e+58
          1178.53550	         6.99984e+57
          1179.34180	         7.24727e+57
          1180.14810	         1.15324e+58
          1180.95440	         9.02999e+57
          1181.76070	         1.11374e+58
          1182.56700	         8.78603e+57
          1183.37330	         3.92928e+57
          1184.17960	         9.19560e+57
          1184.98590	         8.25293e+57
          1185.79220	         6.45826e+57
          1186.59850	         1.52895e+58
          1187.40480	         1.64582e+58
          1188.21110	         1.44366e+58
          1189.01740	         7.33856e+57
          1189.82370	         1.00167e+58
          1190.63000	         1.45206e+58
          1191.43630	         1.35994e+58
          1192.24260	         1.02639e+58
          1193.04890	         1.79102e+58
          1193.85520	         1.49526e+58
          1194.66150	         6.96567e+57
          1195.46780	         1.59349e+58
          1196.27410	         2.47770e+58
          1197.08040	         1.43439e+58
          1197.88670	         1.02426e+58
          1198.69300	         1.51399e+58
          1199.49930	         1.44598e+58
          1200.30560	         1.15690e+58
          1201.11190	         8.95286e+57
          1201.91820	         1.04428e+58
          1202.72450	         1.06592e+58
          1203.53080	         1.86253e+58
          1204.33710	         8.80160e+57
          1205.14340	         7.04753e+57
          1205.94970	         5.25426e+57
          1206.75600	         7.70212e+57
          1207.56230	         7.37667e+57
          1208.36860	         1.16128e+58
          1209.17490	         6.42992e+57
          1209.98120	         5.24213e+57
          1210.78750	         7.72609e+57
          1211.59380	         1.27352e+58
          1212.40010	         1.91615e+58
          1213.20640	         2.33156e+58
          1214.01270	         1.91569e+58
          1214.81900	         2.58010e+58
          1215.62530	         4.57937e+58
          1216.43160	         8.65161e+58
          1217.23790	         1.46234e+59
          1218.04420	         1.14220e+59
          1218.85050	         8.78485e+58
          1219.65680	         5.54239e+58
          1220.46310	         3.02308e+58
          1221.26940	         2.19273e+58
          1222.07570	         1.17765e+58
          1222.88200	         6.26322e+57
          1223.68830	         8.17291e+57
          1224.49460	         9.20505e+57
          1225.30090	         6.20339e+57
          1226.10720	         6.31379e+57
          1226.91350	         5.87853e+57
          1227.71980	         9.76135e+57
          1228.52610	         1.02937e+58
          1229.33240	         3.92437e+57
          1230.13870	         5.51081e+57
          1230.94500	         7.63421e+57
          1231.75130	         6.57041e+57
          1232.55760	         1.09304e+58
          1233.36390	         1.10447e+58
          1234.17020	         1.10831e+58
          1234.97650	         9.84225e+57
          1235.78280	         8.74150e+57
          1236.58910	         1.09859e+58
          1237.39540	         1.08264e+58
          1238.20170	         7.51782e+57
          1239.00800	         9.93959e+57
          1239.81430	         1.63273e+58
          1240.62060	         1.40214e+58
          1241.42690	         1.03889e+58
          1242.23320	         1.17272e+58
          1243.03950	         7.51563e+57
          1243.84580	         9.32230e+57
          1244.65210	         1.23175e+58
          1245.45840	         7.90741e+57
          1246.26470	         9.04081e+57
          1247.07100	         4.44940e+57
          1247.87730	         3.01586e+57
          1248.68360	         3.80166e+57
          1249.48990	         8.77733e+57
          1250.29620	         9.92429e+57
          1251.10250	         9.27833e+57
          1251.90880	         6.40309e+57
          1252.71510	         4.78910e+57
          1253.52140	         7.91973e+57
          1254.32770	         1.07239e+58
          1255.13400	         1.15246e+58
          1255.94030	         1.09770e+58
          1256.74660	         8.89399e+57
          1257.55290	         8.27577e+57
          1258.35920	         8.43821e+57
          1259.16550	         5.00879e+57
          1259.97180	         3.93638e+57
          1260.77810	         7.73960e+57
          1261.58440	         1.08013e+58
          1262.39070	         7.10654e+57
          1263.19700	         8.49608e+57
          1264.00330	         1.02326e+58
          1264.80960	         1.08990e+58
          1265.61590	         1.35589e+58
          1266.42220	         1.28325e+58
          1267.22850	         1.03400e+58
          1268.03480	         1.19983e+58
          1268.84110	         1.39739e+58
          1269.64740	         1.30640e+58
          1270.45370	         1.22995e+58
          1271.26000	         1.15340e+58
          1272.06630	         1.24446e+58
          1272.87260	         1.23112e+58
          1273.67890	         1.07486e+58
          1274.48520	         9.47107e+57
          1275.29150	         1.21850e+58
          1276.09780	         1.32727e+58
          1276.90410	         1.58183e+58
          1277.71040	         1.35287e+58
          1278.51670	         1.14508e+58
          1279.32300	         1.27234e+58
          1280.12930	         1.13049e+58
          1280.93560	         1.16621e+58
          1281.74190	         1.13882e+58
          1282.54820	         1.08609e+58
          1283.35450	         9.04561e+57
          1284.16080	         1.09673e+58
          1284.96710	         1.42885e+58
          1285.77340	         1.10696e+58
          1286.57970	         1.18435e+58
          1287.38600	         1.51356e+58
          1288.19230	         1.76966e+58
          1288.99860	         1.58530e+58
          1289.80490	         9.68926e+57
          1290.61120	         1.08586e+58
          1291.41750	         1.46943e+58
          1292.22380	         1.27844e+58
          1293.03010	         1.00778e+58
          1293.83640	         1.11852e+58
          1294.64270	         8.64117e+57
          1295.44900	         5.63614e+57
          1296.25530	         6.85238e+57
          1297.06160	         9.53637e+57
          1297.86790	         9.17987e+57
          1298.67420	         7.50693e+57
          1299.48050	         9.03506e+57
          1300.28680	         9.80643e+57
          1301.09310	         7.78178e+57
          1301.89940	         4.65876e+57
          1302.70570	         6.80119e+57
          1303.51200	         8.55366e+57
          1304.31830	         1.07014e+58
          1305.12460	         1.16063e+58
          1305.93090	         1.09673e+58
          1306.73720	         1.19733e+58
          1307.54350	         1.34817e+58
          1308.34980	         1.42322e+58
          1309.15610	         1.55469e+58
          1309.96240	         1.57330e+58
          1310.76870	         1.48225e+58
          1311.57500	         1.25708e+58
          1312.38130	         9.75593e+57
          1313.18760	         1.36417e+58
          1313.99390	         1.60290e+58
          1314.80020	         1.39919e+58
          1315.60650	         1.44766e+58
          1316.41280	         1.24127e+58
          1317.21910	         9.68282e+57
          1318.02540	         1.19110e+58
          1318.83170	         1.25842e+58
          1319.63800	         1.40181e+58
          1320.44430	         1.21470e+58
          1321.25060	         1.26540e+58
          1322.05690	         1.33109e+58
          1322.86320	         1.14226e+58
          1323.66950	         1.13935e+58
          1324.47580	         1.09266e+58
          1325.28210	         1.02081e+58
          1326.08840	         1.04623e+58
          1326.89470	         1.25696e+58
          1327.70100	         1.03717e+58
          1328.50730	         7.08820e+57
          1329.31360	         9.36724e+57
          1330.11990	         9.63088e+57
          1330.92620	         8.34369e+57
          1331.73250	         1.03783e+58
          1332.53880	         1.09201e+58
          1333.34510	         1.00551e+58
          1334.15140	         9.09300e+57
          1334.95770	         8.25518e+57
          1335.76400	         9.60173e+57
          1336.57030	         1.06559e+58
          1337.37660	         1.19455e+58
          1338.18290	         1.18206e+58
          1338.98920	         1.13181e+58
          1339.79550	         1.21333e+58
          1340.60180	         1.29401e+58
          1341.40810	         1.35703e+58
          1342.21440	         1.25869e+58
          1343.02070	         1.20027e+58
          1343.82700	         1.27690e+58
          1344.63330	         1.20323e+58
          1345.43960	         1.34703e+58
          1346.24590	         1.13923e+58
          1347.05220	         1.01317e+58
          1347.85850	         1.03760e+58
          1348.66480	         1.28266e+58
          1349.47110	         1.33217e+58
          1350.27740	         1.04252e+58
          1351.08370	         9.79494e+57
          1351.89000	         1.23532e+58
          1352.69630	         1.18718e+58
          1353.50260	         1.15601e+58
          1354.30890	         1.09121e+58
          1355.11520	         1.00257e+58
          1355.92150	         1.01049e+58
          1356.72780	         9.70597e+57
          1357.53410	         1.00635e+58
          1358.34040	         1.17951e+58
          1359.14670	         1.10140e+58
          1359.95300	         1.22072e+58
          1360.75930	         1.22381e+58
          1361.56560	         1.17273e+58
          1362.37190	         1.13042e+58
          1363.17820	         1.02269e+58
          1363.98450	         1.10701e+58
          1364.79080	         1.25509e+58
          1365.59710	         1.28741e+58
          1366.40340	         1.17202e+58
          1367.20970	         9.67412e+57
          1368.01600	         9.32022e+57
          1368.82230	         9.71166e+57
          1369.62860	         1.12636e+58
          1370.43490	         1.01719e+58
          1371.24120	         8.69585e+57
          1372.04750	         8.88211e+57
          1372.85380	         1.07184e+58
          1373.66010	         1.13205e+58
          1374.46640	         1.07184e+58
          1375.27270	         1.04590e+58
          1376.07900	         9.55726e+57
          1376.88530	         8.90559e+57
          1377.69160	         8.22790e+57
          1378.49790	         6.43349e+57
          1379.30420	         6.37807e+57
          1380.11050	         7.96900e+57
          1380.91680	         7.01180e+57
          1381.72310	         8.07922e+57
          1382.52940	         9.29933e+57
          1383.33570	         6.67778e+57
          1384.14200	         9.42068e+57
          1384.94830	         1.14076e+58
          1385.75460	         1.10789e+58
          1386.56090	         1.10225e+58
          1387.36720	         1.17406e+58
          1388.17350	         1.43015e+58
          1388.97980	         1.26154e+58
          1389.78610	         8.95337e+57
          1390.59240	         6.98688e+57
          1391.39870	         6.54241e+57
          1392.20500	         7.42608e+57
          1393.01130	         7.64797e+57
          1393.81760	         7.43071e+57
          1394.62390	         8.35290e+57
          1395.43020	         6.44749e+57
          1396.23650	         5.16588e+57
          1397.04280	         7.40246e+57
          1397.84910	         8.74084e+57
          1398.65540	         8.32068e+57
          1399.46170	         8.98123e+57
          1400.26800	         8.50795e+57
          1401.07430	         8.22552e+57
          1401.88060	         8.97759e+57
          1402.68690	         9.39736e+57
          1403.49320	         8.48367e+57
          1404.29950	         8.19060e+57
          1405.10580	         1.15796e+58
          1405.91210	         1.17809e+58
          1406.71840	         9.69588e+57
          1407.52470	         9.47997e+57
          1408.33100	         1.04920e+58
          1409.13730	         1.21761e+58
          1409.94360	         1.26736e+58
          1410.74990	         1.22472e+58
          1411.55620	         1.01194e+58
          1412.36250	         8.21112e+57
          1413.16880	         8.29398e+57
          1413.97510	         8.11783e+57
          1414.78140	         8.90214e+57
          1415.58770	         9.99863e+57
          1416.39400	         1.03517e+58
          1417.20030	         1.07031e+58
          1418.00660	         9.98973e+57
          1418.81290	         1.01213e+58
          1419.61920	         1.06153e+58
          1420.42550	         1.20581e+58
          1421.23180	         1.37428e+58
          1422.03810	         1.27866e+58
          1422.84440	         1.25713e+58
          1423.65070	         1.44873e+58
          1424.45700	         1.11966e+58
          1425.26330	         7.90152e+57
          1426.06960	         9.42036e+57
          1426.87590	         9.67492e+57
          1427.68220	         1.04392e+58
          1428.48850	         1.10524e+58
          1429.29480	         1.00522e+58
          1430.10110	         9.92377e+57
          1430.90740	         8.86964e+57
          1431.71370	         7.58276e+57
          1432.52000	         8.27569e+57
          1433.32630	         8.15311e+57
          1434.13260	         7.11023e+57
          1434.93890	         8.31437e+57
          1435.74520	         9.41807e+57
          1436.55150	         9.59170e+57
          1437.35780	         9.20805e+57
          1438.16410	         9.49244e+57
          1438.97040	         9.83278e+57
          1439.77670	         8.92312e+57
          1440.58300	         8.74629e+57
          1441.38930	         8.94438e+57
          1442.19560	         9.35140e+57
          1443.00190	         1.00008e+58
          1443.80820	         1.11621e+58
          1444.61450	         9.60765e+57
          1445.42080	         8.79544e+57
          1446.22710	         9.45931e+57
          1447.03340	         8.22916e+57
          1447.83970	         9.51761e+57
          1448.64600	         1.01075e+58
          1449.45230	         1.05939e+58
          1450.25860	         9.88176e+57
          1451.06490	         8.38517e+57
          1451.87120	         7.39047e+57
          1452.67750	         6.64414e+57
          1453.48380	         7.89387e+57
          1454.29010	         8.57638e+57
          1455.09640	         7.73367e+57
          1455.90270	         8.06305e+57
          1456.70900	         7.92301e+57
          1457.51530	         8.98938e+57
          1458.32160	         1.17958e+58
          1459.12790	         1.15840e+58
          1459.93420	         1.10885e+58
          1460.74050	         8.93766e+57
          1461.54680	         8.20304e+57
          1462.35310	         7.78981e+57
          1463.15940	         8.59012e+57
          1463.96570	         9.94512e+57
          1464.77200	         1.15873e+58
          1465.57830	         1.12083e+58
          1466.38460	         8.93433e+57
          1467.19090	         8.45325e+57
          1467.99720	         9.28887e+57
          1468.80350	         8.81120e+57
          1469.60980	         8.68568e+57
          1470.41610	         9.98324e+57
          1471.22240	         9.22129e+57
          1472.02870	         9.25865e+57
          1472.83500	         9.57937e+57
          1473.64130	         9.88102e+57
          1474.44760	         1.05526e+58
          1475.25390	         1.03368e+58
          1476.06020	         1.09996e+58
          1476.86650	         9.48726e+57
          1477.67280	         7.71767e+57
          1478.47910	         7.00319e+57
          1479.28540	         7.80847e+57
          1480.09170	         9.09869e+57
          1480.89800	         9.09395e+57
          1481.70430	         8.74145e+57
          1482.51060	         8.27678e+57
          1483.31690	         7.27844e+57
          1484.12320	         7.90727e+57
          1484.92950	         8.34001e+57
          1485.73580	         8.88157e+57
          1486.54210	         8.57102e+57
          1487.34840	         8.42820e+57
          1488.15470	         8.15372e+57
          1488.96100	         7.48907e+57
          1489.76730	         7.71278e+57
