#sample_244_stacked_spectrum_rest_UV-bands_median_H-alpha_noDC.txt
#median Lum: 1.70107e+42
#Rest-frame wavelength (A) | Luminosity (erg/s/A)
#
          1110.00000	         0.00000e+00
          1110.80630	        -2.87935e+59
          1111.61260	         4.50037e+58
          1112.41890	         2.06811e+59
          1113.22520	         2.28459e+59
          1114.03150	         1.10918e+59
          1114.83780	         4.40457e+58
          1115.64410	         8.92981e+58
          1116.45040	         1.29953e+59
          1117.25670	         9.68309e+58
          1118.06300	         6.64582e+58
          1118.86930	         6.03732e+58
          1119.67560	         7.77623e+58
          1120.48190	        -1.10718e+59
          1121.28820	        -9.52940e+58
          1122.09450	         9.30341e+57
          1122.90080	         2.90248e+57
          1123.70710	         8.96673e+58
          1124.51340	         1.49618e+59
          1125.31970	         7.95476e+58
          1126.12600	         8.60419e+57
          1126.93230	        -3.45438e+58
          1127.73860	        -3.72243e+58
          1128.54490	         3.04014e+58
          1129.35120	         7.61900e+57
          1130.15750	        -2.31873e+58
          1130.96380	        -1.28086e+58
          1131.77010	         1.02437e+58
          1132.57640	         1.68826e+58
          1133.38270	         8.18230e+57
          1134.18900	         3.12198e+58
          1134.99530	         2.07851e+58
          1135.80160	         1.66837e+58
          1136.60790	         1.91870e+58
          1137.41420	         2.34308e+58
          1138.22050	         3.63564e+58
          1139.02680	         1.19571e+58
          1139.83310	         1.26555e+58
          1140.63940	         1.51123e+58
          1141.44570	        -3.16460e+58
          1142.25200	        -1.29282e+58
          1143.05830	         2.76330e+58
          1143.86460	         4.01317e+58
          1144.67090	         1.98817e+58
          1145.47720	         6.25676e+57
          1146.28350	         4.27681e+57
          1147.08980	         1.39768e+58
          1147.89610	         2.80507e+58
          1148.70240	         3.38949e+58
          1149.50870	         2.06898e+58
          1150.31500	         6.19358e+57
          1151.12130	         4.35590e+57
          1151.92760	         3.22776e+57
          1152.73390	         1.95496e+57
          1153.54020	        -1.35502e+57
          1154.34650	         3.23096e+58
          1155.15280	         2.50915e+58
          1155.95910	        -1.67959e+57
          1156.76540	         2.30405e+57
          1157.57170	         2.07900e+57
          1158.37800	        -4.65728e+57
          1159.18430	        -4.81778e+57
          1159.99060	         3.00304e+57
          1160.79690	         6.07631e+57
          1161.60320	         1.80452e+58
          1162.40950	         2.41832e+58
          1163.21580	         2.60933e+58
          1164.02210	         2.16161e+58
          1164.82840	         7.56477e+57
          1165.63470	         1.19033e+58
          1166.44100	         2.53842e+58
          1167.24730	         2.27677e+58
          1168.05360	         8.36990e+57
          1168.85990	         1.20010e+58
          1169.66620	         1.91026e+58
          1170.47250	         1.34079e+58
          1171.27880	         9.46455e+57
          1172.08510	         7.56422e+57
          1172.89140	         3.52604e+57
          1173.69770	         9.33115e+57
          1174.50400	         1.72580e+58
          1175.31030	         1.60157e+58
          1176.11660	         1.66467e+58
          1176.92290	         1.61895e+58
          1177.72920	         1.43938e+58
          1178.53550	         7.09889e+57
          1179.34180	         3.31589e+57
          1180.14810	         6.38065e+57
          1180.95440	         1.01769e+58
          1181.76070	         1.07971e+58
          1182.56700	         1.43905e+58
          1183.37330	         7.64418e+57
          1184.17960	         1.27174e+58
          1184.98590	         1.52554e+58
          1185.79220	         8.84956e+57
          1186.59850	         1.13078e+58
          1187.40480	         9.35132e+57
          1188.21110	         1.02266e+58
          1189.01740	         5.83782e+57
          1189.82370	         5.87967e+57
          1190.63000	         8.23771e+57
          1191.43630	         1.06039e+58
          1192.24260	         9.37562e+57
          1193.04890	         1.22935e+58
          1193.85520	         1.40516e+58
          1194.66150	         6.76022e+57
          1195.46780	         1.08689e+58
          1196.27410	         1.61585e+58
          1197.08040	         8.65652e+57
          1197.88670	         1.07094e+58
          1198.69300	         1.30606e+58
          1199.49930	         1.31772e+58
          1200.30560	         1.42554e+58
          1201.11190	         1.24629e+58
          1201.91820	         1.23233e+58
          1202.72450	         1.21254e+58
          1203.53080	         1.58632e+58
          1204.33710	         9.89242e+57
          1205.14340	         4.29255e+57
          1205.94970	         4.57571e+57
          1206.75600	         6.68502e+57
          1207.56230	         4.58818e+57
          1208.36860	         1.27022e+58
          1209.17490	         5.91059e+57
          1209.98120	         4.85506e+57
          1210.78750	         7.18224e+57
          1211.59380	         1.34206e+58
          1212.40010	         1.87450e+58
          1213.20640	         2.03985e+58
          1214.01270	         2.12233e+58
          1214.81900	         2.86752e+58
          1215.62530	         4.70093e+58
          1216.43160	         8.86019e+58
          1217.23790	         1.49448e+59
          1218.04420	         1.18274e+59
          1218.85050	         8.70784e+58
          1219.65680	         5.93276e+58
          1220.46310	         3.39890e+58
          1221.26940	         2.35171e+58
          1222.07570	         1.43150e+58
          1222.88200	         1.15510e+58
          1223.68830	         9.82748e+57
          1224.49460	         9.94076e+57
          1225.30090	         6.23368e+57
          1226.10720	         8.50661e+57
          1226.91350	         1.08097e+58
          1227.71980	         1.27722e+58
          1228.52610	         1.22496e+58
          1229.33240	         5.60505e+57
          1230.13870	         5.97278e+57
          1230.94500	         9.84712e+57
          1231.75130	         6.75363e+57
          1232.55760	         6.41204e+57
          1233.36390	         6.94818e+57
          1234.17020	         7.87994e+57
          1234.97650	         8.00225e+57
          1235.78280	         1.15064e+58
          1236.58910	         1.19709e+58
          1237.39540	         8.90888e+57
          1238.20170	         7.37794e+57
          1239.00800	         1.05594e+58
          1239.81430	         1.60832e+58
          1240.62060	         1.37306e+58
          1241.42690	         1.00448e+58
          1242.23320	         1.07318e+58
          1243.03950	         8.61622e+57
          1243.84580	         5.87062e+57
          1244.65210	         6.72782e+57
          1245.45840	         9.20983e+57
          1246.26470	         8.49472e+57
          1247.07100	         6.99428e+57
          1247.87730	         5.51408e+57
          1248.68360	         5.14417e+57
          1249.48990	         6.61497e+57
          1250.29620	         8.43145e+57
          1251.10250	         8.18751e+57
          1251.90880	         6.38248e+57
          1252.71510	         5.31279e+57
          1253.52140	         7.91350e+57
          1254.32770	         1.12547e+58
          1255.13400	         1.33811e+58
          1255.94030	         1.33390e+58
          1256.74660	         1.13633e+58
          1257.55290	         1.31994e+58
          1258.35920	         1.17262e+58
          1259.16550	         5.69353e+57
          1259.97180	         4.58718e+57
          1260.77810	         8.41613e+57
          1261.58440	         1.01095e+58
          1262.39070	         7.86067e+57
          1263.19700	         9.11339e+57
          1264.00330	         1.08798e+58
          1264.80960	         1.12385e+58
          1265.61590	         1.22213e+58
          1266.42220	         1.23407e+58
          1267.22850	         1.43335e+58
          1268.03480	         1.48641e+58
          1268.84110	         1.29254e+58
          1269.64740	         1.43603e+58
          1270.45370	         1.31759e+58
          1271.26000	         1.12396e+58
          1272.06630	         1.16179e+58
          1272.87260	         1.14820e+58
          1273.67890	         1.13714e+58
          1274.48520	         1.22369e+58
          1275.29150	         1.25384e+58
          1276.09780	         1.21225e+58
          1276.90410	         1.62343e+58
          1277.71040	         1.45674e+58
          1278.51670	         1.23980e+58
          1279.32300	         1.39543e+58
          1280.12930	         1.25959e+58
          1280.93560	         1.12458e+58
          1281.74190	         1.23258e+58
          1282.54820	         1.32469e+58
          1283.35450	         1.06115e+58
          1284.16080	         1.00753e+58
          1284.96710	         1.37531e+58
          1285.77340	         1.21043e+58
          1286.57970	         1.26240e+58
          1287.38600	         1.74490e+58
          1288.19230	         1.74083e+58
          1288.99860	         1.44074e+58
          1289.80490	         1.05514e+58
          1290.61120	         1.36883e+58
          1291.41750	         1.30656e+58
          1292.22380	         1.10606e+58
          1293.03010	         1.08033e+58
          1293.83640	         1.17748e+58
          1294.64270	         1.21775e+58
          1295.44900	         8.18054e+57
          1296.25530	         9.68298e+57
          1297.06160	         1.24865e+58
          1297.86790	         1.20005e+58
          1298.67420	         1.02890e+58
          1299.48050	         1.04750e+58
          1300.28680	         1.20223e+58
          1301.09310	         9.46592e+57
          1301.89940	         4.69062e+57
          1302.70570	         7.62041e+57
          1303.51200	         7.83137e+57
          1304.31830	         1.11784e+58
          1305.12460	         1.24455e+58
          1305.93090	         1.15884e+58
          1306.73720	         1.25872e+58
          1307.54350	         1.47349e+58
          1308.34980	         1.54748e+58
          1309.15610	         1.51774e+58
          1309.96240	         1.60744e+58
          1310.76870	         1.55346e+58
          1311.57500	         1.34326e+58
          1312.38130	         1.38835e+58
          1313.18760	         1.46409e+58
          1313.99390	         1.49450e+58
          1314.80020	         1.75556e+58
          1315.60650	         1.69473e+58
          1316.41280	         1.38847e+58
          1317.21910	         1.30768e+58
          1318.02540	         1.28837e+58
          1318.83170	         1.23432e+58
          1319.63800	         1.34166e+58
          1320.44430	         1.23705e+58
          1321.25060	         1.32304e+58
          1322.05690	         1.24820e+58
          1322.86320	         1.19451e+58
          1323.66950	         1.24847e+58
          1324.47580	         9.20160e+57
          1325.28210	         8.25385e+57
          1326.08840	         1.09677e+58
          1326.89470	         1.27346e+58
          1327.70100	         1.01911e+58
          1328.50730	         8.33034e+57
          1329.31360	         9.99403e+57
          1330.11990	         1.01047e+58
          1330.92620	         1.00889e+58
          1331.73250	         1.17181e+58
          1332.53880	         1.05851e+58
          1333.34510	         9.23017e+57
          1334.15140	         9.01710e+57
          1334.95770	         8.80241e+57
          1335.76400	         1.10685e+58
          1336.57030	         1.18956e+58
          1337.37660	         1.05980e+58
          1338.18290	         1.14452e+58
          1338.98920	         1.12205e+58
          1339.79550	         1.11720e+58
          1340.60180	         1.16405e+58
          1341.40810	         1.34974e+58
          1342.21440	         1.29554e+58
          1343.02070	         1.39187e+58
          1343.82700	         1.49055e+58
          1344.63330	         1.27866e+58
          1345.43960	         1.31661e+58
          1346.24590	         1.24452e+58
          1347.05220	         1.31213e+58
          1347.85850	         1.21332e+58
          1348.66480	         1.20898e+58
          1349.47110	         1.30571e+58
          1350.27740	         1.10740e+58
          1351.08370	         1.04479e+58
          1351.89000	         1.22150e+58
          1352.69630	         1.24236e+58
          1353.50260	         1.19735e+58
          1354.30890	         1.24546e+58
          1355.11520	         1.26945e+58
          1355.92150	         1.20464e+58
          1356.72780	         1.11677e+58
          1357.53410	         1.04600e+58
          1358.34040	         1.09500e+58
          1359.14670	         1.07204e+58
          1359.95300	         1.21068e+58
          1360.75930	         1.21881e+58
          1361.56560	         1.18129e+58
          1362.37190	         1.20833e+58
          1363.17820	         1.18435e+58
          1363.98450	         1.21411e+58
          1364.79080	         1.22888e+58
          1365.59710	         1.30302e+58
          1366.40340	         1.38826e+58
          1367.20970	         1.23407e+58
          1368.01600	         1.06835e+58
          1368.82230	         1.08861e+58
          1369.62860	         1.16476e+58
          1370.43490	         1.11562e+58
          1371.24120	         1.10733e+58
          1372.04750	         9.85044e+57
          1372.85380	         1.08064e+58
          1373.66010	         1.24099e+58
          1374.46640	         1.09625e+58
          1375.27270	         1.13153e+58
          1376.07900	         9.91858e+57
          1376.88530	         8.13600e+57
          1377.69160	         7.83179e+57
          1378.49790	         6.76371e+57
          1379.30420	         7.63311e+57
          1380.11050	         9.51153e+57
          1380.91680	         8.45079e+57
          1381.72310	         9.20267e+57
          1382.52940	         1.00174e+58
          1383.33570	         9.43505e+57
          1384.14200	         9.75369e+57
          1384.94830	         9.80479e+57
          1385.75460	         9.93852e+57
          1386.56090	         1.14257e+58
          1387.36720	         1.24532e+58
          1388.17350	         1.43931e+58
          1388.97980	         1.14365e+58
          1389.78610	         8.97116e+57
          1390.59240	         7.83933e+57
          1391.39870	         7.27948e+57
          1392.20500	         9.70463e+57
          1393.01130	         9.65753e+57
          1393.81760	         7.93833e+57
          1394.62390	         7.58785e+57
          1395.43020	         6.99199e+57
          1396.23650	         7.90265e+57
          1397.04280	         8.07917e+57
          1397.84910	         9.24601e+57
          1398.65540	         9.65234e+57
          1399.46170	         1.06408e+58
          1400.26800	         9.60657e+57
          1401.07430	         7.91975e+57
          1401.88060	         7.89837e+57
          1402.68690	         9.19859e+57
          1403.49320	         9.65435e+57
          1404.29950	         1.00113e+58
          1405.10580	         1.05383e+58
          1405.91210	         1.11407e+58
          1406.71840	         1.09640e+58
          1407.52470	         1.09518e+58
          1408.33100	         1.05801e+58
          1409.13730	         1.17574e+58
          1409.94360	         1.18064e+58
          1410.74990	         1.14912e+58
          1411.55620	         9.47463e+57
          1412.36250	         8.21531e+57
          1413.16880	         8.06529e+57
          1413.97510	         7.51305e+57
          1414.78140	         8.82038e+57
          1415.58770	         1.01045e+58
          1416.39400	         1.07725e+58
          1417.20030	         9.52163e+57
          1418.00660	         8.25629e+57
          1418.81290	         8.81466e+57
          1419.61920	         9.38480e+57
          1420.42550	         1.17983e+58
          1421.23180	         1.34279e+58
          1422.03810	         1.32061e+58
          1422.84440	         1.03246e+58
          1423.65070	         1.20490e+58
          1424.45700	         1.03426e+58
          1425.26330	         8.05510e+57
          1426.06960	         9.32926e+57
          1426.87590	         1.07478e+58
          1427.68220	         1.05953e+58
          1428.48850	         1.09354e+58
          1429.29480	         1.06160e+58
          1430.10110	         1.10228e+58
          1430.90740	         9.69411e+57
          1431.71370	         8.40816e+57
          1432.52000	         8.47745e+57
          1433.32630	         7.79322e+57
          1434.13260	         8.10637e+57
          1434.93890	         8.67721e+57
          1435.74520	         8.87992e+57
          1436.55150	         1.01825e+58
          1437.35780	         9.95067e+57
          1438.16410	         9.56861e+57
          1438.97040	         9.50305e+57
          1439.77670	         8.71975e+57
          1440.58300	         9.28970e+57
          1441.38930	         1.02187e+58
          1442.19560	         1.12703e+58
          1443.00190	         1.07810e+58
          1443.80820	         1.13506e+58
          1444.61450	         1.02679e+58
          1445.42080	         8.11557e+57
          1446.22710	         1.07498e+58
          1447.03340	         1.00129e+58
          1447.83970	         1.05726e+58
          1448.64600	         1.07055e+58
          1449.45230	         1.07410e+58
          1450.25860	         1.00146e+58
          1451.06490	         8.41768e+57
          1451.87120	         8.09884e+57
          1452.67750	         7.18936e+57
          1453.48380	         7.61430e+57
          1454.29010	         8.31690e+57
          1455.09640	         7.54648e+57
          1455.90270	         8.96318e+57
          1456.70900	         9.45813e+57
          1457.51530	         1.03091e+58
          1458.32160	         1.13967e+58
          1459.12790	         1.17149e+58
          1459.93420	         1.10075e+58
          1460.74050	         1.05970e+58
          1461.54680	         8.96266e+57
          1462.35310	         7.03018e+57
          1463.15940	         9.39561e+57
          1463.96570	         1.09918e+58
          1464.77200	         1.15633e+58
          1465.57830	         1.14233e+58
          1466.38460	         9.33593e+57
          1467.19090	         7.93556e+57
          1467.99720	         8.45440e+57
          1468.80350	         9.04432e+57
          1469.60980	         9.58281e+57
          1470.41610	         1.13384e+58
          1471.22240	         9.91128e+57
          1472.02870	         8.73162e+57
          1472.83500	         9.68411e+57
          1473.64130	         1.08191e+58
          1474.44760	         1.09437e+58
          1475.25390	         1.04737e+58
          1476.06020	         9.40067e+57
          1476.86650	         8.32067e+57
          1477.67280	         8.63334e+57
          1478.47910	         7.70154e+57
          1479.28540	         7.26832e+57
          1480.09170	         7.41256e+57
          1480.89800	         8.78370e+57
          1481.70430	         9.97008e+57
          1482.51060	         8.14222e+57
          1483.31690	         7.58011e+57
          1484.12320	         8.39716e+57
          1484.92950	         7.17638e+57
          1485.73580	         6.90748e+57
          1486.54210	         8.34340e+57
          1487.34840	         8.47096e+57
          1488.15470	         8.21732e+57
          1488.96100	         8.70347e+57
          1489.76730	         9.92882e+57
