#sample_206_stacked_spectrum_rest_UV-bands_median_H-alpha_noDC.txt
#median Lum: 1.66209e+42
#Rest-frame wavelength (A) | Luminosity (erg/s/A)
#
          1110.00000	         0.00000e+00
          1110.80630	         1.10469e+59
          1111.61260	         5.03539e+59
          1112.41890	         3.87182e+59
          1113.22520	        -1.47538e+59
          1114.03150	        -3.48810e+59
          1114.83780	        -1.86879e+59
          1115.64410	         1.91377e+57
          1116.45040	         3.11457e+59
          1117.25670	         1.41329e+59
          1118.06300	         2.40316e+58
          1118.86930	        -2.59137e+58
          1119.67560	         3.17381e+58
          1120.48190	         5.65819e+58
          1121.28820	        -9.98551e+58
          1122.09450	         1.75259e+58
          1122.90080	        -2.71006e+58
          1123.70710	         3.94724e+58
          1124.51340	         5.23862e+58
          1125.31970	         2.30225e+58
          1126.12600	        -4.32434e+57
          1126.93230	        -5.00673e+58
          1127.73860	        -1.07075e+59
          1128.54490	        -1.04809e+58
          1129.35120	         3.11748e+58
          1130.15750	        -2.53521e+58
          1130.96380	        -3.72676e+58
          1131.77010	         1.93270e+58
          1132.57640	         1.04383e+58
          1133.38270	         3.57155e+58
          1134.18900	         1.00628e+58
          1134.99530	        -1.36702e+57
          1135.80160	         1.28092e+58
          1136.60790	         2.17456e+58
          1137.41420	        -1.03463e+58
          1138.22050	         2.80989e+58
          1139.02680	         3.85449e+58
          1139.83310	         2.52856e+58
          1140.63940	         1.02279e+58
          1141.44570	        -1.08236e+58
          1142.25200	         1.18996e+58
          1143.05830	         2.20561e+58
          1143.86460	         3.09272e+58
          1144.67090	         3.32208e+58
          1145.47720	         9.38020e+57
          1146.28350	         1.12781e+58
          1147.08980	         1.67154e+58
          1147.89610	         1.26186e+58
          1148.70240	         3.09884e+58
          1149.50870	         2.34569e+58
          1150.31500	         8.13162e+57
          1151.12130	         7.37952e+57
          1151.92760	         1.04932e+58
          1152.73390	         8.07010e+57
          1153.54020	         7.82184e+57
          1154.34650	         2.56464e+58
          1155.15280	         2.09195e+58
          1155.95910	         1.60277e+58
          1156.76540	         8.79725e+57
          1157.57170	        -1.32511e+58
          1158.37800	        -1.06535e+58
          1159.18430	        -5.71544e+57
          1159.99060	        -3.44696e+57
          1160.79690	        -1.02789e+56
          1161.60320	         2.12058e+58
          1162.40950	         9.65860e+57
          1163.21580	         2.18219e+58
          1164.02210	         5.83411e+57
          1164.82840	         1.16785e+58
          1165.63470	         1.87130e+58
          1166.44100	         3.26548e+58
          1167.24730	         2.21748e+58
          1168.05360	         9.31920e+57
          1168.85990	         1.22786e+58
          1169.66620	         1.64422e+58
          1170.47250	         1.30958e+58
          1171.27880	         9.03583e+57
          1172.08510	         1.40741e+58
          1172.89140	         1.25369e+58
          1173.69770	         4.71900e+57
          1174.50400	         9.48061e+57
          1175.31030	         1.10780e+58
          1176.11660	         1.90035e+58
          1176.92290	         1.49018e+58
          1177.72920	         1.45191e+58
          1178.53550	         6.36069e+57
          1179.34180	         5.68243e+57
          1180.14810	         5.21522e+57
          1180.95440	         6.34490e+57
          1181.76070	         4.24468e+57
          1182.56700	         6.93860e+57
          1183.37330	         7.97879e+57
          1184.17960	         1.36006e+58
          1184.98590	         1.67482e+58
          1185.79220	         7.44205e+57
          1186.59850	         1.02111e+58
          1187.40480	         1.43030e+58
          1188.21110	         1.82854e+58
          1189.01740	         9.66924e+57
          1189.82370	         1.11962e+58
          1190.63000	         1.19143e+58
          1191.43630	         1.04755e+58
          1192.24260	         6.98927e+57
          1193.04890	         1.18812e+58
          1193.85520	         9.51191e+57
          1194.66150	         9.96918e+57
          1195.46780	         1.54312e+58
          1196.27410	         1.65802e+58
          1197.08040	         9.13304e+57
          1197.88670	         1.34212e+58
          1198.69300	         1.58565e+58
          1199.49930	         8.99511e+57
          1200.30560	         8.77939e+57
          1201.11190	         1.48935e+58
          1201.91820	         7.67438e+57
          1202.72450	         4.44341e+57
          1203.53080	         1.49772e+58
          1204.33710	         5.90207e+57
          1205.14340	         8.76338e+57
          1205.94970	         9.06061e+57
          1206.75600	         7.44955e+57
          1207.56230	         8.82136e+57
          1208.36860	         1.03910e+58
          1209.17490	         7.05932e+57
          1209.98120	         7.31735e+57
          1210.78750	         7.79861e+57
          1211.59380	         1.13428e+58
          1212.40010	         1.75518e+58
          1213.20640	         1.74627e+58
          1214.01270	         1.95292e+58
          1214.81900	         2.58156e+58
          1215.62530	         4.53867e+58
          1216.43160	         9.17655e+58
          1217.23790	         1.50590e+59
          1218.04420	         1.16034e+59
          1218.85050	         8.95582e+58
          1219.65680	         5.80717e+58
          1220.46310	         3.15443e+58
          1221.26940	         2.17416e+58
          1222.07570	         1.34562e+58
          1222.88200	         1.06260e+58
          1223.68830	         1.05895e+58
          1224.49460	         5.93599e+57
          1225.30090	         6.96091e+57
          1226.10720	         5.30753e+57
          1226.91350	         6.44778e+57
          1227.71980	         6.19644e+57
          1228.52610	         1.17201e+58
          1229.33240	         1.23841e+58
          1230.13870	         1.13950e+58
          1230.94500	         1.01503e+58
          1231.75130	         7.46655e+57
          1232.55760	         8.83318e+57
          1233.36390	         9.81440e+57
          1234.17020	         9.81499e+57
          1234.97650	         8.89027e+57
          1235.78280	         8.96593e+57
          1236.58910	         9.43952e+57
          1237.39540	         9.08808e+57
          1238.20170	         8.80822e+57
          1239.00800	         1.33727e+58
          1239.81430	         1.57508e+58
          1240.62060	         1.26193e+58
          1241.42690	         1.04437e+58
          1242.23320	         1.07481e+58
          1243.03950	         8.17072e+57
          1243.84580	         6.31417e+57
          1244.65210	         8.83387e+57
          1245.45840	         1.01895e+58
          1246.26470	         8.76684e+57
          1247.07100	         8.11392e+57
          1247.87730	         9.63854e+57
          1248.68360	         6.10306e+57
          1249.48990	         1.04981e+58
          1250.29620	         1.03882e+58
          1251.10250	         4.34658e+57
          1251.90880	         1.84656e+57
          1252.71510	         3.23970e+57
          1253.52140	         7.07833e+57
          1254.32770	         1.24246e+58
          1255.13400	         1.37597e+58
          1255.94030	         1.11461e+58
          1256.74660	         9.07306e+57
          1257.55290	         1.06572e+58
          1258.35920	         9.68445e+57
          1259.16550	         5.08532e+57
          1259.97180	         3.84263e+57
          1260.77810	         7.18522e+57
          1261.58440	         1.14686e+58
          1262.39070	         9.21188e+57
          1263.19700	         7.81135e+57
          1264.00330	         9.80913e+57
          1264.80960	         1.11822e+58
          1265.61590	         1.33072e+58
          1266.42220	         1.41171e+58
          1267.22850	         1.04954e+58
          1268.03480	         1.33171e+58
          1268.84110	         1.78465e+58
          1269.64740	         1.52128e+58
          1270.45370	         1.33171e+58
          1271.26000	         1.16463e+58
          1272.06630	         1.18329e+58
          1272.87260	         1.29868e+58
          1273.67890	         1.63091e+58
          1274.48520	         1.47155e+58
          1275.29150	         1.35908e+58
          1276.09780	         1.20542e+58
          1276.90410	         1.29063e+58
          1277.71040	         1.29287e+58
          1278.51670	         1.31174e+58
          1279.32300	         1.50459e+58
          1280.12930	         1.40697e+58
          1280.93560	         1.28052e+58
          1281.74190	         1.27319e+58
          1282.54820	         1.43346e+58
          1283.35450	         1.26520e+58
          1284.16080	         9.33180e+57
          1284.96710	         1.06035e+58
          1285.77340	         1.23819e+58
          1286.57970	         1.35077e+58
          1287.38600	         1.58726e+58
          1288.19230	         1.84726e+58
          1288.99860	         1.49534e+58
          1289.80490	         1.08783e+58
          1290.61120	         1.38130e+58
          1291.41750	         1.57665e+58
          1292.22380	         1.20206e+58
          1293.03010	         9.89326e+57
          1293.83640	         1.03949e+58
          1294.64270	         8.65807e+57
          1295.44900	         6.31051e+57
          1296.25530	         7.69609e+57
          1297.06160	         9.70238e+57
          1297.86790	         1.10887e+58
          1298.67420	         9.13029e+57
          1299.48050	         9.59650e+57
          1300.28680	         1.14752e+58
          1301.09310	         8.53644e+57
          1301.89940	         4.71919e+57
          1302.70570	         7.51240e+57
          1303.51200	         9.79136e+57
          1304.31830	         1.02572e+58
          1305.12460	         1.03426e+58
          1305.93090	         1.18066e+58
          1306.73720	         1.35411e+58
          1307.54350	         1.43882e+58
          1308.34980	         1.37387e+58
          1309.15610	         1.49620e+58
          1309.96240	         1.53688e+58
          1310.76870	         1.30732e+58
          1311.57500	         1.28320e+58
          1312.38130	         1.29784e+58
          1313.18760	         1.49403e+58
          1313.99390	         1.66670e+58
          1314.80020	         1.65405e+58
          1315.60650	         1.48553e+58
          1316.41280	         1.28891e+58
          1317.21910	         1.09120e+58
          1318.02540	         1.27840e+58
          1318.83170	         1.31477e+58
          1319.63800	         1.13851e+58
          1320.44430	         1.07712e+58
          1321.25060	         1.16946e+58
          1322.05690	         1.37941e+58
          1322.86320	         1.21735e+58
          1323.66950	         1.01408e+58
          1324.47580	         9.92607e+57
          1325.28210	         9.77902e+57
          1326.08840	         1.12670e+58
          1326.89470	         1.35750e+58
          1327.70100	         1.18385e+58
          1328.50730	         1.08338e+58
          1329.31360	         1.08948e+58
          1330.11990	         9.11438e+57
          1330.92620	         8.86228e+57
          1331.73250	         1.25634e+58
          1332.53880	         1.06680e+58
          1333.34510	         8.07840e+57
          1334.15140	         8.00279e+57
          1334.95770	         9.36299e+57
          1335.76400	         9.94006e+57
          1336.57030	         8.96055e+57
          1337.37660	         9.79381e+57
          1338.18290	         1.12803e+58
          1338.98920	         1.22100e+58
          1339.79550	         1.18578e+58
          1340.60180	         1.23474e+58
          1341.40810	         1.30765e+58
          1342.21440	         1.24102e+58
          1343.02070	         1.28435e+58
          1343.82700	         1.30059e+58
          1344.63330	         1.36927e+58
          1345.43960	         1.46871e+58
          1346.24590	         1.17222e+58
          1347.05220	         1.21421e+58
          1347.85850	         1.16676e+58
          1348.66480	         1.15819e+58
          1349.47110	         1.19832e+58
          1350.27740	         1.14589e+58
          1351.08370	         1.12133e+58
          1351.89000	         1.02945e+58
          1352.69630	         1.00632e+58
          1353.50260	         1.13852e+58
          1354.30890	         1.25472e+58
          1355.11520	         1.31119e+58
          1355.92150	         1.03385e+58
          1356.72780	         9.73670e+57
          1357.53410	         1.00831e+58
          1358.34040	         1.04426e+58
          1359.14670	         1.22679e+58
          1359.95300	         1.24945e+58
          1360.75930	         1.08780e+58
          1361.56560	         1.03686e+58
          1362.37190	         1.04601e+58
          1363.17820	         1.17269e+58
          1363.98450	         1.25623e+58
          1364.79080	         1.18385e+58
          1365.59710	         1.13251e+58
          1366.40340	         1.17889e+58
          1367.20970	         1.03309e+58
          1368.01600	         1.02146e+58
          1368.82230	         1.02313e+58
          1369.62860	         1.09538e+58
          1370.43490	         1.00223e+58
          1371.24120	         9.21191e+57
          1372.04750	         7.72718e+57
          1372.85380	         8.89968e+57
          1373.66010	         1.17060e+58
          1374.46640	         1.27135e+58
          1375.27270	         1.09010e+58
          1376.07900	         8.63295e+57
          1376.88530	         7.42553e+57
          1377.69160	         8.14503e+57
          1378.49790	         7.28083e+57
          1379.30420	         8.31434e+57
          1380.11050	         1.05279e+58
          1380.91680	         8.35691e+57
          1381.72310	         6.35510e+57
          1382.52940	         7.37740e+57
          1383.33570	         7.97158e+57
          1384.14200	         8.40144e+57
          1384.94830	         1.08418e+58
          1385.75460	         1.15109e+58
          1386.56090	         1.17461e+58
          1387.36720	         1.15490e+58
          1388.17350	         1.40146e+58
          1388.97980	         1.20174e+58
          1389.78610	         8.61843e+57
          1390.59240	         7.64887e+57
          1391.39870	         6.13148e+57
          1392.20500	         7.45567e+57
          1393.01130	         7.44893e+57
          1393.81760	         6.81978e+57
          1394.62390	         6.78104e+57
          1395.43020	         6.01816e+57
          1396.23650	         6.50979e+57
          1397.04280	         6.29554e+57
          1397.84910	         7.36868e+57
          1398.65540	         8.02195e+57
          1399.46170	         8.81076e+57
          1400.26800	         7.63166e+57
          1401.07430	         7.85164e+57
          1401.88060	         8.84512e+57
          1402.68690	         1.02431e+58
          1403.49320	         1.04103e+58
          1404.29950	         9.78456e+57
          1405.10580	         1.10409e+58
          1405.91210	         1.12173e+58
          1406.71840	         9.70328e+57
          1407.52470	         9.40939e+57
          1408.33100	         9.60665e+57
          1409.13730	         1.13286e+58
          1409.94360	         1.30049e+58
          1410.74990	         1.35360e+58
          1411.55620	         9.84604e+57
          1412.36250	         8.50943e+57
          1413.16880	         9.09901e+57
          1413.97510	         8.18350e+57
          1414.78140	         6.94215e+57
          1415.58770	         8.42046e+57
          1416.39400	         1.03810e+58
          1417.20030	         1.01601e+58
          1418.00660	         9.84907e+57
          1418.81290	         9.81754e+57
          1419.61920	         1.07200e+58
          1420.42550	         1.23630e+58
          1421.23180	         1.39400e+58
          1422.03810	         1.23611e+58
          1422.84440	         1.10111e+58
          1423.65070	         1.25205e+58
          1424.45700	         1.16108e+58
          1425.26330	         9.06985e+57
          1426.06960	         9.39728e+57
          1426.87590	         1.08263e+58
          1427.68220	         1.02613e+58
          1428.48850	         1.10711e+58
          1429.29480	         1.10147e+58
          1430.10110	         1.06717e+58
          1430.90740	         1.00273e+58
          1431.71370	         8.58940e+57
          1432.52000	         7.14414e+57
          1433.32630	         7.39684e+57
          1434.13260	         7.74912e+57
          1434.93890	         7.98022e+57
          1435.74520	         8.91111e+57
          1436.55150	         1.01438e+58
          1437.35780	         9.21956e+57
          1438.16410	         8.96768e+57
          1438.97040	         8.84994e+57
          1439.77670	         7.98786e+57
          1440.58300	         8.68509e+57
          1441.38930	         9.52938e+57
          1442.19560	         9.72481e+57
          1443.00190	         1.04175e+58
          1443.80820	         1.19138e+58
          1444.61450	         1.02086e+58
          1445.42080	         8.99820e+57
          1446.22710	         1.08944e+58
          1447.03340	         9.75706e+57
          1447.83970	         9.74817e+57
          1448.64600	         1.14432e+58
          1449.45230	         1.16496e+58
          1450.25860	         1.07880e+58
          1451.06490	         8.51652e+57
          1451.87120	         7.47018e+57
          1452.67750	         8.12394e+57
          1453.48380	         9.98595e+57
          1454.29010	         7.80941e+57
          1455.09640	         6.53219e+57
          1455.90270	         8.62389e+57
          1456.70900	         9.03046e+57
          1457.51530	         9.84315e+57
          1458.32160	         1.15946e+58
          1459.12790	         1.18219e+58
          1459.93420	         1.04537e+58
          1460.74050	         8.34549e+57
          1461.54680	         8.45293e+57
          1462.35310	         7.83021e+57
          1463.15940	         9.66050e+57
          1463.96570	         1.08207e+58
          1464.77200	         1.24618e+58
          1465.57830	         1.21430e+58
          1466.38460	         9.66079e+57
          1467.19090	         8.67228e+57
          1467.99720	         8.81198e+57
          1468.80350	         9.58560e+57
          1469.60980	         8.86867e+57
          1470.41610	         1.06000e+58
          1471.22240	         1.02874e+58
          1472.02870	         9.83703e+57
          1472.83500	         9.77552e+57
          1473.64130	         1.07627e+58
          1474.44760	         1.17666e+58
          1475.25390	         1.08015e+58
          1476.06020	         8.72927e+57
          1476.86650	         7.78805e+57
          1477.67280	         7.60725e+57
          1478.47910	         6.42796e+57
          1479.28540	         8.18724e+57
          1480.09170	         9.44800e+57
          1480.89800	         8.54943e+57
          1481.70430	         8.55981e+57
          1482.51060	         8.37260e+57
          1483.31690	         7.30681e+57
          1484.12320	         7.29528e+57
          1484.92950	         7.71784e+57
          1485.73580	         8.46928e+57
          1486.54210	         8.33047e+57
          1487.34840	         8.60281e+57
          1488.15470	         9.25387e+57
          1488.96100	         9.47349e+57
          1489.76730	         9.96087e+57
