#sample_220_stacked_spectrum_rest_UV-bands_median_H-alpha_noDC.txt
#median Lum: 1.70598e+42
#Rest-frame wavelength (A) | Luminosity (erg/s/A)
#
          1110.00000	         0.00000e+00
          1110.80630	        -2.81143e+59
          1111.61260	         3.35145e+59
          1112.41890	         6.72989e+58
          1113.22520	        -9.11360e+58
          1114.03150	        -9.70129e+58
          1114.83780	         1.76301e+59
          1115.64410	         1.44924e+59
          1116.45040	         1.20566e+59
          1117.25670	         1.15825e+58
          1118.06300	         4.48657e+58
          1118.86930	        -6.86656e+58
          1119.67560	         5.86761e+58
          1120.48190	         3.99151e+58
          1121.28820	        -1.25354e+59
          1122.09450	        -3.18478e+58
          1122.90080	        -2.69740e+58
          1123.70710	         1.16340e+59
          1124.51340	         6.24767e+58
          1125.31970	        -4.37553e+58
          1126.12600	        -4.61672e+58
          1126.93230	        -1.95498e+58
          1127.73860	        -1.06841e+59
          1128.54490	        -2.57460e+58
          1129.35120	        -2.03580e+58
          1130.15750	        -1.04456e+58
          1130.96380	        -2.27138e+58
          1131.77010	         5.30499e+58
          1132.57640	         6.93626e+58
          1133.38270	         5.07062e+58
          1134.18900	         2.53777e+58
          1134.99530	        -2.93531e+58
          1135.80160	        -1.55098e+58
          1136.60790	         1.61940e+58
          1137.41420	        -1.21557e+57
          1138.22050	         4.53944e+58
          1139.02680	         4.19682e+58
          1139.83310	         2.20201e+58
          1140.63940	         1.62986e+58
          1141.44570	        -2.57976e+58
          1142.25200	        -1.42641e+58
          1143.05830	         1.77180e+57
          1143.86460	         1.07898e+58
          1144.67090	         1.68841e+58
          1145.47720	         1.10102e+58
          1146.28350	         7.42210e+57
          1147.08980	         2.74436e+57
          1147.89610	         1.43147e+58
          1148.70240	         3.18267e+58
          1149.50870	         3.04779e+58
          1150.31500	         1.53382e+58
          1151.12130	        -7.89165e+57
          1151.92760	        -1.16835e+58
          1152.73390	         3.41924e+57
          1153.54020	        -1.56343e+57
          1154.34650	         1.74971e+58
          1155.15280	         1.83729e+58
          1155.95910	         8.86778e+57
          1156.76540	         7.14760e+57
          1157.57170	         2.77717e+57
          1158.37800	         5.02727e+57
          1159.18430	         3.82813e+57
          1159.99060	         4.96938e+57
          1160.79690	         1.01733e+58
          1161.60320	         1.83091e+58
          1162.40950	         1.13367e+58
          1163.21580	         1.54126e+58
          1164.02210	         2.30132e+58
          1164.82840	         1.07890e+58
          1165.63470	         2.22422e+58
          1166.44100	         3.13899e+58
          1167.24730	         2.67050e+58
          1168.05360	         1.61959e+58
          1168.85990	         1.05395e+58
          1169.66620	         4.85873e+57
          1170.47250	         1.13593e+58
          1171.27880	         1.43382e+58
          1172.08510	         2.32471e+58
          1172.89140	         1.40667e+58
          1173.69770	         1.10956e+58
          1174.50400	         1.32353e+58
          1175.31030	         1.61226e+58
          1176.11660	         2.22713e+58
          1176.92290	         1.46206e+58
          1177.72920	         1.34472e+58
          1178.53550	         7.25421e+57
          1179.34180	        -3.85204e+56
          1180.14810	         3.78174e+57
          1180.95440	         1.06082e+58
          1181.76070	         5.97353e+57
          1182.56700	         9.43104e+57
          1183.37330	         1.03577e+58
          1184.17960	         1.24758e+58
          1184.98590	         1.12850e+58
          1185.79220	         6.74174e+57
          1186.59850	         8.51314e+57
          1187.40480	         1.12195e+58
          1188.21110	         1.53942e+58
          1189.01740	         1.23796e+58
          1189.82370	         1.36378e+58
          1190.63000	         1.00590e+58
          1191.43630	         1.45319e+58
          1192.24260	         1.14402e+58
          1193.04890	         9.25827e+57
          1193.85520	         1.38687e+58
          1194.66150	         1.28409e+58
          1195.46780	         1.53026e+58
          1196.27410	         1.52119e+58
          1197.08040	         7.34164e+57
          1197.88670	         1.05208e+58
          1198.69300	         1.41830e+58
          1199.49930	         1.65529e+58
          1200.30560	         1.13381e+58
          1201.11190	         1.06317e+58
          1201.91820	         9.45596e+57
          1202.72450	         6.13294e+57
          1203.53080	         1.62432e+58
          1204.33710	         7.21745e+57
          1205.14340	         4.00165e+57
          1205.94970	         6.36529e+57
          1206.75600	         4.62376e+57
          1207.56230	         3.43991e+57
          1208.36860	         4.56360e+57
          1209.17490	         5.31482e+57
          1209.98120	         3.47151e+57
          1210.78750	         4.54495e+57
          1211.59380	         9.12786e+57
          1212.40010	         1.74964e+58
          1213.20640	         2.15413e+58
          1214.01270	         2.34930e+58
          1214.81900	         2.47571e+58
          1215.62530	         4.03984e+58
          1216.43160	         8.79657e+58
          1217.23790	         1.53198e+59
          1218.04420	         1.19314e+59
          1218.85050	         9.17818e+58
          1219.65680	         6.49323e+58
          1220.46310	         3.56878e+58
          1221.26940	         2.18755e+58
          1222.07570	         1.41025e+58
          1222.88200	         9.21240e+57
          1223.68830	         8.34932e+57
          1224.49460	         7.81046e+57
          1225.30090	         6.58926e+57
          1226.10720	         3.96196e+57
          1226.91350	         5.87311e+57
          1227.71980	         1.11370e+58
          1228.52610	         1.39830e+58
          1229.33240	         6.66724e+57
          1230.13870	         8.19922e+57
          1230.94500	         6.49557e+57
          1231.75130	         4.36835e+57
          1232.55760	         7.65205e+57
          1233.36390	         8.88209e+57
          1234.17020	         8.69763e+57
          1234.97650	         8.15019e+57
          1235.78280	         7.83856e+57
          1236.58910	         8.95394e+57
          1237.39540	         9.97958e+57
          1238.20170	         9.23651e+57
          1239.00800	         1.15001e+58
          1239.81430	         1.51294e+58
          1240.62060	         1.13594e+58
          1241.42690	         8.53638e+57
          1242.23320	         1.11971e+58
          1243.03950	         9.17112e+57
          1243.84580	         9.29624e+57
          1244.65210	         8.26671e+57
          1245.45840	         7.26182e+57
          1246.26470	         9.53598e+57
          1247.07100	         9.21002e+57
          1247.87730	         5.41077e+57
          1248.68360	         9.68296e+56
          1249.48990	         5.69414e+57
          1250.29620	         9.22482e+57
          1251.10250	         6.40747e+57
          1251.90880	         5.36732e+57
          1252.71510	         6.46333e+57
          1253.52140	         4.96942e+57
          1254.32770	         8.59683e+57
          1255.13400	         1.23989e+58
          1255.94030	         1.26968e+58
          1256.74660	         1.10914e+58
          1257.55290	         1.16331e+58
          1258.35920	         1.08635e+58
          1259.16550	         7.72674e+57
          1259.97180	         6.15001e+57
          1260.77810	         1.03921e+58
          1261.58440	         1.16835e+58
          1262.39070	         8.43594e+57
          1263.19700	         9.55861e+57
          1264.00330	         1.17139e+58
          1264.80960	         1.27413e+58
          1265.61590	         1.35789e+58
          1266.42220	         1.17971e+58
          1267.22850	         9.45535e+57
          1268.03480	         1.14992e+58
          1268.84110	         1.58212e+58
          1269.64740	         1.45656e+58
          1270.45370	         1.14458e+58
          1271.26000	         1.12096e+58
          1272.06630	         1.30503e+58
          1272.87260	         1.35356e+58
          1273.67890	         1.30500e+58
          1274.48520	         1.42807e+58
          1275.29150	         1.56557e+58
          1276.09780	         1.26674e+58
          1276.90410	         1.35285e+58
          1277.71040	         1.10892e+58
          1278.51670	         1.10072e+58
          1279.32300	         1.60630e+58
          1280.12930	         1.45232e+58
          1280.93560	         1.05231e+58
          1281.74190	         1.13264e+58
          1282.54820	         1.23241e+58
          1283.35450	         1.01512e+58
          1284.16080	         1.32430e+58
          1284.96710	         1.60797e+58
          1285.77340	         1.34325e+58
          1286.57970	         1.32795e+58
          1287.38600	         1.61861e+58
          1288.19230	         1.64527e+58
          1288.99860	         1.52967e+58
          1289.80490	         1.05505e+58
          1290.61120	         1.28763e+58
          1291.41750	         1.50616e+58
          1292.22380	         1.37572e+58
          1293.03010	         1.27138e+58
          1293.83640	         1.35369e+58
          1294.64270	         1.10405e+58
          1295.44900	         8.17770e+57
          1296.25530	         8.25749e+57
          1297.06160	         9.73197e+57
          1297.86790	         1.19840e+58
          1298.67420	         1.11275e+58
          1299.48050	         8.68305e+57
          1300.28680	         1.00326e+58
          1301.09310	         9.46582e+57
          1301.89940	         7.03200e+57
          1302.70570	         7.63895e+57
          1303.51200	         7.57215e+57
          1304.31830	         9.89855e+57
          1305.12460	         1.21077e+58
          1305.93090	         1.27945e+58
          1306.73720	         1.39895e+58
          1307.54350	         1.46471e+58
          1308.34980	         1.42303e+58
          1309.15610	         1.43165e+58
          1309.96240	         1.48293e+58
          1310.76870	         1.44278e+58
          1311.57500	         1.01812e+58
          1312.38130	         8.72626e+57
          1313.18760	         1.30993e+58
          1313.99390	         1.62802e+58
          1314.80020	         1.64936e+58
          1315.60650	         1.61814e+58
          1316.41280	         1.28508e+58
          1317.21910	         1.03632e+58
          1318.02540	         1.17657e+58
          1318.83170	         1.36489e+58
          1319.63800	         1.40302e+58
          1320.44430	         1.26987e+58
          1321.25060	         1.18761e+58
          1322.05690	         1.11707e+58
          1322.86320	         1.35506e+58
          1323.66950	         1.39786e+58
          1324.47580	         1.02245e+58
          1325.28210	         1.02656e+58
          1326.08840	         1.25836e+58
          1326.89470	         1.21204e+58
          1327.70100	         1.08932e+58
          1328.50730	         1.10121e+58
          1329.31360	         1.04078e+58
          1330.11990	         1.06949e+58
          1330.92620	         1.06669e+58
          1331.73250	         1.21167e+58
          1332.53880	         1.16893e+58
          1333.34510	         9.91847e+57
          1334.15140	         9.08796e+57
          1334.95770	         9.14856e+57
          1335.76400	         1.07797e+58
          1336.57030	         1.21623e+58
          1337.37660	         1.19668e+58
          1338.18290	         1.31862e+58
          1338.98920	         1.42943e+58
          1339.79550	         1.23755e+58
          1340.60180	         1.12627e+58
          1341.40810	         1.38545e+58
          1342.21440	         1.49623e+58
          1343.02070	         1.37959e+58
          1343.82700	         1.21514e+58
          1344.63330	         1.33798e+58
          1345.43960	         1.53567e+58
          1346.24590	         1.36598e+58
          1347.05220	         1.43832e+58
          1347.85850	         1.23812e+58
          1348.66480	         1.26360e+58
          1349.47110	         1.37997e+58
          1350.27740	         1.38388e+58
          1351.08370	         1.44106e+58
          1351.89000	         1.35807e+58
          1352.69630	         1.28910e+58
          1353.50260	         1.30894e+58
          1354.30890	         1.33055e+58
          1355.11520	         1.31036e+58
          1355.92150	         1.19046e+58
          1356.72780	         1.15206e+58
          1357.53410	         1.17978e+58
          1358.34040	         1.19554e+58
          1359.14670	         1.12278e+58
          1359.95300	         1.15720e+58
          1360.75930	         1.17952e+58
          1361.56560	         1.25051e+58
          1362.37190	         1.27500e+58
          1363.17820	         1.18142e+58
          1363.98450	         1.19985e+58
          1364.79080	         1.42142e+58
          1365.59710	         1.39772e+58
          1366.40340	         1.22770e+58
          1367.20970	         9.70876e+57
          1368.01600	         7.71761e+57
          1368.82230	         9.55243e+57
          1369.62860	         1.20013e+58
          1370.43490	         1.00178e+58
          1371.24120	         9.72375e+57
          1372.04750	         9.98682e+57
          1372.85380	         1.07201e+58
          1373.66010	         1.04810e+58
          1374.46640	         1.08019e+58
          1375.27270	         1.14481e+58
          1376.07900	         9.67962e+57
          1376.88530	         9.51712e+57
          1377.69160	         9.68279e+57
          1378.49790	         7.72748e+57
          1379.30420	         9.39894e+57
          1380.11050	         1.06125e+58
          1380.91680	         8.92550e+57
          1381.72310	         8.81579e+57
          1382.52940	         9.91907e+57
          1383.33570	         8.53737e+57
          1384.14200	         9.11949e+57
          1384.94830	         1.12089e+58
          1385.75460	         1.09057e+58
          1386.56090	         1.25483e+58
          1387.36720	         1.19636e+58
          1388.17350	         1.36413e+58
          1388.97980	         1.15490e+58
          1389.78610	         8.78995e+57
          1390.59240	         9.36704e+57
          1391.39870	         8.27426e+57
          1392.20500	         7.20711e+57
          1393.01130	         7.06489e+57
          1393.81760	         7.60856e+57
          1394.62390	         6.59058e+57
          1395.43020	         6.54678e+57
          1396.23650	         6.29232e+57
          1397.04280	         7.37088e+57
          1397.84910	         9.64741e+57
          1398.65540	         1.08194e+58
          1399.46170	         1.08494e+58
          1400.26800	         1.00664e+58
          1401.07430	         8.85282e+57
          1401.88060	         7.99510e+57
          1402.68690	         9.13998e+57
          1403.49320	         8.84898e+57
          1404.29950	         9.20582e+57
          1405.10580	         1.11439e+58
          1405.91210	         1.12305e+58
          1406.71840	         1.13967e+58
          1407.52470	         1.14364e+58
          1408.33100	         1.13639e+58
          1409.13730	         1.19877e+58
          1409.94360	         1.30657e+58
          1410.74990	         1.31820e+58
          1411.55620	         1.06137e+58
          1412.36250	         1.00443e+58
          1413.16880	         1.05860e+58
          1413.97510	         8.84080e+57
          1414.78140	         8.68969e+57
          1415.58770	         1.11598e+58
          1416.39400	         1.21373e+58
          1417.20030	         1.22068e+58
          1418.00660	         1.13139e+58
          1418.81290	         1.10574e+58
          1419.61920	         1.11016e+58
          1420.42550	         1.33401e+58
          1421.23180	         1.53448e+58
          1422.03810	         1.40958e+58
          1422.84440	         1.22709e+58
          1423.65070	         1.33456e+58
          1424.45700	         1.29519e+58
          1425.26330	         8.58792e+57
          1426.06960	         8.85237e+57
          1426.87590	         1.04456e+58
          1427.68220	         1.08848e+58
          1428.48850	         1.03748e+58
          1429.29480	         1.05838e+58
          1430.10110	         1.05968e+58
          1430.90740	         8.87374e+57
          1431.71370	         9.26826e+57
          1432.52000	         8.39923e+57
          1433.32630	         7.38097e+57
          1434.13260	         8.22133e+57
          1434.93890	         8.30485e+57
          1435.74520	         9.23900e+57
          1436.55150	         9.04675e+57
          1437.35780	         8.44047e+57
          1438.16410	         9.41325e+57
          1438.97040	         8.84723e+57
          1439.77670	         7.77984e+57
          1440.58300	         8.40524e+57
          1441.38930	         9.16276e+57
          1442.19560	         1.00065e+58
          1443.00190	         1.03627e+58
          1443.80820	         1.15281e+58
          1444.61450	         1.11367e+58
          1445.42080	         1.00203e+58
          1446.22710	         1.04907e+58
          1447.03340	         9.71558e+57
          1447.83970	         1.12891e+58
          1448.64600	         1.17905e+58
          1449.45230	         9.99626e+57
          1450.25860	         1.03828e+58
          1451.06490	         9.44562e+57
          1451.87120	         7.18235e+57
          1452.67750	         7.46904e+57
          1453.48380	         9.56721e+57
          1454.29010	         9.34170e+57
          1455.09640	         7.54194e+57
          1455.90270	         8.44348e+57
          1456.70900	         9.11604e+57
          1457.51530	         1.04948e+58
          1458.32160	         1.21944e+58
          1459.12790	         1.14176e+58
          1459.93420	         1.01978e+58
          1460.74050	         8.19213e+57
          1461.54680	         7.65508e+57
          1462.35310	         8.46004e+57
          1463.15940	         9.36598e+57
          1463.96570	         1.16359e+58
          1464.77200	         1.29091e+58
          1465.57830	         1.14350e+58
          1466.38460	         1.04653e+58
          1467.19090	         9.00139e+57
          1467.99720	         9.17921e+57
          1468.80350	         9.27616e+57
          1469.60980	         9.39303e+57
          1470.41610	         1.04175e+58
          1471.22240	         1.00820e+58
          1472.02870	         1.04410e+58
          1472.83500	         1.06592e+58
          1473.64130	         9.13308e+57
          1474.44760	         1.01472e+58
          1475.25390	         1.11947e+58
          1476.06020	         1.00367e+58
          1476.86650	         8.29861e+57
          1477.67280	         8.70162e+57
          1478.47910	         7.54433e+57
          1479.28540	         6.72713e+57
          1480.09170	         8.57235e+57
          1480.89800	         9.09233e+57
          1481.70430	         8.61736e+57
          1482.51060	         7.20733e+57
          1483.31690	         7.46570e+57
          1484.12320	         8.34788e+57
          1484.92950	         7.23413e+57
          1485.73580	         7.15982e+57
          1486.54210	         8.42021e+57
          1487.34840	         9.75138e+57
          1488.15470	         9.22176e+57
          1488.96100	         9.01484e+57
          1489.76730	         9.29052e+57
