#sample_468_stacked_spectrum_rest_UV-bands_median_H-alpha_noDC.txt
#median Lum: 1.67954e+42
#Rest-frame wavelength (A) | Luminosity (erg/s/A)
#
          1110.00000	         0.00000e+00
          1110.80630	         1.83995e+59
          1111.61260	         1.64491e+59
          1112.41890	         2.36167e+59
          1113.22520	         1.92890e+59
          1114.03150	        -2.85151e+59
          1114.83780	         1.92505e+59
          1115.64410	         1.48374e+59
          1116.45040	         6.65621e+58
          1117.25670	         1.64333e+59
          1118.06300	         1.58005e+58
          1118.86930	        -4.96101e+58
          1119.67560	         1.14427e+59
          1120.48190	        -1.90333e+57
          1121.28820	        -1.19991e+59
          1122.09450	         1.09719e+59
          1122.90080	         3.66741e+58
          1123.70710	         5.67738e+58
          1124.51340	         4.72508e+58
          1125.31970	        -1.62752e+58
          1126.12600	         1.05880e+58
          1126.93230	        -3.80697e+58
          1127.73860	        -1.92812e+58
          1128.54490	         5.27949e+58
          1129.35120	         2.95646e+58
          1130.15750	        -2.04629e+58
          1130.96380	        -1.16794e+58
          1131.77010	         1.07623e+58
          1132.57640	         2.95156e+58
          1133.38270	         5.21263e+58
          1134.18900	         2.07037e+58
          1134.99530	         3.63692e+58
          1135.80160	         6.12240e+58
          1136.60790	         2.26662e+58
          1137.41420	        -2.13341e+57
          1138.22050	         2.31520e+58
          1139.02680	         5.40992e+58
          1139.83310	         3.93121e+58
          1140.63940	         1.48879e+58
          1141.44570	        -1.47224e+58
          1142.25200	         1.32165e+58
          1143.05830	         1.83003e+58
          1143.86460	         1.34393e+58
          1144.67090	         1.87785e+58
          1145.47720	         1.33364e+58
          1146.28350	        -1.14048e+55
          1147.08980	         2.62308e+58
          1147.89610	         1.75477e+58
          1148.70240	         2.07950e+58
          1149.50870	         2.98248e+58
          1150.31500	         1.53870e+58
          1151.12130	         1.20847e+58
          1151.92760	        -2.43087e+57
          1152.73390	        -5.35930e+57
          1153.54020	         1.15976e+57
          1154.34650	         1.37900e+58
          1155.15280	         1.84923e+58
          1155.95910	         7.63188e+57
          1156.76540	         1.68202e+58
          1157.57170	         8.85059e+57
          1158.37800	        -8.01672e+57
          1159.18430	        -8.15562e+57
          1159.99060	         5.20383e+57
          1160.79690	         4.32724e+57
          1161.60320	         1.09982e+58
          1162.40950	         1.48154e+58
          1163.21580	         1.95570e+58
          1164.02210	         1.07125e+58
          1164.82840	         1.54767e+58
          1165.63470	         1.94989e+58
          1166.44100	         3.08385e+58
          1167.24730	         1.24730e+58
          1168.05360	         8.14333e+57
          1168.85990	         1.66085e+58
          1169.66620	         1.03061e+58
          1170.47250	         1.15973e+58
          1171.27880	         1.54644e+58
          1172.08510	         1.90028e+58
          1172.89140	         1.50031e+58
          1173.69770	         5.14031e+57
          1174.50400	         1.07732e+58
          1175.31030	         1.53748e+58
          1176.11660	         1.82705e+58
          1176.92290	         1.84096e+58
          1177.72920	         1.54679e+58
          1178.53550	         7.17256e+57
          1179.34180	         7.85860e+57
          1180.14810	         9.28389e+57
          1180.95440	         8.65533e+57
          1181.76070	         3.76688e+57
          1182.56700	         5.20894e+57
          1183.37330	         1.01433e+58
          1184.17960	         1.24878e+58
          1184.98590	         1.07865e+58
          1185.79220	         6.45025e+57
          1186.59850	         1.12682e+58
          1187.40480	         1.35781e+58
          1188.21110	         9.52127e+57
          1189.01740	         9.46251e+57
          1189.82370	         1.27157e+58
          1190.63000	         1.17589e+58
          1191.43630	         9.92106e+57
          1192.24260	         1.04146e+58
          1193.04890	         1.27043e+58
          1193.85520	         1.43378e+58
          1194.66150	         4.43756e+57
          1195.46780	         1.30378e+58
          1196.27410	         1.77813e+58
          1197.08040	         8.36429e+57
          1197.88670	         1.29512e+58
          1198.69300	         1.41379e+58
          1199.49930	         1.55733e+58
          1200.30560	         1.26693e+58
          1201.11190	         1.15079e+58
          1201.91820	         1.31022e+58
          1202.72450	         7.61753e+57
          1203.53080	         1.46043e+58
          1204.33710	         8.19863e+57
          1205.14340	         6.59006e+57
          1205.94970	         7.01174e+57
          1206.75600	         7.43467e+57
          1207.56230	         6.61965e+57
          1208.36860	         6.86434e+57
          1209.17490	         3.45445e+57
          1209.98120	         6.18963e+57
          1210.78750	         9.93433e+57
          1211.59380	         1.07339e+58
          1212.40010	         1.46245e+58
          1213.20640	         1.65821e+58
          1214.01270	         1.85908e+58
          1214.81900	         2.85698e+58
          1215.62530	         4.92597e+58
          1216.43160	         9.07939e+58
          1217.23790	         1.50296e+59
          1218.04420	         1.14340e+59
          1218.85050	         8.45695e+58
          1219.65680	         5.71513e+58
          1220.46310	         3.27304e+58
          1221.26940	         2.17866e+58
          1222.07570	         1.24542e+58
          1222.88200	         6.67923e+57
          1223.68830	         8.15365e+57
          1224.49460	         8.58707e+57
          1225.30090	         5.51936e+57
          1226.10720	         5.45748e+57
          1226.91350	         6.47420e+57
          1227.71980	         1.00446e+58
          1228.52610	         1.34516e+58
          1229.33240	         1.28922e+58
          1230.13870	         1.11900e+58
          1230.94500	         1.05803e+58
          1231.75130	         6.37811e+57
          1232.55760	         8.05392e+57
          1233.36390	         9.69606e+57
          1234.17020	         8.74857e+57
          1234.97650	         9.23905e+57
          1235.78280	         9.11528e+57
          1236.58910	         7.79290e+57
          1237.39540	         1.08169e+58
          1238.20170	         1.10273e+58
          1239.00800	         1.11015e+58
          1239.81430	         1.32839e+58
          1240.62060	         1.02767e+58
          1241.42690	         8.77536e+57
          1242.23320	         1.04434e+58
          1243.03950	         8.45418e+57
          1243.84580	         8.76357e+57
          1244.65210	         1.06710e+58
          1245.45840	         7.78677e+57
          1246.26470	         7.03056e+57
          1247.07100	         5.66915e+57
          1247.87730	         4.12869e+57
          1248.68360	         3.59071e+57
          1249.48990	         6.79162e+57
          1250.29620	         8.15400e+57
          1251.10250	         5.85524e+57
          1251.90880	         2.29845e+57
          1252.71510	         4.22466e+57
          1253.52140	         5.54605e+57
          1254.32770	         9.50403e+57
          1255.13400	         1.45030e+58
          1255.94030	         1.26243e+58
          1256.74660	         7.98048e+57
          1257.55290	         8.35729e+57
          1258.35920	         7.00069e+57
          1259.16550	         4.73657e+57
          1259.97180	         3.14636e+57
          1260.77810	         6.98181e+57
          1261.58440	         9.96489e+57
          1262.39070	         9.63644e+57
          1263.19700	         1.07224e+58
          1264.00330	         8.34761e+57
          1264.80960	         9.27074e+57
          1265.61590	         1.22227e+58
          1266.42220	         1.18739e+58
          1267.22850	         1.22975e+58
          1268.03480	         1.52235e+58
          1268.84110	         1.49705e+58
          1269.64740	         1.14780e+58
          1270.45370	         1.32823e+58
          1271.26000	         1.34871e+58
          1272.06630	         1.30597e+58
          1272.87260	         1.45887e+58
          1273.67890	         1.40214e+58
          1274.48520	         1.15488e+58
          1275.29150	         1.14505e+58
          1276.09780	         1.13706e+58
          1276.90410	         1.48686e+58
          1277.71040	         1.36674e+58
          1278.51670	         1.16284e+58
          1279.32300	         1.26379e+58
          1280.12930	         1.25072e+58
          1280.93560	         1.09212e+58
          1281.74190	         1.22358e+58
          1282.54820	         1.36699e+58
          1283.35450	         1.13190e+58
          1284.16080	         1.25207e+58
          1284.96710	         1.57070e+58
          1285.77340	         1.10020e+58
          1286.57970	         9.96211e+57
          1287.38600	         1.51555e+58
          1288.19230	         1.91786e+58
          1288.99860	         1.66370e+58
          1289.80490	         1.02873e+58
          1290.61120	         1.35581e+58
          1291.41750	         1.45758e+58
          1292.22380	         1.14773e+58
          1293.03010	         1.23220e+58
          1293.83640	         1.26336e+58
          1294.64270	         9.81651e+57
          1295.44900	         6.21202e+57
          1296.25530	         6.87111e+57
          1297.06160	         8.13285e+57
          1297.86790	         8.25871e+57
          1298.67420	         9.22517e+57
          1299.48050	         9.55333e+57
          1300.28680	         1.11527e+58
          1301.09310	         9.53115e+57
          1301.89940	         4.59846e+57
          1302.70570	         4.51122e+57
          1303.51200	         7.08753e+57
          1304.31830	         8.77759e+57
          1305.12460	         9.75120e+57
          1305.93090	         1.08722e+58
          1306.73720	         1.24472e+58
          1307.54350	         1.31297e+58
          1308.34980	         1.38496e+58
          1309.15610	         1.63539e+58
          1309.96240	         1.56130e+58
          1310.76870	         1.29843e+58
          1311.57500	         1.18121e+58
          1312.38130	         1.19011e+58
          1313.18760	         1.56568e+58
          1313.99390	         1.66615e+58
          1314.80020	         1.71789e+58
          1315.60650	         1.74789e+58
          1316.41280	         1.36182e+58
          1317.21910	         1.18312e+58
          1318.02540	         1.21965e+58
          1318.83170	         1.18686e+58
          1319.63800	         1.12987e+58
          1320.44430	         1.16603e+58
          1321.25060	         1.30027e+58
          1322.05690	         1.19535e+58
          1322.86320	         9.72386e+57
          1323.66950	         9.41834e+57
          1324.47580	         7.54734e+57
          1325.28210	         8.62219e+57
          1326.08840	         1.06174e+58
          1326.89470	         1.24043e+58
          1327.70100	         1.05639e+58
          1328.50730	         8.39695e+57
          1329.31360	         8.78380e+57
          1330.11990	         8.21188e+57
          1330.92620	         7.37218e+57
          1331.73250	         1.07420e+58
          1332.53880	         1.15274e+58
          1333.34510	         1.03248e+58
          1334.15140	         9.13599e+57
          1334.95770	         8.18707e+57
          1335.76400	         9.86946e+57
          1336.57030	         1.13697e+58
          1337.37660	         1.26695e+58
          1338.18290	         1.22496e+58
          1338.98920	         1.21000e+58
          1339.79550	         1.08120e+58
          1340.60180	         1.19956e+58
          1341.40810	         1.30182e+58
          1342.21440	         1.21137e+58
          1343.02070	         1.05366e+58
          1343.82700	         1.25009e+58
          1344.63330	         1.37733e+58
          1345.43960	         1.43918e+58
          1346.24590	         1.06941e+58
          1347.05220	         1.10295e+58
          1347.85850	         1.12015e+58
          1348.66480	         1.19950e+58
          1349.47110	         1.25822e+58
          1350.27740	         1.18186e+58
          1351.08370	         1.03366e+58
          1351.89000	         1.12548e+58
          1352.69630	         1.20203e+58
          1353.50260	         1.14855e+58
          1354.30890	         1.20824e+58
          1355.11520	         1.24239e+58
          1355.92150	         1.06164e+58
          1356.72780	         1.03397e+58
          1357.53410	         1.08857e+58
          1358.34040	         1.14412e+58
          1359.14670	         1.00672e+58
          1359.95300	         1.10078e+58
          1360.75930	         1.07070e+58
          1361.56560	         1.02682e+58
          1362.37190	         1.14728e+58
          1363.17820	         1.05002e+58
          1363.98450	         1.18018e+58
          1364.79080	         1.38328e+58
          1365.59710	         1.28412e+58
          1366.40340	         1.01789e+58
          1367.20970	         1.01751e+58
          1368.01600	         9.23847e+57
          1368.82230	         9.47600e+57
          1369.62860	         1.05042e+58
          1370.43490	         9.26373e+57
          1371.24120	         8.57353e+57
          1372.04750	         8.80805e+57
          1372.85380	         1.07727e+58
          1373.66010	         1.12231e+58
          1374.46640	         1.09590e+58
          1375.27270	         1.15401e+58
          1376.07900	         1.07749e+58
          1376.88530	         8.80721e+57
          1377.69160	         8.50281e+57
          1378.49790	         7.80838e+57
          1379.30420	         7.87118e+57
          1380.11050	         8.63931e+57
          1380.91680	         8.37074e+57
          1381.72310	         7.65430e+57
          1382.52940	         7.27792e+57
          1383.33570	         9.36735e+57
          1384.14200	         1.05743e+58
          1384.94830	         1.11418e+58
          1385.75460	         1.18663e+58
          1386.56090	         1.21858e+58
          1387.36720	         1.02471e+58
          1388.17350	         1.26707e+58
          1388.97980	         1.29656e+58
          1389.78610	         9.08193e+57
          1390.59240	         7.59687e+57
          1391.39870	         6.74839e+57
          1392.20500	         7.97201e+57
          1393.01130	         7.76813e+57
          1393.81760	         5.93238e+57
          1394.62390	         6.60898e+57
          1395.43020	         6.48151e+57
          1396.23650	         6.38657e+57
          1397.04280	         8.22769e+57
          1397.84910	         9.11618e+57
          1398.65540	         9.59001e+57
          1399.46170	         1.02767e+58
          1400.26800	         7.20857e+57
          1401.07430	         5.21342e+57
          1401.88060	         6.97192e+57
          1402.68690	         9.01093e+57
          1403.49320	         9.29872e+57
          1404.29950	         8.62966e+57
          1405.10580	         1.04586e+58
          1405.91210	         1.13632e+58
          1406.71840	         1.04716e+58
          1407.52470	         9.88428e+57
          1408.33100	         9.91280e+57
          1409.13730	         1.11729e+58
          1409.94360	         1.16903e+58
          1410.74990	         1.10513e+58
          1411.55620	         9.03541e+57
          1412.36250	         7.96012e+57
          1413.16880	         9.10314e+57
          1413.97510	         8.15314e+57
          1414.78140	         9.00690e+57
          1415.58770	         1.17475e+58
          1416.39400	         1.24127e+58
          1417.20030	         1.15880e+58
          1418.00660	         8.62178e+57
          1418.81290	         9.50862e+57
          1419.61920	         9.76755e+57
          1420.42550	         1.15726e+58
          1421.23180	         1.42884e+58
          1422.03810	         1.24490e+58
          1422.84440	         1.10853e+58
          1423.65070	         1.27410e+58
          1424.45700	         1.03150e+58
          1425.26330	         6.84107e+57
          1426.06960	         7.65520e+57
          1426.87590	         9.07667e+57
          1427.68220	         9.50029e+57
          1428.48850	         1.01707e+58
          1429.29480	         1.11247e+58
          1430.10110	         1.01055e+58
          1430.90740	         8.14411e+57
          1431.71370	         9.04599e+57
          1432.52000	         9.29628e+57
          1433.32630	         8.78845e+57
          1434.13260	         8.27362e+57
          1434.93890	         8.18646e+57
          1435.74520	         8.58784e+57
          1436.55150	         9.15584e+57
          1437.35780	         8.62344e+57
          1438.16410	         9.10693e+57
          1438.97040	         9.15687e+57
          1439.77670	         9.42710e+57
          1440.58300	         1.04352e+58
          1441.38930	         1.09553e+58
          1442.19560	         1.01900e+58
          1443.00190	         1.04112e+58
          1443.80820	         1.08323e+58
          1444.61450	         9.58697e+57
          1445.42080	         8.13715e+57
          1446.22710	         1.05128e+58
          1447.03340	         1.07472e+58
          1447.83970	         1.05664e+58
          1448.64600	         1.16691e+58
          1449.45230	         1.04781e+58
          1450.25860	         9.64283e+57
          1451.06490	         8.70710e+57
          1451.87120	         7.53361e+57
          1452.67750	         7.64466e+57
          1453.48380	         8.53681e+57
          1454.29010	         7.48229e+57
          1455.09640	         7.52785e+57
          1455.90270	         8.02039e+57
          1456.70900	         8.73148e+57
          1457.51530	         9.63698e+57
          1458.32160	         1.12789e+58
          1459.12790	         1.23282e+58
          1459.93420	         1.11066e+58
          1460.74050	         7.76733e+57
          1461.54680	         7.08739e+57
          1462.35310	         7.03724e+57
          1463.15940	         8.83315e+57
          1463.96570	         1.13420e+58
          1464.77200	         1.15636e+58
          1465.57830	         1.05070e+58
          1466.38460	         9.51169e+57
          1467.19090	         8.09909e+57
          1467.99720	         8.63623e+57
          1468.80350	         1.05086e+58
          1469.60980	         1.07631e+58
          1470.41610	         1.09477e+58
          1471.22240	         1.01463e+58
          1472.02870	         9.65050e+57
          1472.83500	         9.69385e+57
          1473.64130	         9.87938e+57
          1474.44760	         9.88656e+57
          1475.25390	         8.73921e+57
          1476.06020	         7.21103e+57
          1476.86650	         7.31020e+57
          1477.67280	         7.63135e+57
          1478.47910	         6.61431e+57
          1479.28540	         6.83792e+57
          1480.09170	         9.01278e+57
          1480.89800	         8.50715e+57
          1481.70430	         7.68578e+57
          1482.51060	         8.03188e+57
          1483.31690	         7.49882e+57
          1484.12320	         7.07456e+57
          1484.92950	         7.38450e+57
          1485.73580	         8.18525e+57
          1486.54210	         8.70118e+57
          1487.34840	         7.85036e+57
          1488.15470	         7.35265e+57
          1488.96100	         9.11534e+57
          1489.76730	         9.32721e+57
