#sample_307_stacked_spectrum_rest_UV-bands_median_H-alpha_noDC.txt
#median Lum: 1.70391e+42
#Rest-frame wavelength (A) | Luminosity (erg/s/A)
#
          1110.00000	         0.00000e+00
          1110.80630	         2.47222e+59
          1111.61260	         2.26029e+59
          1112.41890	         1.96613e+59
          1113.22520	        -4.85516e+58
          1114.03150	        -1.59804e+59
          1114.83780	         5.52821e+58
          1115.64410	         2.51732e+59
          1116.45040	         1.08246e+59
          1117.25670	         1.63280e+58
          1118.06300	         1.26070e+59
          1118.86930	         2.03438e+58
          1119.67560	         1.37067e+59
          1120.48190	        -5.58854e+58
          1121.28820	        -1.98189e+59
          1122.09450	        -2.36062e+58
          1122.90080	         1.71994e+58
          1123.70710	         7.53744e+58
          1124.51340	         5.65502e+58
          1125.31970	         2.36336e+58
          1126.12600	        -2.55036e+58
          1126.93230	        -3.15381e+58
          1127.73860	        -4.59434e+58
          1128.54490	         4.48952e+57
          1129.35120	         2.63800e+58
          1130.15750	        -1.23986e+58
          1130.96380	        -2.60971e+58
          1131.77010	         2.34703e+58
          1132.57640	         3.10660e+58
          1133.38270	         4.35730e+58
          1134.18900	         1.87293e+58
          1134.99530	         2.51379e+58
          1135.80160	         1.90479e+58
          1136.60790	         1.71845e+58
          1137.41420	        -1.31276e+58
          1138.22050	         2.94040e+58
          1139.02680	         3.21576e+58
          1139.83310	         1.04894e+58
          1140.63940	         3.32120e+58
          1141.44570	         4.88950e+57
          1142.25200	         1.82608e+57
          1143.05830	         5.85621e+57
          1143.86460	         1.70819e+58
          1144.67090	         2.35607e+58
          1145.47720	         1.32866e+58
          1146.28350	         2.30424e+58
          1147.08980	         1.38042e+58
          1147.89610	         2.33811e+58
          1148.70240	         2.73197e+58
          1149.50870	         2.73059e+58
          1150.31500	         1.57073e+58
          1151.12130	         1.64395e+58
          1151.92760	         2.27031e+57
          1152.73390	         3.92078e+57
          1153.54020	         1.90333e+56
          1154.34650	         1.78797e+58
          1155.15280	         2.32837e+58
          1155.95910	         1.82965e+58
          1156.76540	         9.07795e+56
          1157.57170	        -2.05196e+57
          1158.37800	         6.27760e+57
          1159.18430	        -1.44356e+57
          1159.99060	         6.46116e+57
          1160.79690	         7.46984e+57
          1161.60320	         1.30840e+58
          1162.40950	         2.36359e+58
          1163.21580	         1.44945e+58
          1164.02210	         5.96846e+57
          1164.82840	         1.92360e+58
          1165.63470	         2.64060e+58
          1166.44100	         3.40703e+58
          1167.24730	         1.90666e+58
          1168.05360	         3.44734e+57
          1168.85990	         1.12311e+57
          1169.66620	         1.01195e+58
          1170.47250	         2.03323e+58
          1171.27880	         1.56091e+58
          1172.08510	         1.61588e+58
          1172.89140	         1.16626e+58
          1173.69770	         1.55309e+58
          1174.50400	         1.33496e+58
          1175.31030	         1.54657e+58
          1176.11660	         1.79292e+58
          1176.92290	         1.47985e+58
          1177.72920	         1.02843e+58
          1178.53550	         1.84344e+57
          1179.34180	        -5.57312e+57
          1180.14810	        -2.38431e+57
          1180.95440	         5.56896e+57
          1181.76070	         5.64696e+57
          1182.56700	         6.68757e+57
          1183.37330	         7.91913e+57
          1184.17960	         1.36348e+58
          1184.98590	         1.10160e+58
          1185.79220	         5.76119e+57
          1186.59850	         9.30243e+57
          1187.40480	         9.12667e+57
          1188.21110	         1.37001e+58
          1189.01740	         7.34869e+57
          1189.82370	         6.52598e+57
          1190.63000	         9.25792e+57
          1191.43630	         1.24667e+58
          1192.24260	         1.36546e+58
          1193.04890	         1.20578e+58
          1193.85520	         1.07003e+58
          1194.66150	         8.10934e+57
          1195.46780	         1.34517e+58
          1196.27410	         1.18104e+58
          1197.08040	         7.39156e+57
          1197.88670	         1.25243e+58
          1198.69300	         1.47979e+58
          1199.49930	         1.54884e+58
          1200.30560	         1.22444e+58
          1201.11190	         1.25119e+58
          1201.91820	         1.03433e+58
          1202.72450	         5.27397e+57
          1203.53080	         9.73385e+57
          1204.33710	         6.42480e+57
          1205.14340	         9.56481e+57
          1205.94970	         1.32595e+58
          1206.75600	         9.78268e+57
          1207.56230	         4.05767e+57
          1208.36860	         3.54501e+57
          1209.17490	         4.55365e+57
          1209.98120	         3.76491e+57
          1210.78750	         8.14109e+57
          1211.59380	         1.10327e+58
          1212.40010	         1.61152e+58
          1213.20640	         1.87841e+58
          1214.01270	         2.11793e+58
          1214.81900	         2.42417e+58
          1215.62530	         4.26765e+58
          1216.43160	         8.91851e+58
          1217.23790	         1.52351e+59
          1218.04420	         1.16446e+59
          1218.85050	         8.96937e+58
          1219.65680	         5.72966e+58
          1220.46310	         3.23499e+58
          1221.26940	         2.36379e+58
          1222.07570	         1.32261e+58
          1222.88200	         9.04271e+57
          1223.68830	         7.23595e+57
          1224.49460	         4.99790e+57
          1225.30090	         7.44323e+57
          1226.10720	         6.18648e+57
          1226.91350	         5.63576e+57
          1227.71980	         9.11766e+57
          1228.52610	         1.21296e+58
          1229.33240	         6.99045e+57
          1230.13870	         5.81687e+57
          1230.94500	         7.67391e+57
          1231.75130	         6.30593e+57
          1232.55760	         7.56660e+57
          1233.36390	         9.52634e+57
          1234.17020	         6.98250e+57
          1234.97650	         6.48318e+57
          1235.78280	         1.08062e+58
          1236.58910	         1.02874e+58
          1237.39540	         8.67695e+57
          1238.20170	         1.02592e+58
          1239.00800	         1.30637e+58
          1239.81430	         1.22343e+58
          1240.62060	         8.70998e+57
          1241.42690	         9.42977e+57
          1242.23320	         1.10198e+58
          1243.03950	         7.11455e+57
          1243.84580	         8.31619e+57
          1244.65210	         1.11719e+58
          1245.45840	         7.52884e+57
          1246.26470	         7.05095e+57
          1247.07100	         7.52094e+57
          1247.87730	         5.75147e+57
          1248.68360	         4.86232e+57
          1249.48990	         7.79181e+57
          1250.29620	         7.30724e+57
          1251.10250	         2.85459e+57
          1251.90880	         4.97082e+57
          1252.71510	         5.11360e+57
          1253.52140	         5.95477e+57
          1254.32770	         1.10073e+58
          1255.13400	         1.22081e+58
          1255.94030	         1.10648e+58
          1256.74660	         8.76568e+57
          1257.55290	         1.07509e+58
          1258.35920	         1.07134e+58
          1259.16550	         6.49673e+57
          1259.97180	         2.71253e+57
          1260.77810	         7.47680e+57
          1261.58440	         1.36564e+58
          1262.39070	         1.14225e+58
          1263.19700	         8.89923e+57
          1264.00330	         8.80790e+57
          1264.80960	         1.10296e+58
          1265.61590	         1.09876e+58
          1266.42220	         1.21645e+58
          1267.22850	         1.10698e+58
          1268.03480	         1.43887e+58
          1268.84110	         1.68595e+58
          1269.64740	         1.40135e+58
          1270.45370	         1.48769e+58
          1271.26000	         1.40353e+58
          1272.06630	         1.25031e+58
          1272.87260	         1.25675e+58
          1273.67890	         1.31812e+58
          1274.48520	         1.04367e+58
          1275.29150	         1.19772e+58
          1276.09780	         1.33310e+58
          1276.90410	         1.52746e+58
          1277.71040	         1.21722e+58
          1278.51670	         1.05732e+58
          1279.32300	         1.47506e+58
          1280.12930	         1.28849e+58
          1280.93560	         1.08859e+58
          1281.74190	         1.17602e+58
          1282.54820	         1.39682e+58
          1283.35450	         1.13155e+58
          1284.16080	         9.46262e+57
          1284.96710	         1.22149e+58
          1285.77340	         1.15264e+58
          1286.57970	         1.06969e+58
          1287.38600	         1.53346e+58
          1288.19230	         1.92655e+58
          1288.99860	         1.80227e+58
          1289.80490	         1.08567e+58
          1290.61120	         1.12327e+58
          1291.41750	         1.36737e+58
          1292.22380	         1.17558e+58
          1293.03010	         9.83257e+57
          1293.83640	         9.69687e+57
          1294.64270	         1.12984e+58
          1295.44900	         9.97529e+57
          1296.25530	         8.21156e+57
          1297.06160	         8.59414e+57
          1297.86790	         1.06109e+58
          1298.67420	         1.15996e+58
          1299.48050	         1.21815e+58
          1300.28680	         1.21668e+58
          1301.09310	         8.87341e+57
          1301.89940	         4.92932e+57
          1302.70570	         5.32324e+57
          1303.51200	         6.81190e+57
          1304.31830	         8.63337e+57
          1305.12460	         1.05091e+58
          1305.93090	         1.17307e+58
          1306.73720	         1.20934e+58
          1307.54350	         1.35523e+58
          1308.34980	         1.44266e+58
          1309.15610	         1.58444e+58
          1309.96240	         1.38611e+58
          1310.76870	         1.23371e+58
          1311.57500	         1.24814e+58
          1312.38130	         1.10909e+58
          1313.18760	         1.42811e+58
          1313.99390	         1.65531e+58
          1314.80020	         1.63991e+58
          1315.60650	         1.62568e+58
          1316.41280	         1.15714e+58
          1317.21910	         8.24650e+57
          1318.02540	         9.34150e+57
          1318.83170	         1.10320e+58
          1319.63800	         1.14017e+58
          1320.44430	         1.08208e+58
          1321.25060	         1.13307e+58
          1322.05690	         1.18306e+58
          1322.86320	         1.22829e+58
          1323.66950	         1.15749e+58
          1324.47580	         9.32484e+57
          1325.28210	         9.37363e+57
          1326.08840	         1.15209e+58
          1326.89470	         1.37577e+58
          1327.70100	         1.18068e+58
          1328.50730	         6.77779e+57
          1329.31360	         7.48733e+57
          1330.11990	         1.08446e+58
          1330.92620	         1.05448e+58
          1331.73250	         1.10345e+58
          1332.53880	         1.13862e+58
          1333.34510	         8.63089e+57
          1334.15140	         7.91575e+57
          1334.95770	         9.59003e+57
          1335.76400	         1.04121e+58
          1336.57030	         1.10110e+58
          1337.37660	         1.10865e+58
          1338.18290	         1.10871e+58
          1338.98920	         1.06125e+58
          1339.79550	         1.03430e+58
          1340.60180	         1.25589e+58
          1341.40810	         1.45701e+58
          1342.21440	         1.30912e+58
          1343.02070	         1.26336e+58
          1343.82700	         1.27975e+58
          1344.63330	         1.27354e+58
          1345.43960	         1.34549e+58
          1346.24590	         1.08521e+58
          1347.05220	         1.11921e+58
          1347.85850	         1.08562e+58
          1348.66480	         1.23785e+58
          1349.47110	         1.27048e+58
          1350.27740	         1.09818e+58
          1351.08370	         1.08309e+58
          1351.89000	         1.04014e+58
          1352.69630	         1.22465e+58
          1353.50260	         1.19527e+58
          1354.30890	         1.17741e+58
          1355.11520	         1.19873e+58
          1355.92150	         1.08734e+58
          1356.72780	         1.04364e+58
          1357.53410	         1.00643e+58
          1358.34040	         1.01687e+58
          1359.14670	         1.01807e+58
          1359.95300	         1.15879e+58
          1360.75930	         1.15651e+58
          1361.56560	         1.18016e+58
          1362.37190	         1.22150e+58
          1363.17820	         1.08803e+58
          1363.98450	         1.11894e+58
          1364.79080	         1.12590e+58
          1365.59710	         1.17908e+58
          1366.40340	         1.25112e+58
          1367.20970	         9.63040e+57
          1368.01600	         9.01238e+57
          1368.82230	         1.11092e+58
          1369.62860	         1.15802e+58
          1370.43490	         9.18075e+57
          1371.24120	         9.45875e+57
          1372.04750	         9.52740e+57
          1372.85380	         1.03658e+58
          1373.66010	         1.12196e+58
          1374.46640	         1.03365e+58
          1375.27270	         1.05376e+58
          1376.07900	         9.40377e+57
          1376.88530	         8.66099e+57
          1377.69160	         7.91633e+57
          1378.49790	         6.71852e+57
          1379.30420	         7.75544e+57
          1380.11050	         9.81071e+57
          1380.91680	         8.30201e+57
          1381.72310	         7.82028e+57
          1382.52940	         7.74484e+57
          1383.33570	         7.74267e+57
          1384.14200	         7.56418e+57
          1384.94830	         8.96962e+57
          1385.75460	         1.00795e+58
          1386.56090	         1.07952e+58
          1387.36720	         1.16460e+58
          1388.17350	         1.38137e+58
          1388.97980	         1.03239e+58
          1389.78610	         7.64827e+57
          1390.59240	         7.38805e+57
          1391.39870	         6.59769e+57
          1392.20500	         7.85470e+57
          1393.01130	         6.41604e+57
          1393.81760	         6.32385e+57
          1394.62390	         7.37538e+57
          1395.43020	         6.36587e+57
          1396.23650	         7.11529e+57
          1397.04280	         8.93393e+57
          1397.84910	         9.56906e+57
          1398.65540	         9.28448e+57
          1399.46170	         1.00456e+58
          1400.26800	         8.72010e+57
          1401.07430	         8.45799e+57
          1401.88060	         8.59436e+57
          1402.68690	         9.33048e+57
          1403.49320	         8.68170e+57
          1404.29950	         8.58497e+57
          1405.10580	         1.06860e+58
          1405.91210	         1.15735e+58
          1406.71840	         1.12516e+58
          1407.52470	         1.07013e+58
          1408.33100	         1.02284e+58
          1409.13730	         1.19982e+58
          1409.94360	         1.19027e+58
          1410.74990	         1.09135e+58
          1411.55620	         1.00292e+58
          1412.36250	         9.58629e+57
          1413.16880	         9.84735e+57
          1413.97510	         8.16221e+57
          1414.78140	         8.41591e+57
          1415.58770	         1.07982e+58
          1416.39400	         1.08183e+58
          1417.20030	         1.06740e+58
          1418.00660	         9.15173e+57
          1418.81290	         9.60227e+57
          1419.61920	         9.98885e+57
          1420.42550	         1.16326e+58
          1421.23180	         1.31934e+58
          1422.03810	         1.33684e+58
          1422.84440	         1.17439e+58
          1423.65070	         1.31050e+58
          1424.45700	         1.12781e+58
          1425.26330	         7.33433e+57
          1426.06960	         8.04474e+57
          1426.87590	         1.03993e+58
          1427.68220	         1.02380e+58
          1428.48850	         1.03342e+58
          1429.29480	         1.03306e+58
          1430.10110	         1.08624e+58
          1430.90740	         9.62775e+57
          1431.71370	         9.49765e+57
          1432.52000	         9.90697e+57
          1433.32630	         8.19692e+57
          1434.13260	         8.35767e+57
          1434.93890	         8.97669e+57
          1435.74520	         8.78597e+57
          1436.55150	         8.77917e+57
          1437.35780	         8.90584e+57
          1438.16410	         9.08287e+57
          1438.97040	         9.09664e+57
          1439.77670	         8.84137e+57
          1440.58300	         9.29134e+57
          1441.38930	         9.59925e+57
          1442.19560	         9.66555e+57
          1443.00190	         9.60440e+57
          1443.80820	         1.06274e+58
          1444.61450	         9.42003e+57
          1445.42080	         8.64630e+57
          1446.22710	         1.08463e+58
          1447.03340	         1.06818e+58
          1447.83970	         1.06224e+58
          1448.64600	         1.13143e+58
          1449.45230	         1.04819e+58
          1450.25860	         1.03727e+58
          1451.06490	         9.73633e+57
          1451.87120	         8.15196e+57
          1452.67750	         8.65365e+57
          1453.48380	         8.21909e+57
          1454.29010	         7.49812e+57
          1455.09640	         7.59905e+57
          1455.90270	         9.35166e+57
          1456.70900	         8.90410e+57
          1457.51530	         1.02635e+58
          1458.32160	         1.14555e+58
          1459.12790	         1.07078e+58
          1459.93420	         9.99321e+57
          1460.74050	         8.80970e+57
          1461.54680	         8.81150e+57
          1462.35310	         7.83024e+57
          1463.15940	         9.05255e+57
          1463.96570	         1.09172e+58
          1464.77200	         1.10741e+58
          1465.57830	         1.08943e+58
          1466.38460	         9.71000e+57
          1467.19090	         9.11291e+57
          1467.99720	         9.28779e+57
          1468.80350	         9.04280e+57
          1469.60980	         9.23080e+57
          1470.41610	         9.44504e+57
          1471.22240	         8.71388e+57
          1472.02870	         9.00343e+57
          1472.83500	         1.01541e+58
          1473.64130	         1.00407e+58
          1474.44760	         8.90388e+57
          1475.25390	         8.20883e+57
          1476.06020	         8.76512e+57
          1476.86650	         9.07797e+57
          1477.67280	         8.40665e+57
          1478.47910	         7.17620e+57
          1479.28540	         7.05997e+57
          1480.09170	         8.07314e+57
          1480.89800	         8.57434e+57
          1481.70430	         8.27929e+57
          1482.51060	         8.47075e+57
          1483.31690	         8.44469e+57
          1484.12320	         7.97354e+57
          1484.92950	         8.18210e+57
          1485.73580	         8.29633e+57
          1486.54210	         7.45932e+57
          1487.34840	         8.00898e+57
          1488.15470	         7.78580e+57
          1488.96100	         8.25487e+57
          1489.76730	         9.21827e+57
