#sample_363_stacked_spectrum_rest_UV-bands_median_H-alpha_noDC.txt
#median Lum: 1.67425e+42
#Rest-frame wavelength (A) | Luminosity (erg/s/A)
#
          1110.00000	         0.00000e+00
          1110.80630	        -3.02917e+58
          1111.61260	         1.49070e+59
          1112.41890	        -4.92887e+58
          1113.22520	        -1.39065e+59
          1114.03150	        -2.89147e+59
          1114.83780	        -1.16819e+59
          1115.64410	         1.52286e+59
          1116.45040	         6.83394e+58
          1117.25670	         4.85553e+58
          1118.06300	         1.25004e+59
          1118.86930	         2.97845e+58
          1119.67560	         1.11707e+59
          1120.48190	         3.56064e+58
          1121.28820	        -1.13081e+59
          1122.09450	         8.48846e+57
          1122.90080	        -6.13929e+58
          1123.70710	         2.93999e+58
          1124.51340	         8.12941e+58
          1125.31970	        -2.48226e+58
          1126.12600	         1.82486e+58
          1126.93230	         3.69130e+57
          1127.73860	        -2.79610e+58
          1128.54490	        -6.92614e+57
          1129.35120	         3.29912e+57
          1130.15750	        -2.41392e+58
          1130.96380	        -7.17422e+57
          1131.77010	         5.89671e+58
          1132.57640	         4.69526e+58
          1133.38270	         2.46821e+58
          1134.18900	         2.32808e+58
          1134.99530	         1.38753e+58
          1135.80160	         1.58059e+58
          1136.60790	         8.85988e+57
          1137.41420	         3.16706e+57
          1138.22050	         4.61921e+58
          1139.02680	         2.69073e+58
          1139.83310	         3.52570e+58
          1140.63940	         3.05434e+58
          1141.44570	         9.47678e+56
          1142.25200	         7.41929e+57
          1143.05830	         2.51348e+58
          1143.86460	         3.70314e+58
          1144.67090	         2.52764e+58
          1145.47720	         1.83479e+58
          1146.28350	         8.51491e+57
          1147.08980	         1.65033e+58
          1147.89610	         1.82332e+58
          1148.70240	         1.88265e+58
          1149.50870	         2.46729e+58
          1150.31500	         1.62556e+58
          1151.12130	         1.39115e+58
          1151.92760	         7.43337e+57
          1152.73390	        -1.07224e+57
          1153.54020	         4.67164e+57
          1154.34650	         2.35023e+58
          1155.15280	         2.04158e+58
          1155.95910	         8.28606e+57
          1156.76540	         1.52966e+58
          1157.57170	         6.86061e+57
          1158.37800	        -5.95945e+57
          1159.18430	        -5.10145e+57
          1159.99060	         1.68292e+57
          1160.79690	         7.93742e+57
          1161.60320	         9.87314e+57
          1162.40950	         2.89821e+58
          1163.21580	         1.73643e+58
          1164.02210	         2.08495e+58
          1164.82840	         3.83643e+57
          1165.63470	         1.95387e+58
          1166.44100	         2.39362e+58
          1167.24730	         1.86141e+58
          1168.05360	         1.24369e+58
          1168.85990	         1.01895e+58
          1169.66620	         1.30324e+58
          1170.47250	         8.63842e+57
          1171.27880	        -6.92491e+56
          1172.08510	         6.90968e+57
          1172.89140	         7.64258e+57
          1173.69770	         9.14370e+57
          1174.50400	         1.17277e+58
          1175.31030	         1.64117e+58
          1176.11660	         1.95509e+58
          1176.92290	         1.18388e+58
          1177.72920	         9.94449e+57
          1178.53550	         2.91304e+57
          1179.34180	         3.88095e+56
          1180.14810	         6.73538e+57
          1180.95440	         1.09989e+58
          1181.76070	         8.96681e+57
          1182.56700	         1.09187e+58
          1183.37330	         7.00708e+57
          1184.17960	         9.79637e+57
          1184.98590	         1.32177e+58
          1185.79220	         1.02755e+58
          1186.59850	         1.51970e+58
          1187.40480	         1.14817e+58
          1188.21110	         1.34745e+58
          1189.01740	         1.49092e+58
          1189.82370	         5.23067e+57
          1190.63000	         7.13985e+57
          1191.43630	         1.43944e+58
          1192.24260	         1.22504e+58
          1193.04890	         8.81718e+57
          1193.85520	         7.65497e+57
          1194.66150	         7.78025e+57
          1195.46780	         1.08891e+58
          1196.27410	         1.45204e+58
          1197.08040	         1.30503e+58
          1197.88670	         1.39229e+58
          1198.69300	         1.44463e+58
          1199.49930	         1.67085e+58
          1200.30560	         1.37526e+58
          1201.11190	         1.23050e+58
          1201.91820	         1.07287e+58
          1202.72450	         8.70659e+57
          1203.53080	         1.65796e+58
          1204.33710	         1.13558e+58
          1205.14340	         7.90170e+57
          1205.94970	         6.56569e+57
          1206.75600	         6.93969e+57
          1207.56230	         5.38251e+57
          1208.36860	         8.10675e+57
          1209.17490	         7.43757e+57
          1209.98120	         7.28091e+57
          1210.78750	         6.95707e+57
          1211.59380	         9.42877e+57
          1212.40010	         1.59329e+58
          1213.20640	         1.70423e+58
          1214.01270	         1.62655e+58
          1214.81900	         2.45762e+58
          1215.62530	         4.57116e+58
          1216.43160	         9.28332e+58
          1217.23790	         1.53777e+59
          1218.04420	         1.14495e+59
          1218.85050	         8.19820e+58
          1219.65680	         5.54142e+58
          1220.46310	         3.64359e+58
          1221.26940	         2.36719e+58
          1222.07570	         1.83066e+58
          1222.88200	         1.38361e+58
          1223.68830	         8.81043e+57
          1224.49460	         5.68181e+57
          1225.30090	         6.91887e+57
          1226.10720	         5.93135e+57
          1226.91350	         3.49396e+57
          1227.71980	         9.09295e+57
          1228.52610	         1.03252e+58
          1229.33240	         7.91153e+57
          1230.13870	         1.00248e+58
          1230.94500	         9.74411e+57
          1231.75130	         5.48911e+57
          1232.55760	         8.51569e+57
          1233.36390	         9.67100e+57
          1234.17020	         9.72581e+57
          1234.97650	         8.81522e+57
          1235.78280	         6.94397e+57
          1236.58910	         9.56963e+57
          1237.39540	         9.83597e+57
          1238.20170	         8.77386e+57
          1239.00800	         1.26188e+58
          1239.81430	         1.49440e+58
          1240.62060	         1.16252e+58
          1241.42690	         1.24127e+58
          1242.23320	         1.38586e+58
          1243.03950	         7.82465e+57
          1243.84580	         8.98405e+57
          1244.65210	         1.08542e+58
          1245.45840	         1.05517e+58
          1246.26470	         8.84649e+57
          1247.07100	         7.01072e+57
          1247.87730	         5.25366e+57
          1248.68360	         3.07628e+57
          1249.48990	         4.37771e+57
          1250.29620	         8.53713e+57
          1251.10250	         1.00921e+58
          1251.90880	         5.76089e+57
          1252.71510	         5.49069e+57
          1253.52140	         9.11132e+57
          1254.32770	         9.88835e+57
          1255.13400	         1.20630e+58
          1255.94030	         9.97550e+57
          1256.74660	         8.83965e+57
          1257.55290	         1.09331e+58
          1258.35920	         9.22730e+57
          1259.16550	         6.11227e+57
          1259.97180	         5.22884e+57
          1260.77810	         7.99260e+57
          1261.58440	         9.83336e+57
          1262.39070	         8.78984e+57
          1263.19700	         8.60157e+57
          1264.00330	         1.03399e+58
          1264.80960	         1.27470e+58
          1265.61590	         1.22231e+58
          1266.42220	         1.08114e+58
          1267.22850	         9.38148e+57
          1268.03480	         1.38306e+58
          1268.84110	         1.48218e+58
          1269.64740	         1.06268e+58
          1270.45370	         1.29894e+58
          1271.26000	         1.41064e+58
          1272.06630	         1.27858e+58
          1272.87260	         1.18096e+58
          1273.67890	         1.02888e+58
          1274.48520	         1.18026e+58
          1275.29150	         1.34123e+58
          1276.09780	         1.30169e+58
          1276.90410	         1.29610e+58
          1277.71040	         1.19005e+58
          1278.51670	         1.25062e+58
          1279.32300	         1.47293e+58
          1280.12930	         1.25047e+58
          1280.93560	         1.15946e+58
          1281.74190	         1.26196e+58
          1282.54820	         1.47909e+58
          1283.35450	         1.30974e+58
          1284.16080	         1.14812e+58
          1284.96710	         1.20047e+58
          1285.77340	         1.16002e+58
          1286.57970	         1.22035e+58
          1287.38600	         1.65029e+58
          1288.19230	         1.79379e+58
          1288.99860	         1.33297e+58
          1289.80490	         9.26451e+57
          1290.61120	         1.25677e+58
          1291.41750	         1.38144e+58
          1292.22380	         1.19882e+58
          1293.03010	         1.11058e+58
          1293.83640	         1.15059e+58
          1294.64270	         1.15278e+58
          1295.44900	         8.52701e+57
          1296.25530	         6.60016e+57
          1297.06160	         8.91945e+57
          1297.86790	         1.01906e+58
          1298.67420	         8.34509e+57
          1299.48050	         7.78186e+57
          1300.28680	         1.05405e+58
          1301.09310	         9.13252e+57
          1301.89940	         4.33738e+57
          1302.70570	         5.56304e+57
          1303.51200	         7.14826e+57
          1304.31830	         9.08125e+57
          1305.12460	         1.11410e+58
          1305.93090	         1.20676e+58
          1306.73720	         1.26967e+58
          1307.54350	         1.39314e+58
          1308.34980	         1.48578e+58
          1309.15610	         1.51153e+58
          1309.96240	         1.48488e+58
          1310.76870	         1.31565e+58
          1311.57500	         1.39446e+58
          1312.38130	         1.23908e+58
          1313.18760	         1.32599e+58
          1313.99390	         1.73906e+58
          1314.80020	         1.68329e+58
          1315.60650	         1.47938e+58
          1316.41280	         1.31061e+58
          1317.21910	         1.18889e+58
          1318.02540	         1.15759e+58
          1318.83170	         1.22455e+58
          1319.63800	         1.17983e+58
          1320.44430	         1.14403e+58
          1321.25060	         1.21160e+58
          1322.05690	         1.35617e+58
          1322.86320	         1.19309e+58
          1323.66950	         1.11283e+58
          1324.47580	         8.05918e+57
          1325.28210	         8.04936e+57
          1326.08840	         1.12350e+58
          1326.89470	         1.17281e+58
          1327.70100	         9.29899e+57
          1328.50730	         6.75112e+57
          1329.31360	         8.71090e+57
          1330.11990	         9.81313e+57
          1330.92620	         9.52877e+57
          1331.73250	         1.12406e+58
          1332.53880	         1.00445e+58
          1333.34510	         8.72968e+57
          1334.15140	         8.26491e+57
          1334.95770	         8.74036e+57
          1335.76400	         1.09158e+58
          1336.57030	         1.02517e+58
          1337.37660	         9.24387e+57
          1338.18290	         1.13837e+58
          1338.98920	         1.24194e+58
          1339.79550	         1.03070e+58
          1340.60180	         1.15806e+58
          1341.40810	         1.34918e+58
          1342.21440	         1.14929e+58
          1343.02070	         9.60648e+57
          1343.82700	         1.04079e+58
          1344.63330	         1.12361e+58
          1345.43960	         1.29171e+58
          1346.24590	         1.14062e+58
          1347.05220	         9.92065e+57
          1347.85850	         1.00441e+58
          1348.66480	         1.15299e+58
          1349.47110	         1.17832e+58
          1350.27740	         1.05674e+58
          1351.08370	         1.02823e+58
          1351.89000	         1.01951e+58
          1352.69630	         1.11048e+58
          1353.50260	         1.09988e+58
          1354.30890	         1.14147e+58
          1355.11520	         1.19290e+58
          1355.92150	         1.07519e+58
          1356.72780	         1.06862e+58
          1357.53410	         1.01552e+58
          1358.34040	         1.00906e+58
          1359.14670	         1.00842e+58
          1359.95300	         1.12691e+58
          1360.75930	         1.18480e+58
          1361.56560	         1.16198e+58
          1362.37190	         1.14421e+58
          1363.17820	         1.05165e+58
          1363.98450	         1.20228e+58
          1364.79080	         1.28412e+58
          1365.59710	         1.22497e+58
          1366.40340	         1.20615e+58
          1367.20970	         9.21901e+57
          1368.01600	         8.44695e+57
          1368.82230	         9.39515e+57
          1369.62860	         1.04396e+58
          1370.43490	         8.38447e+57
          1371.24120	         8.96550e+57
          1372.04750	         8.61822e+57
          1372.85380	         1.04078e+58
          1373.66010	         1.14942e+58
          1374.46640	         1.12593e+58
          1375.27270	         1.07044e+58
          1376.07900	         8.69864e+57
          1376.88530	         7.84941e+57
          1377.69160	         8.75251e+57
          1378.49790	         6.84851e+57
          1379.30420	         5.97189e+57
          1380.11050	         8.00466e+57
          1380.91680	         7.19801e+57
          1381.72310	         8.11877e+57
          1382.52940	         8.97873e+57
          1383.33570	         7.52839e+57
          1384.14200	         9.44436e+57
          1384.94830	         1.15068e+58
          1385.75460	         1.14544e+58
          1386.56090	         1.08720e+58
          1387.36720	         1.01072e+58
          1388.17350	         1.23270e+58
          1388.97980	         1.11309e+58
          1389.78610	         8.64070e+57
          1390.59240	         6.26801e+57
          1391.39870	         6.63382e+57
          1392.20500	         8.55396e+57
          1393.01130	         7.70751e+57
          1393.81760	         7.29706e+57
          1394.62390	         7.48537e+57
          1395.43020	         6.06555e+57
          1396.23650	         7.02146e+57
          1397.04280	         7.40627e+57
          1397.84910	         7.92179e+57
          1398.65540	         8.78858e+57
          1399.46170	         1.05588e+58
          1400.26800	         8.51164e+57
          1401.07430	         7.56695e+57
          1401.88060	         8.96342e+57
          1402.68690	         9.49284e+57
          1403.49320	         1.08939e+58
          1404.29950	         1.09775e+58
          1405.10580	         1.13744e+58
          1405.91210	         1.23492e+58
          1406.71840	         1.12678e+58
          1407.52470	         1.05185e+58
          1408.33100	         1.03437e+58
          1409.13730	         1.17709e+58
          1409.94360	         1.17292e+58
          1410.74990	         1.11645e+58
          1411.55620	         1.01758e+58
          1412.36250	         9.19807e+57
          1413.16880	         9.12086e+57
          1413.97510	         8.93701e+57
          1414.78140	         9.72822e+57
          1415.58770	         1.06773e+58
          1416.39400	         9.25454e+57
          1417.20030	         1.09822e+58
          1418.00660	         1.16666e+58
          1418.81290	         1.21083e+58
          1419.61920	         1.07347e+58
          1420.42550	         1.20356e+58
          1421.23180	         1.34350e+58
          1422.03810	         1.39518e+58
          1422.84440	         1.11473e+58
          1423.65070	         1.10384e+58
          1424.45700	         1.07389e+58
          1425.26330	         8.10874e+57
          1426.06960	         8.36611e+57
          1426.87590	         1.08546e+58
          1427.68220	         1.12370e+58
          1428.48850	         1.16103e+58
          1429.29480	         1.10221e+58
          1430.10110	         9.80753e+57
          1430.90740	         8.87551e+57
          1431.71370	         8.22596e+57
          1432.52000	         8.61885e+57
          1433.32630	         7.72611e+57
          1434.13260	         7.98617e+57
          1434.93890	         8.44032e+57
          1435.74520	         8.60161e+57
          1436.55150	         8.99861e+57
          1437.35780	         8.81494e+57
          1438.16410	         8.24881e+57
          1438.97040	         7.96288e+57
          1439.77670	         8.66691e+57
          1440.58300	         9.16700e+57
          1441.38930	         8.38426e+57
          1442.19560	         9.48452e+57
          1443.00190	         9.62213e+57
          1443.80820	         1.02117e+58
          1444.61450	         9.59222e+57
          1445.42080	         8.80530e+57
          1446.22710	         1.01701e+58
          1447.03340	         1.02086e+58
          1447.83970	         1.07532e+58
          1448.64600	         1.08279e+58
          1449.45230	         9.77343e+57
          1450.25860	         9.88465e+57
          1451.06490	         9.08387e+57
          1451.87120	         8.50469e+57
          1452.67750	         8.36237e+57
          1453.48380	         8.11329e+57
          1454.29010	         7.23494e+57
          1455.09640	         7.44247e+57
          1455.90270	         8.36360e+57
          1456.70900	         8.66068e+57
          1457.51530	         1.01310e+58
          1458.32160	         1.22494e+58
          1459.12790	         1.18388e+58
          1459.93420	         1.01448e+58
          1460.74050	         8.70043e+57
          1461.54680	         8.06555e+57
          1462.35310	         6.71174e+57
          1463.15940	         8.15059e+57
          1463.96570	         1.08121e+58
          1464.77200	         1.20382e+58
          1465.57830	         1.09885e+58
          1466.38460	         9.22472e+57
          1467.19090	         8.43725e+57
          1467.99720	         8.47831e+57
          1468.80350	         8.73108e+57
          1469.60980	         1.06293e+58
          1470.41610	         1.28386e+58
          1471.22240	         1.09268e+58
          1472.02870	         9.57289e+57
          1472.83500	         9.76162e+57
          1473.64130	         8.90272e+57
          1474.44760	         8.49054e+57
          1475.25390	         9.16505e+57
          1476.06020	         8.95616e+57
          1476.86650	         8.55093e+57
          1477.67280	         6.33056e+57
          1478.47910	         4.63702e+57
          1479.28540	         6.34403e+57
          1480.09170	         8.46781e+57
          1480.89800	         8.64284e+57
          1481.70430	         8.74664e+57
          1482.51060	         9.12529e+57
          1483.31690	         7.80995e+57
          1484.12320	         7.51360e+57
          1484.92950	         8.23482e+57
          1485.73580	         7.97769e+57
          1486.54210	         8.75438e+57
          1487.34840	         9.80944e+57
          1488.15470	         9.11235e+57
          1488.96100	         9.24221e+57
          1489.76730	         9.46288e+57
