#sample_359_stacked_spectrum_rest_UV-bands_median_H-alpha_noDC.txt
#median Lum: 1.71069e+42
#Rest-frame wavelength (A) | Luminosity (erg/s/A)
#
          1110.00000	         0.00000e+00
          1110.80630	         5.01912e+59
          1111.61260	         2.55811e+59
          1112.41890	         5.41349e+59
          1113.22520	         8.91174e+58
          1114.03150	        -1.91570e+59
          1114.83780	         8.42303e+58
          1115.64410	         3.93182e+59
          1116.45040	         3.09295e+59
          1117.25670	         7.52587e+58
          1118.06300	         9.22547e+58
          1118.86930	        -6.62850e+57
          1119.67560	         9.49615e+58
          1120.48190	         1.08107e+58
          1121.28820	        -1.51229e+59
          1122.09450	        -3.50115e+58
          1122.90080	        -3.32411e+57
          1123.70710	         7.41406e+58
          1124.51340	         1.08610e+59
          1125.31970	         1.81856e+58
          1126.12600	        -2.26150e+58
          1126.93230	        -4.97570e+58
          1127.73860	         1.56664e+57
          1128.54490	         2.39358e+58
          1129.35120	         1.91779e+58
          1130.15750	         1.77236e+58
          1130.96380	        -3.24208e+58
          1131.77010	         3.54817e+58
          1132.57640	         4.01036e+58
          1133.38270	         5.66396e+58
          1134.18900	         2.33502e+58
          1134.99530	         9.96890e+57
          1135.80160	         4.61231e+58
          1136.60790	         2.55511e+58
          1137.41420	         4.80145e+57
          1138.22050	         2.81903e+58
          1139.02680	         4.05289e+58
          1139.83310	         4.03588e+58
          1140.63940	         1.48305e+58
          1141.44570	         5.12100e+57
          1142.25200	         7.81469e+57
          1143.05830	         9.68106e+57
          1143.86460	         1.55340e+58
          1144.67090	         3.05173e+58
          1145.47720	         2.52172e+58
          1146.28350	         7.52664e+57
          1147.08980	         1.07614e+58
          1147.89610	         1.77275e+58
          1148.70240	         2.53790e+58
          1149.50870	         1.92005e+58
          1150.31500	         1.11673e+58
          1151.12130	         1.80710e+57
          1151.92760	         6.17220e+57
          1152.73390	         7.14098e+57
          1153.54020	         1.15156e+58
          1154.34650	         1.52931e+58
          1155.15280	         1.28288e+58
          1155.95910	         7.55883e+57
          1156.76540	         1.24408e+58
          1157.57170	         4.34814e+57
          1158.37800	        -9.26654e+57
          1159.18430	        -9.45514e+56
          1159.99060	         2.87414e+57
          1160.79690	         5.28134e+57
          1161.60320	         1.97383e+58
          1162.40950	         2.12102e+58
          1163.21580	         1.90835e+58
          1164.02210	         1.28291e+58
          1164.82840	         1.23240e+58
          1165.63470	         1.55093e+58
          1166.44100	         2.92858e+58
          1167.24730	         2.01230e+58
          1168.05360	         6.39619e+57
          1168.85990	         1.09639e+58
          1169.66620	         1.99695e+58
          1170.47250	         1.88142e+58
          1171.27880	         7.01175e+57
          1172.08510	         9.11569e+57
          1172.89140	         1.26634e+58
          1173.69770	         2.04060e+57
          1174.50400	         1.49681e+58
          1175.31030	         1.89144e+58
          1176.11660	         1.17836e+58
          1176.92290	         7.43150e+57
          1177.72920	         1.65792e+58
          1178.53550	         1.26050e+58
          1179.34180	         7.35539e+57
          1180.14810	         9.18299e+57
          1180.95440	         1.40064e+58
          1181.76070	         1.01005e+58
          1182.56700	         8.24428e+57
          1183.37330	         7.78966e+57
          1184.17960	         1.29437e+58
          1184.98590	         1.34792e+58
          1185.79220	         1.00557e+58
          1186.59850	         1.19589e+58
          1187.40480	         1.29898e+58
          1188.21110	         1.68518e+58
          1189.01740	         6.94885e+57
          1189.82370	         4.85197e+57
          1190.63000	         9.62204e+57
          1191.43630	         1.10699e+58
          1192.24260	         7.51835e+57
          1193.04890	         1.16858e+58
          1193.85520	         1.22298e+58
          1194.66150	         6.60649e+57
          1195.46780	         1.64959e+58
          1196.27410	         1.67603e+58
          1197.08040	         1.14044e+58
          1197.88670	         1.59446e+58
          1198.69300	         1.29603e+58
          1199.49930	         1.12602e+58
          1200.30560	         1.08540e+58
          1201.11190	         1.14767e+58
          1201.91820	         1.16461e+58
          1202.72450	         1.04135e+58
          1203.53080	         1.32284e+58
          1204.33710	         1.12297e+58
          1205.14340	         5.62186e+57
          1205.94970	         5.52905e+57
          1206.75600	         4.96602e+57
          1207.56230	         5.22926e+57
          1208.36860	         4.50656e+57
          1209.17490	         4.55860e+57
          1209.98120	         1.91936e+57
          1210.78750	         6.72903e+57
          1211.59380	         1.39235e+58
          1212.40010	         2.20714e+58
          1213.20640	         1.97563e+58
          1214.01270	         1.80010e+58
          1214.81900	         2.33855e+58
          1215.62530	         4.48818e+58
          1216.43160	         8.90465e+58
          1217.23790	         1.49584e+59
          1218.04420	         1.16306e+59
          1218.85050	         8.49662e+58
          1219.65680	         5.60440e+58
          1220.46310	         3.34185e+58
          1221.26940	         2.15623e+58
          1222.07570	         1.13032e+58
          1222.88200	         1.06738e+58
          1223.68830	         1.33387e+58
          1224.49460	         7.58893e+57
          1225.30090	         6.44310e+57
          1226.10720	         6.17793e+57
          1226.91350	         8.15777e+57
          1227.71980	         9.46147e+57
          1228.52610	         1.12029e+58
          1229.33240	         9.20184e+57
          1230.13870	         8.30389e+57
          1230.94500	         8.65676e+57
          1231.75130	         8.09485e+57
          1232.55760	         9.45400e+57
          1233.36390	         7.69825e+57
          1234.17020	         8.64868e+57
          1234.97650	         5.20553e+57
          1235.78280	         6.35799e+57
          1236.58910	         1.03718e+58
          1237.39540	         1.22589e+58
          1238.20170	         1.00115e+58
          1239.00800	         1.20248e+58
          1239.81430	         1.41761e+58
          1240.62060	         1.29675e+58
          1241.42690	         1.15757e+58
          1242.23320	         1.24921e+58
          1243.03950	         8.63251e+57
          1243.84580	         8.33160e+57
          1244.65210	         1.05027e+58
          1245.45840	         8.42752e+57
          1246.26470	         7.06567e+57
          1247.07100	         5.98020e+57
          1247.87730	         4.62506e+57
          1248.68360	         2.35008e+57
          1249.48990	         9.90084e+57
          1250.29620	         1.39232e+58
          1251.10250	         9.29523e+57
          1251.90880	         4.92080e+57
          1252.71510	         7.48963e+57
          1253.52140	         8.73730e+57
          1254.32770	         8.28961e+57
          1255.13400	         1.05694e+58
          1255.94030	         1.16124e+58
          1256.74660	         1.00664e+58
          1257.55290	         9.87557e+57
          1258.35920	         8.56985e+57
          1259.16550	         6.93210e+57
          1259.97180	         7.55521e+57
          1260.77810	         9.38624e+57
          1261.58440	         9.99492e+57
          1262.39070	         8.28216e+57
          1263.19700	         9.59578e+57
          1264.00330	         8.07110e+57
          1264.80960	         8.97404e+57
          1265.61590	         1.16581e+58
          1266.42220	         1.20177e+58
          1267.22850	         9.56480e+57
          1268.03480	         1.27246e+58
          1268.84110	         1.55974e+58
          1269.64740	         1.33913e+58
          1270.45370	         1.37665e+58
          1271.26000	         1.18424e+58
          1272.06630	         1.07547e+58
          1272.87260	         1.11907e+58
          1273.67890	         1.22735e+58
          1274.48520	         1.55602e+58
          1275.29150	         1.39769e+58
          1276.09780	         1.20475e+58
          1276.90410	         1.53012e+58
          1277.71040	         1.41290e+58
          1278.51670	         1.24998e+58
          1279.32300	         1.14898e+58
          1280.12930	         1.13693e+58
          1280.93560	         1.08282e+58
          1281.74190	         1.37218e+58
          1282.54820	         1.51562e+58
          1283.35450	         1.21547e+58
          1284.16080	         1.20846e+58
          1284.96710	         1.21176e+58
          1285.77340	         9.45763e+57
          1286.57970	         1.10136e+58
          1287.38600	         1.69127e+58
          1288.19230	         1.79623e+58
          1288.99860	         1.51381e+58
          1289.80490	         1.20280e+58
          1290.61120	         1.23738e+58
          1291.41750	         1.42662e+58
          1292.22380	         1.19536e+58
          1293.03010	         9.84167e+57
          1293.83640	         1.17427e+58
          1294.64270	         1.24368e+58
          1295.44900	         8.57726e+57
          1296.25530	         7.26117e+57
          1297.06160	         1.00059e+58
          1297.86790	         1.02494e+58
          1298.67420	         8.33267e+57
          1299.48050	         1.10287e+58
          1300.28680	         1.31661e+58
          1301.09310	         1.07852e+58
          1301.89940	         4.65615e+57
          1302.70570	         5.37406e+57
          1303.51200	         8.84230e+57
          1304.31830	         1.02329e+58
          1305.12460	         1.01589e+58
          1305.93090	         1.09447e+58
          1306.73720	         1.37161e+58
          1307.54350	         1.45100e+58
          1308.34980	         1.57123e+58
          1309.15610	         1.76904e+58
          1309.96240	         1.73397e+58
          1310.76870	         1.33776e+58
          1311.57500	         1.09138e+58
          1312.38130	         1.12182e+58
          1313.18760	         1.58392e+58
          1313.99390	         1.81618e+58
          1314.80020	         1.56482e+58
          1315.60650	         1.31104e+58
          1316.41280	         1.01704e+58
          1317.21910	         9.85963e+57
          1318.02540	         1.15202e+58
          1318.83170	         1.30708e+58
          1319.63800	         1.29085e+58
          1320.44430	         1.32313e+58
          1321.25060	         1.16760e+58
          1322.05690	         1.23543e+58
          1322.86320	         1.33541e+58
          1323.66950	         1.13743e+58
          1324.47580	         9.24138e+57
          1325.28210	         1.04204e+58
          1326.08840	         1.19834e+58
          1326.89470	         1.25569e+58
          1327.70100	         1.17994e+58
          1328.50730	         9.40614e+57
          1329.31360	         1.11533e+58
          1330.11990	         1.12574e+58
          1330.92620	         8.95489e+57
          1331.73250	         1.11161e+58
          1332.53880	         1.13952e+58
          1333.34510	         1.01765e+58
          1334.15140	         7.97500e+57
          1334.95770	         8.77851e+57
          1335.76400	         9.77052e+57
          1336.57030	         9.30660e+57
          1337.37660	         1.05187e+58
          1338.18290	         1.16323e+58
          1338.98920	         1.15640e+58
          1339.79550	         1.24998e+58
          1340.60180	         1.30886e+58
          1341.40810	         1.31819e+58
          1342.21440	         1.24755e+58
          1343.02070	         1.27124e+58
          1343.82700	         1.33458e+58
          1344.63330	         1.21400e+58
          1345.43960	         1.33659e+58
          1346.24590	         1.22761e+58
          1347.05220	         1.31521e+58
          1347.85850	         9.19981e+57
          1348.66480	         8.85047e+57
          1349.47110	         1.17359e+58
          1350.27740	         1.12193e+58
          1351.08370	         1.06088e+58
          1351.89000	         1.09502e+58
          1352.69630	         1.25386e+58
          1353.50260	         1.22162e+58
          1354.30890	         1.20615e+58
          1355.11520	         1.18014e+58
          1355.92150	         1.10622e+58
          1356.72780	         9.13255e+57
          1357.53410	         9.04382e+57
          1358.34040	         1.13282e+58
          1359.14670	         1.22027e+58
          1359.95300	         1.22449e+58
          1360.75930	         1.25159e+58
          1361.56560	         1.09420e+58
          1362.37190	         1.00286e+58
          1363.17820	         1.04590e+58
          1363.98450	         1.21247e+58
          1364.79080	         1.36890e+58
          1365.59710	         1.24355e+58
          1366.40340	         1.19187e+58
          1367.20970	         1.06450e+58
          1368.01600	         1.14501e+58
          1368.82230	         1.04696e+58
          1369.62860	         8.75352e+57
          1370.43490	         8.43320e+57
          1371.24120	         1.05033e+58
          1372.04750	         9.32019e+57
          1372.85380	         9.75267e+57
          1373.66010	         1.11676e+58
          1374.46640	         1.11840e+58
          1375.27270	         1.07295e+58
          1376.07900	         9.11938e+57
          1376.88530	         8.66786e+57
          1377.69160	         8.73940e+57
          1378.49790	         7.87446e+57
          1379.30420	         8.04563e+57
          1380.11050	         1.09575e+58
          1380.91680	         1.03593e+58
          1381.72310	         8.03472e+57
          1382.52940	         8.37923e+57
          1383.33570	         8.30331e+57
          1384.14200	         8.88127e+57
          1384.94830	         1.00086e+58
          1385.75460	         1.04974e+58
          1386.56090	         9.99695e+57
          1387.36720	         9.48574e+57
          1388.17350	         1.24342e+58
          1388.97980	         1.22016e+58
          1389.78610	         9.91321e+57
          1390.59240	         8.71768e+57
          1391.39870	         8.33711e+57
          1392.20500	         9.67172e+57
          1393.01130	         8.08440e+57
          1393.81760	         6.84657e+57
          1394.62390	         6.56495e+57
          1395.43020	         7.22373e+57
          1396.23650	         7.04526e+57
          1397.04280	         7.39019e+57
          1397.84910	         9.14216e+57
          1398.65540	         9.79706e+57
          1399.46170	         1.04713e+58
          1400.26800	         8.35069e+57
          1401.07430	         7.17547e+57
          1401.88060	         7.57051e+57
          1402.68690	         9.78476e+57
          1403.49320	         1.06683e+58
          1404.29950	         8.63912e+57
          1405.10580	         9.52682e+57
          1405.91210	         1.00374e+58
          1406.71840	         1.02640e+58
          1407.52470	         1.02321e+58
          1408.33100	         1.01425e+58
          1409.13730	         1.12416e+58
          1409.94360	         1.14705e+58
          1410.74990	         1.26456e+58
          1411.55620	         1.12886e+58
          1412.36250	         9.67373e+57
          1413.16880	         8.74388e+57
          1413.97510	         7.58565e+57
          1414.78140	         9.47036e+57
          1415.58770	         1.26820e+58
          1416.39400	         1.19462e+58
          1417.20030	         1.08993e+58
          1418.00660	         1.06789e+58
          1418.81290	         1.09151e+58
          1419.61920	         1.13907e+58
          1420.42550	         1.24014e+58
          1421.23180	         1.31878e+58
          1422.03810	         1.18574e+58
          1422.84440	         1.20844e+58
          1423.65070	         1.40937e+58
          1424.45700	         1.24536e+58
          1425.26330	         9.78787e+57
          1426.06960	         9.76358e+57
          1426.87590	         1.03977e+58
          1427.68220	         1.07482e+58
          1428.48850	         1.10652e+58
          1429.29480	         1.14077e+58
          1430.10110	         1.14152e+58
          1430.90740	         9.04501e+57
          1431.71370	         9.06010e+57
          1432.52000	         9.79429e+57
          1433.32630	         8.31586e+57
          1434.13260	         7.78319e+57
          1434.93890	         8.21252e+57
          1435.74520	         9.58601e+57
          1436.55150	         9.90138e+57
          1437.35780	         9.46557e+57
          1438.16410	         8.88965e+57
          1438.97040	         8.58655e+57
          1439.77670	         8.41639e+57
          1440.58300	         8.74042e+57
          1441.38930	         9.25941e+57
          1442.19560	         9.98018e+57
          1443.00190	         9.68304e+57
          1443.80820	         1.01915e+58
          1444.61450	         9.57354e+57
          1445.42080	         9.72400e+57
          1446.22710	         1.10364e+58
          1447.03340	         9.77717e+57
          1447.83970	         1.06049e+58
          1448.64600	         9.93212e+57
          1449.45230	         9.76872e+57
          1450.25860	         1.11604e+58
          1451.06490	         9.51100e+57
          1451.87120	         8.84504e+57
          1452.67750	         8.60036e+57
          1453.48380	         9.25258e+57
          1454.29010	         8.83186e+57
          1455.09640	         7.70845e+57
          1455.90270	         8.04075e+57
          1456.70900	         7.21705e+57
          1457.51530	         9.18301e+57
          1458.32160	         1.29892e+58
          1459.12790	         1.18618e+58
          1459.93420	         9.60318e+57
          1460.74050	         8.02942e+57
          1461.54680	         8.64833e+57
          1462.35310	         8.53554e+57
          1463.15940	         8.57011e+57
          1463.96570	         1.07996e+58
          1464.77200	         1.18907e+58
          1465.57830	         1.03970e+58
          1466.38460	         9.98277e+57
          1467.19090	         1.00995e+58
          1467.99720	         9.24951e+57
          1468.80350	         9.61581e+57
          1469.60980	         9.96809e+57
          1470.41610	         1.05887e+58
          1471.22240	         9.61484e+57
          1472.02870	         9.49944e+57
          1472.83500	         9.64822e+57
          1473.64130	         9.35536e+57
          1474.44760	         1.05027e+58
          1475.25390	         1.01858e+58
          1476.06020	         9.54235e+57
          1476.86650	         9.43786e+57
          1477.67280	         8.57039e+57
          1478.47910	         7.54205e+57
          1479.28540	         7.31818e+57
          1480.09170	         8.63397e+57
          1480.89800	         9.89124e+57
          1481.70430	         9.26439e+57
          1482.51060	         7.86675e+57
          1483.31690	         7.36940e+57
          1484.12320	         7.03325e+57
          1484.92950	         7.58258e+57
          1485.73580	         8.48924e+57
          1486.54210	         9.20919e+57
          1487.34840	         9.18745e+57
          1488.15470	         8.82855e+57
          1488.96100	         7.97543e+57
          1489.76730	         8.54355e+57
