#sample_109_stacked_spectrum_rest_UV-bands_median_H-alpha_noDC.txt
#median Lum: 1.68665e+42
#Rest-frame wavelength (A) | Luminosity (erg/s/A)
#
          1110.00000	         0.00000e+00
          1110.80630	        -2.89609e+57
          1111.61260	        -1.12173e+59
          1112.41890	         1.38321e+59
          1113.22520	         9.25414e+58
          1114.03150	         2.68923e+59
          1114.83780	         7.58542e+58
          1115.64410	         1.35085e+59
          1116.45040	        -2.34260e+59
          1117.25670	         9.24058e+58
          1118.06300	         1.54933e+59
          1118.86930	        -7.57126e+58
          1119.67560	        -5.16541e+58
          1120.48190	        -6.25535e+58
          1121.28820	        -1.37449e+59
          1122.09450	         1.01952e+58
          1122.90080	         4.27922e+58
          1123.70710	         1.10223e+59
          1124.51340	         7.80296e+58
          1125.31970	        -3.42248e+57
          1126.12600	        -1.08100e+58
          1126.93230	        -8.36196e+58
          1127.73860	        -7.66738e+58
          1128.54490	         1.34400e+58
          1129.35120	         1.16658e+58
          1130.15750	        -5.09091e+57
          1130.96380	        -3.48823e+58
          1131.77010	        -6.87786e+57
          1132.57640	         1.21950e+58
          1133.38270	         1.38905e+58
          1134.18900	         1.94055e+58
          1134.99530	         1.62520e+58
          1135.80160	         4.78766e+58
          1136.60790	         2.17419e+58
          1137.41420	        -1.22059e+58
          1138.22050	         7.98306e+57
          1139.02680	         3.96252e+57
          1139.83310	         5.63208e+57
          1140.63940	         1.10215e+58
          1141.44570	        -7.33635e+57
          1142.25200	         8.98991e+57
          1143.05830	         2.23955e+58
          1143.86460	         3.00284e+58
          1144.67090	         7.47011e+57
          1145.47720	         1.98765e+58
          1146.28350	         1.46986e+58
          1147.08980	         9.46807e+56
          1147.89610	         1.14624e+58
          1148.70240	         2.36106e+58
          1149.50870	         2.05194e+58
          1150.31500	         1.17932e+58
          1151.12130	         9.46687e+57
          1151.92760	        -1.13620e+56
          1152.73390	         3.17863e+57
          1153.54020	         8.90592e+57
          1154.34650	         3.25469e+58
          1155.15280	         3.10267e+58
          1155.95910	         1.96229e+58
          1156.76540	         4.00289e+57
          1157.57170	         4.99366e+57
          1158.37800	        -1.27482e+57
          1159.18430	         4.90744e+53
          1159.99060	         1.87179e+58
          1160.79690	         1.04968e+58
          1161.60320	         2.05118e+58
          1162.40950	         1.52458e+58
          1163.21580	         2.70124e+58
          1164.02210	         1.47559e+58
          1164.82840	         1.28600e+58
          1165.63470	         1.59591e+58
          1166.44100	         2.25819e+58
          1167.24730	         2.07660e+58
          1168.05360	         1.00682e+58
          1168.85990	         1.05652e+58
          1169.66620	         4.83755e+57
          1170.47250	         6.05832e+57
          1171.27880	         9.82114e+57
          1172.08510	         1.98656e+58
          1172.89140	         1.18050e+58
          1173.69770	         8.52522e+57
          1174.50400	         7.56031e+57
          1175.31030	         1.42442e+58
          1176.11660	         1.27459e+58
          1176.92290	         1.27628e+58
          1177.72920	         1.55064e+58
          1178.53550	         1.09372e+58
          1179.34180	         5.04514e+57
          1180.14810	         7.91542e+57
          1180.95440	         9.64505e+57
          1181.76070	         8.10433e+57
          1182.56700	         8.88970e+57
          1183.37330	         8.74705e+57
          1184.17960	         1.57075e+58
          1184.98590	         1.24641e+58
          1185.79220	         1.18239e+58
          1186.59850	         1.29825e+58
          1187.40480	         1.29816e+58
          1188.21110	         2.02888e+58
          1189.01740	         1.20322e+58
          1189.82370	         1.21259e+58
          1190.63000	         1.21193e+58
          1191.43630	         1.04576e+58
          1192.24260	         6.47465e+57
          1193.04890	         1.08319e+58
          1193.85520	         1.02807e+58
          1194.66150	         6.28363e+57
          1195.46780	         9.80861e+57
          1196.27410	         8.64226e+57
          1197.08040	         6.40142e+57
          1197.88670	         1.08517e+58
          1198.69300	         1.34067e+58
          1199.49930	         1.59750e+58
          1200.30560	         1.35879e+58
          1201.11190	         1.28385e+58
          1201.91820	         1.21882e+58
          1202.72450	         8.92241e+57
          1203.53080	         1.66768e+58
          1204.33710	         1.00476e+58
          1205.14340	         6.65471e+57
          1205.94970	         5.61099e+57
          1206.75600	         3.69841e+57
          1207.56230	         4.34212e+57
          1208.36860	         9.65177e+57
          1209.17490	         1.53722e+57
          1209.98120	         2.34162e+57
          1210.78750	         9.44000e+57
          1211.59380	         1.31240e+58
          1212.40010	         1.96422e+58
          1213.20640	         2.02357e+58
          1214.01270	         2.05308e+58
          1214.81900	         2.83606e+58
          1215.62530	         5.07868e+58
          1216.43160	         9.43432e+58
          1217.23790	         1.51152e+59
          1218.04420	         1.13776e+59
          1218.85050	         8.49880e+58
          1219.65680	         5.88871e+58
          1220.46310	         3.51721e+58
          1221.26940	         2.60081e+58
          1222.07570	         1.81023e+58
          1222.88200	         1.38570e+58
          1223.68830	         1.07158e+58
          1224.49460	         1.03480e+58
          1225.30090	         9.78433e+57
          1226.10720	         6.56215e+57
          1226.91350	         6.81011e+57
          1227.71980	         8.98023e+57
          1228.52610	         1.26121e+58
          1229.33240	         5.32675e+57
          1230.13870	         5.17048e+57
          1230.94500	         8.20724e+57
          1231.75130	         9.10030e+57
          1232.55760	         8.29430e+57
          1233.36390	         8.22108e+57
          1234.17020	         7.95782e+57
          1234.97650	         9.10902e+57
          1235.78280	         8.27160e+57
          1236.58910	         8.87779e+57
          1237.39540	         1.04101e+58
          1238.20170	         9.70965e+57
          1239.00800	         1.02452e+58
          1239.81430	         1.14270e+58
          1240.62060	         1.00464e+58
          1241.42690	         9.32735e+57
          1242.23320	         1.18686e+58
          1243.03950	         1.03688e+58
          1243.84580	         1.03568e+58
          1244.65210	         1.30345e+58
          1245.45840	         1.07815e+58
          1246.26470	         9.08458e+57
          1247.07100	         6.44653e+57
          1247.87730	         5.99420e+57
          1248.68360	         5.91006e+57
          1249.48990	         8.73092e+57
          1250.29620	         8.81765e+57
          1251.10250	         8.82623e+57
          1251.90880	         7.14466e+57
          1252.71510	         7.18664e+57
          1253.52140	         7.19146e+57
          1254.32770	         8.34139e+57
          1255.13400	         1.01998e+58
          1255.94030	         9.70126e+57
          1256.74660	         8.66532e+57
          1257.55290	         9.49643e+57
          1258.35920	         9.49950e+57
          1259.16550	         8.55817e+57
          1259.97180	         5.19424e+57
          1260.77810	         7.67571e+57
          1261.58440	         9.95846e+57
          1262.39070	         9.77268e+57
          1263.19700	         8.35636e+57
          1264.00330	         9.18785e+57
          1264.80960	         1.01683e+58
          1265.61590	         1.36774e+58
          1266.42220	         1.26342e+58
          1267.22850	         1.03788e+58
          1268.03480	         1.32022e+58
          1268.84110	         1.35857e+58
          1269.64740	         1.21536e+58
          1270.45370	         1.48779e+58
          1271.26000	         1.42817e+58
          1272.06630	         1.33405e+58
          1272.87260	         1.29771e+58
          1273.67890	         1.33286e+58
          1274.48520	         1.29546e+58
          1275.29150	         1.27180e+58
          1276.09780	         1.18969e+58
          1276.90410	         1.54065e+58
          1277.71040	         1.32564e+58
          1278.51670	         1.28949e+58
          1279.32300	         1.37411e+58
          1280.12930	         1.03049e+58
          1280.93560	         9.36357e+57
          1281.74190	         1.00744e+58
          1282.54820	         1.20948e+58
          1283.35450	         1.07365e+58
          1284.16080	         1.08069e+58
          1284.96710	         1.22902e+58
          1285.77340	         1.28551e+58
          1286.57970	         1.27951e+58
          1287.38600	         1.34462e+58
          1288.19230	         1.74230e+58
          1288.99860	         1.54606e+58
          1289.80490	         1.15910e+58
          1290.61120	         1.36810e+58
          1291.41750	         1.43100e+58
          1292.22380	         9.04132e+57
          1293.03010	         7.80131e+57
          1293.83640	         1.27899e+58
          1294.64270	         1.06785e+58
          1295.44900	         6.62529e+57
          1296.25530	         7.73565e+57
          1297.06160	         1.02383e+58
          1297.86790	         1.16895e+58
          1298.67420	         9.57350e+57
          1299.48050	         8.93221e+57
          1300.28680	         1.03207e+58
          1301.09310	         9.80477e+57
          1301.89940	         5.68234e+57
          1302.70570	         4.94465e+57
          1303.51200	         6.24210e+57
          1304.31830	         9.44519e+57
          1305.12460	         9.88531e+57
          1305.93090	         1.09701e+58
          1306.73720	         1.25488e+58
          1307.54350	         1.56028e+58
          1308.34980	         1.66300e+58
          1309.15610	         1.54113e+58
          1309.96240	         1.56312e+58
          1310.76870	         1.38913e+58
          1311.57500	         1.09050e+58
          1312.38130	         9.87748e+57
          1313.18760	         1.15170e+58
          1313.99390	         1.55914e+58
          1314.80020	         1.70245e+58
          1315.60650	         1.52112e+58
          1316.41280	         1.39463e+58
          1317.21910	         1.21612e+58
          1318.02540	         1.17821e+58
          1318.83170	         1.31145e+58
          1319.63800	         1.24762e+58
          1320.44430	         1.12849e+58
          1321.25060	         1.23890e+58
          1322.05690	         1.27337e+58
          1322.86320	         1.21901e+58
          1323.66950	         1.05590e+58
          1324.47580	         1.00576e+58
          1325.28210	         1.05118e+58
          1326.08840	         1.11502e+58
          1326.89470	         1.15526e+58
          1327.70100	         1.09929e+58
          1328.50730	         8.15345e+57
          1329.31360	         8.67665e+57
          1330.11990	         1.02925e+58
          1330.92620	         9.27474e+57
          1331.73250	         1.06114e+58
          1332.53880	         1.10146e+58
          1333.34510	         9.89090e+57
          1334.15140	         9.56216e+57
          1334.95770	         9.67374e+57
          1335.76400	         1.19101e+58
          1336.57030	         1.24093e+58
          1337.37660	         1.01056e+58
          1338.18290	         1.02730e+58
          1338.98920	         1.20804e+58
          1339.79550	         1.23579e+58
          1340.60180	         1.24451e+58
          1341.40810	         1.29828e+58
          1342.21440	         1.11278e+58
          1343.02070	         9.67768e+57
          1343.82700	         1.17806e+58
          1344.63330	         1.24508e+58
          1345.43960	         1.26542e+58
          1346.24590	         1.09462e+58
          1347.05220	         1.22367e+58
          1347.85850	         1.11419e+58
          1348.66480	         1.14259e+58
          1349.47110	         1.23704e+58
          1350.27740	         1.01255e+58
          1351.08370	         1.15152e+58
          1351.89000	         1.23454e+58
          1352.69630	         1.38886e+58
          1353.50260	         1.33017e+58
          1354.30890	         1.26959e+58
          1355.11520	         1.26011e+58
          1355.92150	         1.04358e+58
          1356.72780	         1.02957e+58
          1357.53410	         9.61689e+57
          1358.34040	         9.70711e+57
          1359.14670	         9.81793e+57
          1359.95300	         1.09529e+58
          1360.75930	         1.18406e+58
          1361.56560	         1.11773e+58
          1362.37190	         1.15163e+58
          1363.17820	         1.19799e+58
          1363.98450	         1.25216e+58
          1364.79080	         1.31340e+58
          1365.59710	         1.25768e+58
          1366.40340	         1.23200e+58
          1367.20970	         1.24755e+58
          1368.01600	         1.04711e+58
          1368.82230	         1.02977e+58
          1369.62860	         1.13114e+58
          1370.43490	         9.57986e+57
          1371.24120	         1.00112e+58
          1372.04750	         9.10848e+57
          1372.85380	         1.03408e+58
          1373.66010	         1.08365e+58
          1374.46640	         1.05016e+58
          1375.27270	         1.05400e+58
          1376.07900	         8.39154e+57
          1376.88530	         7.12891e+57
          1377.69160	         9.20012e+57
          1378.49790	         8.97093e+57
          1379.30420	         7.68299e+57
          1380.11050	         9.47543e+57
          1380.91680	         9.60605e+57
          1381.72310	         7.22087e+57
          1382.52940	         8.09580e+57
          1383.33570	         7.38017e+57
          1384.14200	         8.29700e+57
          1384.94830	         1.18001e+58
          1385.75460	         1.23055e+58
          1386.56090	         1.00545e+58
          1387.36720	         1.00798e+58
          1388.17350	         1.15432e+58
          1388.97980	         1.14401e+58
          1389.78610	         1.07414e+58
          1390.59240	         8.57161e+57
          1391.39870	         7.09370e+57
          1392.20500	         8.36306e+57
          1393.01130	         7.70660e+57
          1393.81760	         6.64211e+57
          1394.62390	         7.67103e+57
          1395.43020	         7.09941e+57
          1396.23650	         7.23201e+57
          1397.04280	         7.39917e+57
          1397.84910	         8.29044e+57
          1398.65540	         8.34584e+57
          1399.46170	         9.90438e+57
          1400.26800	         9.26217e+57
          1401.07430	         8.35993e+57
          1401.88060	         8.42750e+57
          1402.68690	         9.57757e+57
          1403.49320	         9.45152e+57
          1404.29950	         8.67877e+57
          1405.10580	         1.05676e+58
          1405.91210	         1.11133e+58
          1406.71840	         1.02952e+58
          1407.52470	         1.05627e+58
          1408.33100	         1.02983e+58
          1409.13730	         1.20852e+58
          1409.94360	         1.32912e+58
          1410.74990	         1.22852e+58
          1411.55620	         1.00985e+58
          1412.36250	         9.34010e+57
          1413.16880	         9.00747e+57
          1413.97510	         8.84079e+57
          1414.78140	         9.16556e+57
          1415.58770	         1.06144e+58
          1416.39400	         1.19567e+58
          1417.20030	         1.37522e+58
          1418.00660	         1.08383e+58
          1418.81290	         9.06153e+57
          1419.61920	         1.07584e+58
          1420.42550	         1.22518e+58
          1421.23180	         1.36180e+58
          1422.03810	         1.20488e+58
          1422.84440	         1.01845e+58
          1423.65070	         1.19864e+58
          1424.45700	         1.15454e+58
          1425.26330	         9.22646e+57
          1426.06960	         9.71540e+57
          1426.87590	         9.70194e+57
          1427.68220	         9.44706e+57
          1428.48850	         1.06162e+58
          1429.29480	         9.95334e+57
          1430.10110	         9.50366e+57
          1430.90740	         8.91794e+57
          1431.71370	         9.00048e+57
          1432.52000	         8.64954e+57
          1433.32630	         7.77584e+57
          1434.13260	         7.70062e+57
          1434.93890	         7.36935e+57
          1435.74520	         8.09355e+57
          1436.55150	         8.76362e+57
          1437.35780	         8.97554e+57
          1438.16410	         8.74334e+57
          1438.97040	         8.34461e+57
          1439.77670	         8.53113e+57
          1440.58300	         9.13469e+57
          1441.38930	         9.88053e+57
          1442.19560	         9.67234e+57
          1443.00190	         9.50696e+57
          1443.80820	         1.03103e+58
          1444.61450	         9.35532e+57
          1445.42080	         8.06841e+57
          1446.22710	         1.03066e+58
          1447.03340	         1.06365e+58
          1447.83970	         1.14013e+58
          1448.64600	         1.15250e+58
          1449.45230	         1.13263e+58
          1450.25860	         1.03424e+58
          1451.06490	         9.37797e+57
          1451.87120	         7.98532e+57
          1452.67750	         7.66202e+57
          1453.48380	         8.70952e+57
          1454.29010	         8.39337e+57
          1455.09640	         7.82593e+57
          1455.90270	         8.99862e+57
          1456.70900	         8.57292e+57
          1457.51530	         9.69027e+57
          1458.32160	         1.27064e+58
          1459.12790	         1.19109e+58
          1459.93420	         9.92580e+57
          1460.74050	         7.09694e+57
          1461.54680	         7.03081e+57
          1462.35310	         8.62973e+57
          1463.15940	         1.04841e+58
          1463.96570	         1.21791e+58
          1464.77200	         1.19725e+58
          1465.57830	         1.16081e+58
          1466.38460	         9.51727e+57
          1467.19090	         8.57083e+57
          1467.99720	         8.33361e+57
          1468.80350	         9.24405e+57
          1469.60980	         9.80388e+57
          1470.41610	         1.02170e+58
          1471.22240	         9.43308e+57
          1472.02870	         9.77996e+57
          1472.83500	         1.02555e+58
          1473.64130	         9.92864e+57
          1474.44760	         9.50154e+57
          1475.25390	         9.80809e+57
          1476.06020	         9.62051e+57
          1476.86650	         8.65301e+57
          1477.67280	         7.56525e+57
          1478.47910	         7.47554e+57
          1479.28540	         8.13762e+57
          1480.09170	         8.84396e+57
          1480.89800	         9.16829e+57
          1481.70430	         8.38960e+57
          1482.51060	         9.19260e+57
          1483.31690	         8.59380e+57
          1484.12320	         7.72613e+57
          1484.92950	         9.60969e+57
          1485.73580	         9.80216e+57
          1486.54210	         8.71865e+57
          1487.34840	         8.19106e+57
          1488.15470	         7.17475e+57
          1488.96100	         8.31972e+57
          1489.76730	         9.15874e+57
