#sample_77_stacked_spectrum_rest_UV-bands_median_H-alpha_noDC.txt
#median Lum: 1.65695e+42
#Rest-frame wavelength (A) | Luminosity (erg/s/A)
#
          1110.00000	         0.00000e+00
          1110.80630	        -1.25076e+59
          1111.61260	         1.72472e+59
          1112.41890	         6.13530e+58
          1113.22520	         9.29119e+58
          1114.03150	         5.58407e+58
          1114.83780	         1.17653e+59
          1115.64410	        -2.93779e+59
          1116.45040	        -1.16604e+59
          1117.25670	         4.51001e+58
          1118.06300	         8.03053e+57
          1118.86930	        -3.19570e+58
          1119.67560	         1.19279e+59
          1120.48190	        -7.64432e+58
          1121.28820	        -1.38683e+59
          1122.09450	         2.55819e+58
          1122.90080	        -6.24701e+58
          1123.70710	         4.86972e+58
          1124.51340	         9.45056e+58
          1125.31970	         3.59743e+58
          1126.12600	         1.85536e+58
          1126.93230	        -3.33410e+58
          1127.73860	        -6.97953e+58
          1128.54490	        -3.77977e+58
          1129.35120	        -2.05857e+58
          1130.15750	        -6.89216e+57
          1130.96380	        -1.60100e+58
          1131.77010	         7.75740e+57
          1132.57640	        -2.93765e+57
          1133.38270	         7.84647e+57
          1134.18900	         1.69483e+58
          1134.99530	         1.45773e+58
          1135.80160	         1.09108e+58
          1136.60790	        -2.09964e+57
          1137.41420	         1.40769e+58
          1138.22050	         5.82010e+58
          1139.02680	         4.05688e+58
          1139.83310	         1.78107e+58
          1140.63940	         7.24273e+57
          1141.44570	        -2.98697e+58
          1142.25200	        -2.23115e+58
          1143.05830	         1.98188e+58
          1143.86460	         2.26320e+58
          1144.67090	         2.62515e+58
          1145.47720	         1.53976e+58
          1146.28350	         1.24033e+58
          1147.08980	         1.49966e+58
          1147.89610	         2.18531e+58
          1148.70240	         3.99625e+58
          1149.50870	         2.21762e+58
          1150.31500	         9.21513e+57
          1151.12130	         8.84606e+57
          1151.92760	        -6.69293e+57
          1152.73390	         1.27772e+58
          1153.54020	         1.06725e+58
          1154.34650	         2.52415e+58
          1155.15280	         1.82282e+58
          1155.95910	         1.06463e+58
          1156.76540	         7.38334e+57
          1157.57170	        -5.29861e+57
          1158.37800	        -2.61161e+57
          1159.18430	         4.79980e+56
          1159.99060	         1.43185e+58
          1160.79690	         7.06544e+57
          1161.60320	         1.19093e+58
          1162.40950	         1.43270e+58
          1163.21580	         1.57982e+58
          1164.02210	         1.85958e+58
          1164.82840	         5.99940e+57
          1165.63470	         2.61794e+58
          1166.44100	         3.59656e+58
          1167.24730	         2.07858e+58
          1168.05360	         1.26898e+58
          1168.85990	         7.96908e+57
          1169.66620	         1.15722e+58
          1170.47250	         9.95864e+57
          1171.27880	         7.34794e+57
          1172.08510	         7.89306e+57
          1172.89140	         9.50176e+57
          1173.69770	         3.23946e+57
          1174.50400	         1.15473e+58
          1175.31030	         1.69326e+58
          1176.11660	         1.61091e+58
          1176.92290	         1.20858e+58
          1177.72920	         8.90399e+57
          1178.53550	         5.25563e+57
          1179.34180	         4.63797e+56
          1180.14810	         8.25616e+57
          1180.95440	         8.57696e+57
          1181.76070	         4.40721e+57
          1182.56700	         5.04899e+57
          1183.37330	         1.09449e+57
          1184.17960	         1.28828e+58
          1184.98590	         1.15208e+58
          1185.79220	         9.69717e+57
          1186.59850	         1.02549e+58
          1187.40480	         7.63787e+57
          1188.21110	         1.20451e+58
          1189.01740	         1.00978e+58
          1189.82370	         1.32047e+58
          1190.63000	         1.17642e+58
          1191.43630	         1.00803e+58
          1192.24260	         7.25918e+57
          1193.04890	         1.14001e+58
          1193.85520	         9.83994e+57
          1194.66150	         3.32033e+57
          1195.46780	         1.37620e+58
          1196.27410	         1.78643e+58
          1197.08040	         7.83500e+57
          1197.88670	         1.20397e+58
          1198.69300	         1.45357e+58
          1199.49930	         1.35371e+58
          1200.30560	         9.09093e+57
          1201.11190	         9.94018e+57
          1201.91820	         8.25160e+57
          1202.72450	         9.60086e+57
          1203.53080	         1.24916e+58
          1204.33710	         7.05157e+57
          1205.14340	         1.11859e+58
          1205.94970	         7.84338e+57
          1206.75600	         1.00210e+58
          1207.56230	         6.54298e+57
          1208.36860	         9.40224e+57
          1209.17490	         8.78164e+57
          1209.98120	         8.35053e+57
          1210.78750	         9.33859e+57
          1211.59380	         1.36831e+58
          1212.40010	         1.67068e+58
          1213.20640	         2.05618e+58
          1214.01270	         1.91027e+58
          1214.81900	         2.22621e+58
          1215.62530	         4.31454e+58
          1216.43160	         9.47736e+58
          1217.23790	         1.51475e+59
          1218.04420	         1.14230e+59
          1218.85050	         8.48137e+58
          1219.65680	         5.69243e+58
          1220.46310	         3.04145e+58
          1221.26940	         1.77304e+58
          1222.07570	         1.19451e+58
          1222.88200	         1.03490e+58
          1223.68830	         8.25616e+57
          1224.49460	         5.94693e+57
          1225.30090	         7.70219e+57
          1226.10720	         8.77323e+57
          1226.91350	         7.45855e+57
          1227.71980	         1.05917e+58
          1228.52610	         7.26350e+57
          1229.33240	         7.30120e+57
          1230.13870	         7.54162e+57
          1230.94500	         8.19774e+57
          1231.75130	         6.37722e+57
          1232.55760	         1.01115e+58
          1233.36390	         9.13507e+57
          1234.17020	         9.90169e+57
          1234.97650	         9.50507e+57
          1235.78280	         9.41167e+57
          1236.58910	         9.68922e+57
          1237.39540	         8.71510e+57
          1238.20170	         8.63866e+57
          1239.00800	         1.40187e+58
          1239.81430	         1.44563e+58
          1240.62060	         1.01265e+58
          1241.42690	         1.02352e+58
          1242.23320	         1.12113e+58
          1243.03950	         1.04021e+58
          1243.84580	         7.14513e+57
          1244.65210	         7.36979e+57
          1245.45840	         9.89542e+57
          1246.26470	         7.95604e+57
          1247.07100	         8.15439e+57
          1247.87730	         1.10106e+58
          1248.68360	         1.10491e+58
          1249.48990	         1.01033e+58
          1250.29620	         1.10702e+58
          1251.10250	         1.05185e+58
          1251.90880	         6.83134e+57
          1252.71510	         3.59966e+57
          1253.52140	         6.48166e+57
          1254.32770	         1.12337e+58
          1255.13400	         1.26981e+58
          1255.94030	         1.09410e+58
          1256.74660	         9.65598e+57
          1257.55290	         1.15200e+58
          1258.35920	         9.49048e+57
          1259.16550	         6.60458e+57
          1259.97180	         5.42193e+57
          1260.77810	         8.37639e+57
          1261.58440	         1.25084e+58
          1262.39070	         9.15923e+57
          1263.19700	         8.62257e+57
          1264.00330	         1.04561e+58
          1264.80960	         1.03452e+58
          1265.61590	         1.29975e+58
          1266.42220	         1.19382e+58
          1267.22850	         8.44242e+57
          1268.03480	         1.17816e+58
          1268.84110	         1.45611e+58
          1269.64740	         1.39491e+58
          1270.45370	         1.29404e+58
          1271.26000	         1.01609e+58
          1272.06630	         1.07549e+58
          1272.87260	         1.41418e+58
          1273.67890	         1.33042e+58
          1274.48520	         1.05914e+58
          1275.29150	         1.19050e+58
          1276.09780	         1.29120e+58
          1276.90410	         1.42380e+58
          1277.71040	         9.95037e+57
          1278.51670	         9.22961e+57
          1279.32300	         1.30785e+58
          1280.12930	         1.28078e+58
          1280.93560	         1.11745e+58
          1281.74190	         1.17620e+58
          1282.54820	         1.28519e+58
          1283.35450	         9.42605e+57
          1284.16080	         1.01359e+58
          1284.96710	         1.33575e+58
          1285.77340	         1.01674e+58
          1286.57970	         8.95098e+57
          1287.38600	         1.47265e+58
          1288.19230	         1.82683e+58
          1288.99860	         1.52584e+58
          1289.80490	         1.22184e+58
          1290.61120	         1.36150e+58
          1291.41750	         1.33163e+58
          1292.22380	         1.19364e+58
          1293.03010	         1.03075e+58
          1293.83640	         1.08515e+58
          1294.64270	         8.57927e+57
          1295.44900	         5.20819e+57
          1296.25530	         7.57893e+57
          1297.06160	         9.94119e+57
          1297.86790	         1.01921e+58
          1298.67420	         8.74677e+57
          1299.48050	         9.53371e+57
          1300.28680	         1.07513e+58
          1301.09310	         7.93035e+57
          1301.89940	         3.85250e+57
          1302.70570	         5.91395e+57
          1303.51200	         8.54595e+57
          1304.31830	         1.05982e+58
          1305.12460	         1.13627e+58
          1305.93090	         1.21342e+58
          1306.73720	         1.29802e+58
          1307.54350	         1.31628e+58
          1308.34980	         1.29838e+58
          1309.15610	         1.40234e+58
          1309.96240	         1.42898e+58
          1310.76870	         1.18393e+58
          1311.57500	         1.05493e+58
          1312.38130	         1.16870e+58
          1313.18760	         1.21742e+58
          1313.99390	         1.37799e+58
          1314.80020	         1.50683e+58
          1315.60650	         1.40325e+58
          1316.41280	         1.24631e+58
          1317.21910	         1.14727e+58
          1318.02540	         1.09107e+58
          1318.83170	         1.12063e+58
          1319.63800	         1.13425e+58
          1320.44430	         1.09985e+58
          1321.25060	         1.16728e+58
          1322.05690	         1.15206e+58
          1322.86320	         1.04047e+58
          1323.66950	         9.53535e+57
          1324.47580	         9.20578e+57
          1325.28210	         9.83045e+57
          1326.08840	         1.06224e+58
          1326.89470	         1.28018e+58
          1327.70100	         1.13247e+58
          1328.50730	         8.57657e+57
          1329.31360	         8.22190e+57
          1330.11990	         8.06681e+57
          1330.92620	         8.51693e+57
          1331.73250	         1.08318e+58
          1332.53880	         1.07880e+58
          1333.34510	         1.01411e+58
          1334.15140	         8.60423e+57
          1334.95770	         8.89818e+57
          1335.76400	         1.08311e+58
          1336.57030	         1.05365e+58
          1337.37660	         9.12631e+57
          1338.18290	         1.05350e+58
          1338.98920	         1.19313e+58
          1339.79550	         1.20088e+58
          1340.60180	         1.30524e+58
          1341.40810	         1.29786e+58
          1342.21440	         1.00327e+58
          1343.02070	         1.13298e+58
          1343.82700	         1.35483e+58
          1344.63330	         1.27366e+58
          1345.43960	         1.44427e+58
          1346.24590	         1.08453e+58
          1347.05220	         1.02667e+58
          1347.85850	         1.08338e+58
          1348.66480	         1.22447e+58
          1349.47110	         1.30114e+58
          1350.27740	         1.17780e+58
          1351.08370	         1.14217e+58
          1351.89000	         1.10470e+58
          1352.69630	         1.25150e+58
          1353.50260	         1.29263e+58
          1354.30890	         1.23933e+58
          1355.11520	         1.15850e+58
          1355.92150	         1.03096e+58
          1356.72780	         9.76465e+57
          1357.53410	         1.08470e+58
          1358.34040	         1.08349e+58
          1359.14670	         1.05424e+58
          1359.95300	         1.12767e+58
          1360.75930	         1.20011e+58
          1361.56560	         1.05691e+58
          1362.37190	         1.02733e+58
          1363.17820	         9.12792e+57
          1363.98450	         9.58373e+57
          1364.79080	         1.16296e+58
          1365.59710	         1.39203e+58
          1366.40340	         1.22248e+58
          1367.20970	         9.52170e+57
          1368.01600	         9.71132e+57
          1368.82230	         1.03282e+58
          1369.62860	         9.70143e+57
          1370.43490	         8.91733e+57
          1371.24120	         8.58210e+57
          1372.04750	         7.40523e+57
          1372.85380	         1.08183e+58
          1373.66010	         1.19651e+58
          1374.46640	         1.06172e+58
          1375.27270	         9.54926e+57
          1376.07900	         8.81850e+57
          1376.88530	         8.71262e+57
          1377.69160	         9.13785e+57
          1378.49790	         8.75345e+57
          1379.30420	         8.60744e+57
          1380.11050	         1.00789e+58
          1380.91680	         9.01858e+57
          1381.72310	         8.07707e+57
          1382.52940	         8.34967e+57
          1383.33570	         8.06587e+57
          1384.14200	         8.64333e+57
          1384.94830	         1.01098e+58
          1385.75460	         1.09143e+58
          1386.56090	         1.05092e+58
          1387.36720	         9.70942e+57
          1388.17350	         1.13182e+58
          1388.97980	         1.02651e+58
          1389.78610	         8.38768e+57
          1390.59240	         7.34077e+57
          1391.39870	         5.67946e+57
          1392.20500	         7.10624e+57
          1393.01130	         7.57863e+57
          1393.81760	         7.40064e+57
          1394.62390	         7.06661e+57
          1395.43020	         6.19181e+57
          1396.23650	         6.69604e+57
          1397.04280	         7.23310e+57
          1397.84910	         8.48634e+57
          1398.65540	         8.83601e+57
          1399.46170	         8.95304e+57
          1400.26800	         8.30103e+57
          1401.07430	         6.86281e+57
          1401.88060	         6.75689e+57
          1402.68690	         8.63434e+57
          1403.49320	         9.91229e+57
          1404.29950	         8.92862e+57
          1405.10580	         9.13461e+57
          1405.91210	         9.87533e+57
          1406.71840	         1.06039e+58
          1407.52470	         1.03926e+58
          1408.33100	         9.48931e+57
          1409.13730	         1.08555e+58
          1409.94360	         1.20772e+58
          1410.74990	         1.12685e+58
          1411.55620	         8.79262e+57
          1412.36250	         7.94215e+57
          1413.16880	         8.97830e+57
          1413.97510	         8.56344e+57
          1414.78140	         8.05534e+57
          1415.58770	         1.02540e+58
          1416.39400	         1.15150e+58
          1417.20030	         1.14480e+58
          1418.00660	         8.76047e+57
          1418.81290	         8.83750e+57
          1419.61920	         1.09324e+58
          1420.42550	         1.26587e+58
          1421.23180	         1.39950e+58
          1422.03810	         1.14191e+58
          1422.84440	         9.39739e+57
          1423.65070	         1.21515e+58
          1424.45700	         1.20571e+58
          1425.26330	         9.18006e+57
          1426.06960	         9.42881e+57
          1426.87590	         1.06850e+58
          1427.68220	         1.01869e+58
          1428.48850	         1.10187e+58
          1429.29480	         1.06345e+58
          1430.10110	         9.34234e+57
          1430.90740	         8.74552e+57
          1431.71370	         9.62004e+57
          1432.52000	         9.50757e+57
          1433.32630	         8.87380e+57
          1434.13260	         8.15310e+57
          1434.93890	         7.75207e+57
          1435.74520	         8.89923e+57
          1436.55150	         9.07514e+57
          1437.35780	         8.83119e+57
          1438.16410	         8.85336e+57
          1438.97040	         9.07204e+57
          1439.77670	         9.02686e+57
          1440.58300	         8.74080e+57
          1441.38930	         9.15782e+57
          1442.19560	         8.59884e+57
          1443.00190	         8.43484e+57
          1443.80820	         1.09203e+58
          1444.61450	         1.04625e+58
          1445.42080	         9.08511e+57
          1446.22710	         9.52807e+57
          1447.03340	         8.93900e+57
          1447.83970	         1.06262e+58
          1448.64600	         1.04011e+58
          1449.45230	         9.78555e+57
          1450.25860	         1.06664e+58
          1451.06490	         9.38616e+57
          1451.87120	         8.00067e+57
          1452.67750	         7.68149e+57
          1453.48380	         9.04254e+57
          1454.29010	         7.82611e+57
          1455.09640	         6.71503e+57
          1455.90270	         8.88736e+57
          1456.70900	         8.98164e+57
          1457.51530	         1.01907e+58
          1458.32160	         1.22371e+58
          1459.12790	         1.09457e+58
          1459.93420	         9.03552e+57
          1460.74050	         7.19738e+57
          1461.54680	         7.53334e+57
          1462.35310	         7.17924e+57
          1463.15940	         8.80264e+57
          1463.96570	         1.01753e+58
          1464.77200	         1.09218e+58
          1465.57830	         9.50875e+57
          1466.38460	         8.70828e+57
          1467.19090	         9.21734e+57
          1467.99720	         8.79508e+57
          1468.80350	         8.95358e+57
          1469.60980	         9.58058e+57
          1470.41610	         9.95006e+57
          1471.22240	         8.53083e+57
          1472.02870	         9.15988e+57
          1472.83500	         9.29113e+57
          1473.64130	         9.89863e+57
          1474.44760	         1.00859e+58
          1475.25390	         8.94349e+57
          1476.06020	         8.61534e+57
          1476.86650	         8.68361e+57
          1477.67280	         8.15819e+57
          1478.47910	         6.95927e+57
          1479.28540	         7.31654e+57
          1480.09170	         8.01703e+57
          1480.89800	         8.18041e+57
          1481.70430	         8.83552e+57
          1482.51060	         8.50158e+57
          1483.31690	         7.32971e+57
          1484.12320	         6.21463e+57
          1484.92950	         6.42208e+57
          1485.73580	         7.09801e+57
          1486.54210	         8.54113e+57
          1487.34840	         8.74398e+57
          1488.15470	         8.53908e+57
          1488.96100	         8.99436e+57
          1489.76730	         8.75909e+57
