#sample_123_stacked_spectrum_rest_UV-bands_median_H-alpha_noDC.txt
#median Lum: 1.72108e+42
#Rest-frame wavelength (A) | Luminosity (erg/s/A)
#
          1110.00000	         0.00000e+00
          1110.80630	        -2.01309e+59
          1111.61260	        -2.72294e+59
          1112.41890	        -1.05199e+59
          1113.22520	        -4.36995e+58
          1114.03150	        -1.40319e+59
          1114.83780	        -4.37797e+58
          1115.64410	         3.12373e+59
          1116.45040	         3.10919e+59
          1117.25670	         6.69916e+58
          1118.06300	        -1.06783e+59
          1118.86930	         6.91321e+58
          1119.67560	         1.18824e+59
          1120.48190	        -3.10499e+58
          1121.28820	        -9.16369e+58
          1122.09450	         4.41129e+56
          1122.90080	         2.57540e+58
          1123.70710	         5.01894e+58
          1124.51340	         1.22024e+59
          1125.31970	         9.64173e+57
          1126.12600	         2.07119e+58
          1126.93230	        -1.70018e+58
          1127.73860	        -3.52960e+58
          1128.54490	         4.47115e+57
          1129.35120	         1.00262e+58
          1130.15750	        -2.21673e+58
          1130.96380	         1.81293e+58
          1131.77010	         4.99157e+58
          1132.57640	         1.93424e+58
          1133.38270	         2.56486e+58
          1134.18900	         1.34930e+58
          1134.99530	        -4.07741e+57
          1135.80160	         1.11973e+58
          1136.60790	         1.68146e+57
          1137.41420	        -3.41061e+57
          1138.22050	         4.18690e+58
          1139.02680	         2.04716e+58
          1139.83310	         1.19058e+58
          1140.63940	         2.02592e+58
          1141.44570	        -6.78347e+57
          1142.25200	        -7.01619e+57
          1143.05830	         3.23386e+58
          1143.86460	         1.97350e+58
          1144.67090	         6.14638e+57
          1145.47720	         3.34209e+57
          1146.28350	         1.40991e+57
          1147.08980	         1.12337e+58
          1147.89610	         1.62621e+58
          1148.70240	         2.42635e+58
          1149.50870	         1.31509e+58
          1150.31500	         1.84888e+58
          1151.12130	         1.49846e+58
          1151.92760	        -3.08336e+57
          1152.73390	        -1.25412e+57
          1153.54020	        -6.56903e+57
          1154.34650	         1.47372e+58
          1155.15280	         2.99223e+58
          1155.95910	         1.56766e+58
          1156.76540	         5.96420e+57
          1157.57170	        -6.45253e+57
          1158.37800	        -8.18410e+57
          1159.18430	        -2.30477e+57
          1159.99060	         1.56793e+58
          1160.79690	         6.70769e+57
          1161.60320	         1.31551e+58
          1162.40950	         2.44267e+58
          1163.21580	         1.45223e+58
          1164.02210	         5.85819e+57
          1164.82840	         1.22205e+58
          1165.63470	         2.42357e+58
          1166.44100	         2.97970e+58
          1167.24730	         1.41512e+58
          1168.05360	         6.34656e+57
          1168.85990	         5.75132e+57
          1169.66620	         6.79221e+57
          1170.47250	         9.91566e+57
          1171.27880	         4.07079e+57
          1172.08510	         1.45149e+58
          1172.89140	         1.35104e+58
          1173.69770	         8.48707e+57
          1174.50400	         1.07513e+58
          1175.31030	         1.43197e+58
          1176.11660	         1.45851e+58
          1176.92290	         1.72028e+58
          1177.72920	         1.19060e+58
          1178.53550	         1.09021e+58
          1179.34180	         8.89742e+57
          1180.14810	         8.07768e+57
          1180.95440	         1.13718e+58
          1181.76070	         9.52138e+57
          1182.56700	         4.67614e+57
          1183.37330	         2.34781e+57
          1184.17960	         1.02495e+58
          1184.98590	         1.22858e+58
          1185.79220	         6.63807e+57
          1186.59850	         1.25389e+58
          1187.40480	         1.34203e+58
          1188.21110	         1.40629e+58
          1189.01740	         7.10039e+57
          1189.82370	         6.41966e+57
          1190.63000	         1.23920e+58
          1191.43630	         1.37720e+58
          1192.24260	         9.78253e+57
          1193.04890	         1.11319e+58
          1193.85520	         6.39958e+57
          1194.66150	         6.14402e+57
          1195.46780	         9.21804e+57
          1196.27410	         1.29276e+58
          1197.08040	         9.11438e+57
          1197.88670	         1.45779e+58
          1198.69300	         1.75547e+58
          1199.49930	         1.72081e+58
          1200.30560	         1.48254e+58
          1201.11190	         1.12543e+58
          1201.91820	         9.32621e+57
          1202.72450	         8.43864e+57
          1203.53080	         1.91663e+58
          1204.33710	         1.15953e+58
          1205.14340	         3.33959e+57
          1205.94970	         6.20119e+57
          1206.75600	         9.51497e+57
          1207.56230	         4.94180e+57
          1208.36860	         4.18439e+57
          1209.17490	         8.79107e+57
          1209.98120	         8.12973e+57
          1210.78750	         1.16255e+58
          1211.59380	         1.17367e+58
          1212.40010	         1.74864e+58
          1213.20640	         1.89364e+58
          1214.01270	         2.22576e+58
          1214.81900	         2.67422e+58
          1215.62530	         4.56425e+58
          1216.43160	         9.07619e+58
          1217.23790	         1.49137e+59
          1218.04420	         1.15889e+59
          1218.85050	         9.00152e+58
          1219.65680	         5.99137e+58
          1220.46310	         3.29923e+58
          1221.26940	         2.47181e+58
          1222.07570	         1.51970e+58
          1222.88200	         1.00935e+58
          1223.68830	         1.10464e+58
          1224.49460	         8.59658e+57
          1225.30090	         6.74033e+57
          1226.10720	         7.71282e+57
          1226.91350	         9.99907e+57
          1227.71980	         8.02055e+57
          1228.52610	         1.26206e+58
          1229.33240	         1.55109e+58
          1230.13870	         1.11581e+58
          1230.94500	         9.14186e+57
          1231.75130	         7.38983e+57
          1232.55760	         9.68867e+57
          1233.36390	         9.51024e+57
          1234.17020	         9.31580e+57
          1234.97650	         1.00418e+58
          1235.78280	         7.37904e+57
          1236.58910	         6.59155e+57
          1237.39540	         7.61527e+57
          1238.20170	         1.09751e+58
          1239.00800	         1.28983e+58
          1239.81430	         1.21608e+58
          1240.62060	         8.99185e+57
          1241.42690	         9.97482e+57
          1242.23320	         1.09475e+58
          1243.03950	         6.35219e+57
          1243.84580	         6.25927e+57
          1244.65210	         9.66573e+57
          1245.45840	         1.00461e+58
          1246.26470	         8.99508e+57
          1247.07100	         6.24400e+57
          1247.87730	         1.11350e+58
          1248.68360	         5.32393e+57
          1249.48990	         1.10968e+58
          1250.29620	         9.35533e+57
          1251.10250	         6.27765e+57
          1251.90880	         5.95018e+57
          1252.71510	         4.91554e+57
          1253.52140	         5.80784e+57
          1254.32770	         9.78162e+57
          1255.13400	         1.16154e+58
          1255.94030	         1.01220e+58
          1256.74660	         8.58930e+57
          1257.55290	         8.66239e+57
          1258.35920	         8.06693e+57
          1259.16550	         8.02822e+57
          1259.97180	         5.66919e+57
          1260.77810	         7.90741e+57
          1261.58440	         1.09355e+58
          1262.39070	         8.19595e+57
          1263.19700	         7.31558e+57
          1264.00330	         8.41737e+57
          1264.80960	         1.15806e+58
          1265.61590	         1.22259e+58
          1266.42220	         1.27721e+58
          1267.22850	         1.05188e+58
          1268.03480	         1.04168e+58
          1268.84110	         1.24758e+58
          1269.64740	         1.29157e+58
          1270.45370	         1.28707e+58
          1271.26000	         1.04087e+58
          1272.06630	         1.04144e+58
          1272.87260	         1.35003e+58
          1273.67890	         1.23770e+58
          1274.48520	         1.12324e+58
          1275.29150	         1.14830e+58
          1276.09780	         9.54166e+57
          1276.90410	         1.39754e+58
          1277.71040	         1.34193e+58
          1278.51670	         1.19196e+58
          1279.32300	         1.35601e+58
          1280.12930	         1.25638e+58
          1280.93560	         1.03735e+58
          1281.74190	         1.02675e+58
          1282.54820	         1.21080e+58
          1283.35450	         1.20706e+58
          1284.16080	         1.09376e+58
          1284.96710	         1.07427e+58
          1285.77340	         1.08514e+58
          1286.57970	         1.22933e+58
          1287.38600	         1.63411e+58
          1288.19230	         1.64210e+58
          1288.99860	         1.52843e+58
          1289.80490	         1.17372e+58
          1290.61120	         1.24666e+58
          1291.41750	         1.47273e+58
          1292.22380	         1.24123e+58
          1293.03010	         1.12663e+58
          1293.83640	         1.26719e+58
          1294.64270	         9.99296e+57
          1295.44900	         6.09215e+57
          1296.25530	         8.53438e+57
          1297.06160	         1.04130e+58
          1297.86790	         1.04033e+58
          1298.67420	         1.07015e+58
          1299.48050	         9.43982e+57
          1300.28680	         9.60772e+57
          1301.09310	         8.96577e+57
          1301.89940	         4.66138e+57
          1302.70570	         5.68322e+57
          1303.51200	         8.21531e+57
          1304.31830	         9.57684e+57
          1305.12460	         1.09262e+58
          1305.93090	         1.18180e+58
          1306.73720	         1.38002e+58
          1307.54350	         1.49385e+58
          1308.34980	         1.38408e+58
          1309.15610	         1.35298e+58
          1309.96240	         1.54100e+58
          1310.76870	         1.52958e+58
          1311.57500	         1.37399e+58
          1312.38130	         1.22550e+58
          1313.18760	         1.25941e+58
          1313.99390	         1.38001e+58
          1314.80020	         1.61319e+58
          1315.60650	         1.61431e+58
          1316.41280	         1.39823e+58
          1317.21910	         1.27106e+58
          1318.02540	         1.17483e+58
          1318.83170	         1.17497e+58
          1319.63800	         1.12749e+58
          1320.44430	         1.03989e+58
          1321.25060	         1.06826e+58
          1322.05690	         1.09459e+58
          1322.86320	         1.19579e+58
          1323.66950	         1.18258e+58
          1324.47580	         9.87108e+57
          1325.28210	         9.84992e+57
          1326.08840	         1.21489e+58
          1326.89470	         1.31092e+58
          1327.70100	         1.14524e+58
          1328.50730	         9.22880e+57
          1329.31360	         9.19681e+57
          1330.11990	         9.64473e+57
          1330.92620	         8.77603e+57
          1331.73250	         9.79585e+57
          1332.53880	         1.03291e+58
          1333.34510	         1.09171e+58
          1334.15140	         1.13244e+58
          1334.95770	         9.46143e+57
          1335.76400	         1.01156e+58
          1336.57030	         1.14715e+58
          1337.37660	         1.15425e+58
          1338.18290	         1.11925e+58
          1338.98920	         1.17127e+58
          1339.79550	         1.23386e+58
          1340.60180	         1.16943e+58
          1341.40810	         1.27337e+58
          1342.21440	         1.23199e+58
          1343.02070	         1.26594e+58
          1343.82700	         1.35609e+58
          1344.63330	         1.29810e+58
          1345.43960	         1.24559e+58
          1346.24590	         1.01331e+58
          1347.05220	         1.06048e+58
          1347.85850	         1.11344e+58
          1348.66480	         1.28350e+58
          1349.47110	         1.25223e+58
          1350.27740	         1.04634e+58
          1351.08370	         1.03865e+58
          1351.89000	         1.17011e+58
          1352.69630	         1.22490e+58
          1353.50260	         1.25698e+58
          1354.30890	         1.15595e+58
          1355.11520	         1.22831e+58
          1355.92150	         1.06670e+58
          1356.72780	         8.66768e+57
          1357.53410	         1.04087e+58
          1358.34040	         1.13096e+58
          1359.14670	         1.12187e+58
          1359.95300	         1.11712e+58
          1360.75930	         1.17933e+58
          1361.56560	         9.59265e+57
          1362.37190	         9.65250e+57
          1363.17820	         9.22588e+57
          1363.98450	         1.17110e+58
          1364.79080	         1.32136e+58
          1365.59710	         1.22616e+58
          1366.40340	         1.15192e+58
          1367.20970	         9.24318e+57
          1368.01600	         9.02832e+57
          1368.82230	         9.87061e+57
          1369.62860	         1.20564e+58
          1370.43490	         1.17389e+58
          1371.24120	         9.81617e+57
          1372.04750	         9.93918e+57
          1372.85380	         1.16344e+58
          1373.66010	         1.20924e+58
          1374.46640	         1.17924e+58
          1375.27270	         1.07943e+58
          1376.07900	         8.92607e+57
          1376.88530	         9.28944e+57
          1377.69160	         8.58155e+57
          1378.49790	         6.50906e+57
          1379.30420	         7.44800e+57
          1380.11050	         9.85354e+57
          1380.91680	         1.00791e+58
          1381.72310	         8.83105e+57
          1382.52940	         8.36712e+57
          1383.33570	         8.65247e+57
          1384.14200	         1.04061e+58
          1384.94830	         1.12508e+58
          1385.75460	         1.11240e+58
          1386.56090	         1.10691e+58
          1387.36720	         9.00734e+57
          1388.17350	         1.12740e+58
          1388.97980	         1.21284e+58
          1389.78610	         1.06473e+58
          1390.59240	         9.20619e+57
          1391.39870	         7.89812e+57
          1392.20500	         9.03911e+57
          1393.01130	         8.42543e+57
          1393.81760	         7.52857e+57
          1394.62390	         7.45554e+57
          1395.43020	         6.26723e+57
          1396.23650	         6.35331e+57
          1397.04280	         6.28132e+57
          1397.84910	         7.55803e+57
          1398.65540	         9.08274e+57
          1399.46170	         9.86467e+57
          1400.26800	         8.95554e+57
          1401.07430	         7.50820e+57
          1401.88060	         8.48956e+57
          1402.68690	         8.75911e+57
          1403.49320	         8.44504e+57
          1404.29950	         9.19943e+57
          1405.10580	         1.12290e+58
          1405.91210	         1.09222e+58
          1406.71840	         9.90488e+57
          1407.52470	         9.83273e+57
          1408.33100	         1.00633e+58
          1409.13730	         1.20547e+58
          1409.94360	         1.18708e+58
          1410.74990	         1.07166e+58
          1411.55620	         9.73205e+57
          1412.36250	         1.02481e+58
          1413.16880	         1.02192e+58
          1413.97510	         8.99902e+57
          1414.78140	         8.61324e+57
          1415.58770	         1.01073e+58
          1416.39400	         1.05974e+58
          1417.20030	         9.51910e+57
          1418.00660	         8.45963e+57
          1418.81290	         9.89943e+57
          1419.61920	         1.13003e+58
          1420.42550	         1.21106e+58
          1421.23180	         1.35016e+58
          1422.03810	         1.16644e+58
          1422.84440	         1.06787e+58
          1423.65070	         1.18282e+58
          1424.45700	         1.20543e+58
          1425.26330	         1.06913e+58
          1426.06960	         9.10706e+57
          1426.87590	         9.58281e+57
          1427.68220	         1.05462e+58
          1428.48850	         1.06522e+58
          1429.29480	         1.10977e+58
          1430.10110	         1.06370e+58
          1430.90740	         8.94135e+57
          1431.71370	         9.45084e+57
          1432.52000	         8.78863e+57
          1433.32630	         7.20799e+57
          1434.13260	         7.90655e+57
          1434.93890	         8.13473e+57
          1435.74520	         8.70032e+57
          1436.55150	         9.33727e+57
          1437.35780	         8.48452e+57
          1438.16410	         8.53776e+57
          1438.97040	         8.53246e+57
          1439.77670	         9.21187e+57
          1440.58300	         9.98093e+57
          1441.38930	         9.19485e+57
          1442.19560	         8.83217e+57
          1443.00190	         1.06135e+58
          1443.80820	         1.16548e+58
          1444.61450	         8.95780e+57
          1445.42080	         7.54103e+57
          1446.22710	         9.33967e+57
          1447.03340	         1.02766e+58
          1447.83970	         1.04493e+58
          1448.64600	         9.77821e+57
          1449.45230	         9.31377e+57
          1450.25860	         9.68189e+57
          1451.06490	         8.50036e+57
          1451.87120	         7.56670e+57
          1452.67750	         6.87362e+57
          1453.48380	         7.25161e+57
          1454.29010	         7.59190e+57
          1455.09640	         8.18210e+57
          1455.90270	         9.74128e+57
          1456.70900	         9.78808e+57
          1457.51530	         9.99965e+57
          1458.32160	         1.13949e+58
          1459.12790	         1.05635e+58
          1459.93420	         8.85407e+57
          1460.74050	         8.49252e+57
          1461.54680	         8.83265e+57
          1462.35310	         8.76720e+57
          1463.15940	         8.85834e+57
          1463.96570	         9.91455e+57
          1464.77200	         1.14082e+58
          1465.57830	         1.18767e+58
          1466.38460	         1.00850e+58
          1467.19090	         8.27068e+57
          1467.99720	         9.86376e+57
          1468.80350	         1.04873e+58
          1469.60980	         1.05888e+58
          1470.41610	         1.15900e+58
          1471.22240	         1.00674e+58
          1472.02870	         9.64305e+57
          1472.83500	         9.60088e+57
          1473.64130	         1.00688e+58
          1474.44760	         1.03665e+58
          1475.25390	         1.04621e+58
          1476.06020	         8.96507e+57
          1476.86650	         8.18458e+57
          1477.67280	         8.58488e+57
          1478.47910	         7.53509e+57
          1479.28540	         6.12798e+57
          1480.09170	         8.06923e+57
          1480.89800	         9.36620e+57
          1481.70430	         8.11886e+57
          1482.51060	         8.48142e+57
          1483.31690	         7.85399e+57
          1484.12320	         6.24249e+57
          1484.92950	         6.98128e+57
          1485.73580	         8.23755e+57
          1486.54210	         8.36363e+57
          1487.34840	         9.56402e+57
          1488.15470	         8.82251e+57
          1488.96100	         7.74404e+57
          1489.76730	         8.21628e+57
