#sample_493_stacked_spectrum_rest_UV-bands_median_H-alpha_noDC.txt
#median Lum: 1.69657e+42
#Rest-frame wavelength (A) | Luminosity (erg/s/A)
#
          1110.00000	         0.00000e+00
          1110.80630	        -4.98139e+59
          1111.61260	        -1.91465e+59
          1112.41890	        -5.80487e+58
          1113.22520	        -5.20627e+58
          1114.03150	         6.80069e+58
          1114.83780	         1.80957e+58
          1115.64410	         1.37792e+58
          1116.45040	         1.06932e+59
          1117.25670	         8.23504e+58
          1118.06300	         1.96190e+59
          1118.86930	        -1.90766e+58
          1119.67560	         1.28809e+59
          1120.48190	        -2.49921e+58
          1121.28820	        -1.92149e+59
          1122.09450	         3.46721e+57
          1122.90080	        -1.32026e+58
          1123.70710	         1.09804e+58
          1124.51340	         1.03501e+59
          1125.31970	         6.01723e+58
          1126.12600	         1.56390e+58
          1126.93230	        -4.40787e+58
          1127.73860	        -1.14288e+59
          1128.54490	        -6.77475e+58
          1129.35120	        -2.28213e+58
          1130.15750	        -5.94596e+58
          1130.96380	        -6.67731e+57
          1131.77010	         7.54910e+58
          1132.57640	         4.18590e+58
          1133.38270	         5.44369e+58
          1134.18900	         2.06594e+58
          1134.99530	         1.21100e+58
          1135.80160	         3.87170e+58
          1136.60790	         1.82633e+58
          1137.41420	        -1.70343e+58
          1138.22050	         4.82107e+58
          1139.02680	         2.29279e+58
          1139.83310	         1.13219e+58
          1140.63940	         2.25495e+58
          1141.44570	        -7.39799e+57
          1142.25200	        -9.42026e+57
          1143.05830	         2.67800e+58
          1143.86460	         4.09426e+58
          1144.67090	         3.81583e+58
          1145.47720	         1.28836e+58
          1146.28350	         1.43664e+58
          1147.08980	         9.45142e+57
          1147.89610	         1.79022e+58
          1148.70240	         2.74520e+58
          1149.50870	         3.71923e+58
          1150.31500	         1.98162e+58
          1151.12130	         7.13096e+57
          1151.92760	         5.30447e+55
          1152.73390	        -5.63887e+56
          1153.54020	         9.48226e+57
          1154.34650	         2.58095e+58
          1155.15280	         3.03794e+58
          1155.95910	         1.12778e+58
          1156.76540	         1.83331e+57
          1157.57170	        -9.78814e+57
          1158.37800	         1.46592e+57
          1159.18430	         5.17409e+57
          1159.99060	         4.45635e+57
          1160.79690	         9.20106e+57
          1161.60320	         1.10118e+58
          1162.40950	         1.24038e+58
          1163.21580	         1.99016e+58
          1164.02210	         1.98469e+58
          1164.82840	         7.22014e+57
          1165.63470	         1.48903e+58
          1166.44100	         2.77760e+58
          1167.24730	         2.35274e+58
          1168.05360	         8.43488e+57
          1168.85990	         1.16768e+58
          1169.66620	         1.30568e+58
          1170.47250	         5.53877e+57
          1171.27880	        -1.23332e+57
          1172.08510	         1.97051e+58
          1172.89140	         2.12577e+58
          1173.69770	         3.49269e+57
          1174.50400	         8.68305e+57
          1175.31030	         1.76297e+58
          1176.11660	         2.02516e+58
          1176.92290	         2.03062e+58
          1177.72920	         1.29457e+58
          1178.53550	         3.85626e+57
          1179.34180	         5.25489e+56
          1180.14810	         1.16106e+58
          1180.95440	         1.14756e+58
          1181.76070	         8.10696e+57
          1182.56700	         1.07162e+58
          1183.37330	         6.89624e+57
          1184.17960	         1.32673e+58
          1184.98590	         1.18450e+58
          1185.79220	         5.09711e+57
          1186.59850	         5.05503e+57
          1187.40480	         7.80406e+57
          1188.21110	         1.49532e+58
          1189.01740	         8.72784e+57
          1189.82370	         1.04453e+58
          1190.63000	         8.54962e+57
          1191.43630	         7.36790e+57
          1192.24260	         1.04001e+58
          1193.04890	         1.16783e+58
          1193.85520	         7.93517e+57
          1194.66150	         8.74839e+57
          1195.46780	         1.26601e+58
          1196.27410	         1.41969e+58
          1197.08040	         1.24968e+58
          1197.88670	         1.62774e+58
          1198.69300	         1.09583e+58
          1199.49930	         1.17299e+58
          1200.30560	         1.46169e+58
          1201.11190	         1.29497e+58
          1201.91820	         1.32681e+58
          1202.72450	         1.02994e+58
          1203.53080	         1.43267e+58
          1204.33710	         6.88436e+57
          1205.14340	         8.99880e+57
          1205.94970	         7.82619e+57
          1206.75600	         7.90052e+57
          1207.56230	         5.59677e+57
          1208.36860	         9.52640e+57
          1209.17490	         6.47821e+57
          1209.98120	         5.96923e+57
          1210.78750	         5.15406e+57
          1211.59380	         8.22791e+57
          1212.40010	         1.69019e+58
          1213.20640	         2.32630e+58
          1214.01270	         2.57935e+58
          1214.81900	         3.23182e+58
          1215.62530	         4.76683e+58
          1216.43160	         9.25980e+58
          1217.23790	         1.52350e+59
          1218.04420	         1.14997e+59
          1218.85050	         8.41507e+58
          1219.65680	         5.58137e+58
          1220.46310	         3.56424e+58
          1221.26940	         2.27621e+58
          1222.07570	         1.23022e+58
          1222.88200	         9.51705e+57
          1223.68830	         1.10395e+58
          1224.49460	         1.12621e+58
          1225.30090	         7.04493e+57
          1226.10720	         6.48302e+57
          1226.91350	         7.13553e+57
          1227.71980	         6.77551e+57
          1228.52610	         8.00228e+57
          1229.33240	         1.02322e+58
          1230.13870	         1.00277e+58
          1230.94500	         1.04701e+58
          1231.75130	         7.75075e+57
          1232.55760	         6.92757e+57
          1233.36390	         7.45209e+57
          1234.17020	         9.24579e+57
          1234.97650	         8.05491e+57
          1235.78280	         8.85993e+57
          1236.58910	         9.59385e+57
          1237.39540	         1.03080e+58
          1238.20170	         1.09819e+58
          1239.00800	         1.23584e+58
          1239.81430	         1.40855e+58
          1240.62060	         1.02843e+58
          1241.42690	         1.11412e+58
          1242.23320	         1.42182e+58
          1243.03950	         8.95689e+57
          1243.84580	         8.83188e+57
          1244.65210	         1.07345e+58
          1245.45840	         1.09527e+58
          1246.26470	         8.43627e+57
          1247.07100	         5.58408e+57
          1247.87730	         5.71898e+57
          1248.68360	         6.33589e+57
          1249.48990	         1.15627e+58
          1250.29620	         8.88720e+57
          1251.10250	         4.60425e+57
          1251.90880	         5.69321e+57
          1252.71510	         3.82822e+57
          1253.52140	         6.91436e+57
          1254.32770	         9.96948e+57
          1255.13400	         1.22428e+58
          1255.94030	         1.07735e+58
          1256.74660	         8.63509e+57
          1257.55290	         8.40052e+57
          1258.35920	         5.32862e+57
          1259.16550	         4.81649e+57
          1259.97180	         6.12339e+57
          1260.77810	         8.41762e+57
          1261.58440	         1.20395e+58
          1262.39070	         1.07832e+58
          1263.19700	         9.48798e+57
          1264.00330	         8.16493e+57
          1264.80960	         9.04310e+57
          1265.61590	         1.20014e+58
          1266.42220	         1.23345e+58
          1267.22850	         9.47080e+57
          1268.03480	         1.19581e+58
          1268.84110	         1.46514e+58
          1269.64740	         1.24727e+58
          1270.45370	         1.29577e+58
          1271.26000	         1.18288e+58
          1272.06630	         1.18299e+58
          1272.87260	         1.20244e+58
          1273.67890	         1.12528e+58
          1274.48520	         9.71228e+57
          1275.29150	         1.06106e+58
          1276.09780	         1.00403e+58
          1276.90410	         1.47174e+58
          1277.71040	         1.36294e+58
          1278.51670	         1.13480e+58
          1279.32300	         1.33516e+58
          1280.12930	         1.39825e+58
          1280.93560	         1.20059e+58
          1281.74190	         1.32620e+58
          1282.54820	         1.44720e+58
          1283.35450	         1.06737e+58
          1284.16080	         1.07756e+58
          1284.96710	         1.43720e+58
          1285.77340	         1.18768e+58
          1286.57970	         1.04556e+58
          1287.38600	         1.49751e+58
          1288.19230	         1.84110e+58
          1288.99860	         1.49735e+58
          1289.80490	         8.84436e+57
          1290.61120	         1.20055e+58
          1291.41750	         1.41205e+58
          1292.22380	         1.21146e+58
          1293.03010	         1.10289e+58
          1293.83640	         1.27644e+58
          1294.64270	         1.15762e+58
          1295.44900	         7.18399e+57
          1296.25530	         8.25751e+57
          1297.06160	         9.85811e+57
          1297.86790	         9.17074e+57
          1298.67420	         7.73788e+57
          1299.48050	         8.52565e+57
          1300.28680	         9.41898e+57
          1301.09310	         7.94978e+57
          1301.89940	         5.24584e+57
          1302.70570	         6.98548e+57
          1303.51200	         8.25222e+57
          1304.31830	         9.84613e+57
          1305.12460	         1.09812e+58
          1305.93090	         1.13103e+58
          1306.73720	         1.26402e+58
          1307.54350	         1.35379e+58
          1308.34980	         1.30788e+58
          1309.15610	         1.38828e+58
          1309.96240	         1.37396e+58
          1310.76870	         1.44111e+58
          1311.57500	         1.39948e+58
          1312.38130	         8.69279e+57
          1313.18760	         1.02456e+58
          1313.99390	         1.43959e+58
          1314.80020	         1.68869e+58
          1315.60650	         1.62801e+58
          1316.41280	         1.34220e+58
          1317.21910	         1.04237e+58
          1318.02540	         1.14618e+58
          1318.83170	         1.18051e+58
          1319.63800	         1.13200e+58
          1320.44430	         1.10861e+58
          1321.25060	         1.32951e+58
          1322.05690	         1.39036e+58
          1322.86320	         1.31396e+58
          1323.66950	         1.17147e+58
          1324.47580	         9.21373e+57
          1325.28210	         8.94598e+57
          1326.08840	         9.76721e+57
          1326.89470	         1.16919e+58
          1327.70100	         1.19552e+58
          1328.50730	         1.04451e+58
          1329.31360	         1.01393e+58
          1330.11990	         9.91952e+57
          1330.92620	         9.58015e+57
          1331.73250	         1.22305e+58
          1332.53880	         1.12288e+58
          1333.34510	         8.28652e+57
          1334.15140	         8.30881e+57
          1334.95770	         9.18115e+57
          1335.76400	         1.09443e+58
          1336.57030	         1.01274e+58
          1337.37660	         9.96932e+57
          1338.18290	         1.21777e+58
          1338.98920	         1.20289e+58
          1339.79550	         1.10230e+58
          1340.60180	         1.20145e+58
          1341.40810	         1.38506e+58
          1342.21440	         1.22178e+58
          1343.02070	         1.16943e+58
          1343.82700	         1.44580e+58
          1344.63330	         1.39565e+58
          1345.43960	         1.28451e+58
          1346.24590	         1.08381e+58
          1347.05220	         1.23679e+58
          1347.85850	         1.15306e+58
          1348.66480	         1.06943e+58
          1349.47110	         1.26749e+58
          1350.27740	         1.15180e+58
          1351.08370	         1.17906e+58
          1351.89000	         1.16740e+58
          1352.69630	         1.10698e+58
          1353.50260	         1.10814e+58
          1354.30890	         1.15334e+58
          1355.11520	         1.25969e+58
          1355.92150	         1.12095e+58
          1356.72780	         1.09455e+58
          1357.53410	         1.17080e+58
          1358.34040	         1.05597e+58
          1359.14670	         1.00153e+58
          1359.95300	         1.10303e+58
          1360.75930	         1.08770e+58
          1361.56560	         9.37131e+57
          1362.37190	         9.91773e+57
          1363.17820	         1.03954e+58
          1363.98450	         1.07985e+58
          1364.79080	         1.38293e+58
          1365.59710	         1.37160e+58
          1366.40340	         1.31361e+58
          1367.20970	         1.11771e+58
          1368.01600	         1.07520e+58
          1368.82230	         9.79563e+57
          1369.62860	         9.99730e+57
          1370.43490	         1.02211e+58
          1371.24120	         9.09680e+57
          1372.04750	         8.82167e+57
          1372.85380	         1.12107e+58
          1373.66010	         1.17521e+58
          1374.46640	         1.12652e+58
          1375.27270	         1.09556e+58
          1376.07900	         9.19540e+57
          1376.88530	         7.94688e+57
          1377.69160	         8.77630e+57
          1378.49790	         7.54155e+57
          1379.30420	         8.12915e+57
          1380.11050	         1.01535e+58
          1380.91680	         8.98744e+57
          1381.72310	         8.21842e+57
          1382.52940	         9.92983e+57
          1383.33570	         1.02541e+58
          1384.14200	         1.05556e+58
          1384.94830	         1.07323e+58
          1385.75460	         9.63483e+57
          1386.56090	         9.11729e+57
          1387.36720	         1.06452e+58
          1388.17350	         1.41570e+58
          1388.97980	         1.00530e+58
          1389.78610	         6.91669e+57
          1390.59240	         7.61769e+57
          1391.39870	         7.61230e+57
          1392.20500	         8.05959e+57
          1393.01130	         7.18866e+57
          1393.81760	         7.16964e+57
          1394.62390	         8.11073e+57
          1395.43020	         5.93674e+57
          1396.23650	         5.70175e+57
          1397.04280	         5.99311e+57
          1397.84910	         7.33689e+57
          1398.65540	         8.83203e+57
          1399.46170	         9.52019e+57
          1400.26800	         8.29309e+57
          1401.07430	         7.92095e+57
          1401.88060	         8.48647e+57
          1402.68690	         8.47647e+57
          1403.49320	         7.54752e+57
          1404.29950	         9.17425e+57
          1405.10580	         1.13496e+58
          1405.91210	         1.08706e+58
          1406.71840	         1.11280e+58
          1407.52470	         1.20007e+58
          1408.33100	         1.08401e+58
          1409.13730	         1.10500e+58
          1409.94360	         1.15055e+58
          1410.74990	         1.09938e+58
          1411.55620	         9.41839e+57
          1412.36250	         8.47795e+57
          1413.16880	         8.42202e+57
          1413.97510	         7.98753e+57
          1414.78140	         7.95650e+57
          1415.58770	         9.10063e+57
          1416.39400	         9.43653e+57
          1417.20030	         1.07980e+58
          1418.00660	         1.01915e+58
          1418.81290	         1.08362e+58
          1419.61920	         1.08278e+58
          1420.42550	         1.36351e+58
          1421.23180	         1.49431e+58
          1422.03810	         1.27311e+58
          1422.84440	         1.06385e+58
          1423.65070	         1.16931e+58
          1424.45700	         1.08159e+58
          1425.26330	         9.45292e+57
          1426.06960	         1.04143e+58
          1426.87590	         1.17495e+58
          1427.68220	         1.03972e+58
          1428.48850	         1.16533e+58
          1429.29480	         1.21088e+58
          1430.10110	         1.01961e+58
          1430.90740	         8.32712e+57
          1431.71370	         8.76638e+57
          1432.52000	         8.54060e+57
          1433.32630	         7.11043e+57
          1434.13260	         7.46379e+57
          1434.93890	         7.63948e+57
          1435.74520	         8.76510e+57
          1436.55150	         1.00998e+58
          1437.35780	         8.70361e+57
          1438.16410	         8.82364e+57
          1438.97040	         8.96784e+57
          1439.77670	         9.23374e+57
          1440.58300	         1.04231e+58
          1441.38930	         1.03791e+58
          1442.19560	         1.01428e+58
          1443.00190	         1.02190e+58
          1443.80820	         1.07470e+58
          1444.61450	         1.09433e+58
          1445.42080	         9.05424e+57
          1446.22710	         1.01729e+58
          1447.03340	         1.14127e+58
          1447.83970	         1.10242e+58
          1448.64600	         1.01196e+58
          1449.45230	         9.06447e+57
          1450.25860	         9.27427e+57
          1451.06490	         7.62597e+57
          1451.87120	         6.92264e+57
          1452.67750	         6.43875e+57
          1453.48380	         8.42367e+57
          1454.29010	         9.19563e+57
          1455.09640	         8.19421e+57
          1455.90270	         8.18450e+57
          1456.70900	         7.89529e+57
          1457.51530	         8.94198e+57
          1458.32160	         1.15287e+58
          1459.12790	         1.21286e+58
          1459.93420	         1.17249e+58
          1460.74050	         9.26173e+57
          1461.54680	         7.37397e+57
          1462.35310	         8.10687e+57
          1463.15940	         8.64420e+57
          1463.96570	         1.13071e+58
          1464.77200	         1.31338e+58
          1465.57830	         1.20223e+58
          1466.38460	         1.02466e+58
          1467.19090	         8.76822e+57
          1467.99720	         7.89038e+57
          1468.80350	         8.77945e+57
          1469.60980	         9.75545e+57
          1470.41610	         1.06427e+58
          1471.22240	         8.56022e+57
          1472.02870	         8.46311e+57
          1472.83500	         9.44217e+57
          1473.64130	         8.86559e+57
          1474.44760	         9.91561e+57
          1475.25390	         1.00629e+58
          1476.06020	         8.56889e+57
          1476.86650	         7.77870e+57
          1477.67280	         7.17484e+57
          1478.47910	         6.19517e+57
          1479.28540	         6.36009e+57
          1480.09170	         8.52914e+57
          1480.89800	         7.97002e+57
          1481.70430	         7.80747e+57
          1482.51060	         8.00353e+57
          1483.31690	         7.24713e+57
          1484.12320	         6.88322e+57
          1484.92950	         8.36539e+57
          1485.73580	         8.94280e+57
          1486.54210	         9.31111e+57
          1487.34840	         1.04292e+58
          1488.15470	         9.47487e+57
          1488.96100	         8.79390e+57
          1489.76730	         8.71388e+57
