#sample_117_stacked_spectrum_rest_UV-bands_median_H-alpha_noDC.txt
#median Lum: 1.71355e+42
#Rest-frame wavelength (A) | Luminosity (erg/s/A)
#
          1110.00000	         0.00000e+00
          1110.80630	        -5.67571e+59
          1111.61260	         8.99293e+57
          1112.41890	         4.48978e+58
          1113.22520	        -1.07364e+59
          1114.03150	        -1.37903e+59
          1114.83780	         1.92504e+59
          1115.64410	        -4.48438e+58
          1116.45040	         2.45866e+59
          1117.25670	         1.72540e+59
          1118.06300	         1.71629e+59
          1118.86930	         5.27990e+58
          1119.67560	         1.38708e+59
          1120.48190	         3.33883e+58
          1121.28820	        -2.16858e+59
          1122.09450	        -9.15741e+58
          1122.90080	        -8.08906e+58
          1123.70710	         2.21399e+58
          1124.51340	        -1.03527e+58
          1125.31970	        -1.92411e+58
          1126.12600	        -2.37478e+58
          1126.93230	        -5.50267e+58
          1127.73860	        -5.99463e+58
          1128.54490	        -4.99987e+57
          1129.35120	         3.52207e+57
          1130.15750	        -4.02548e+58
          1130.96380	        -3.55596e+58
          1131.77010	         8.77117e+57
          1132.57640	         6.21134e+58
          1133.38270	         5.11340e+58
          1134.18900	         4.39453e+58
          1134.99530	         3.58662e+58
          1135.80160	         3.86518e+58
          1136.60790	         2.85938e+58
          1137.41420	        -1.39415e+58
          1138.22050	         3.54494e+58
          1139.02680	         4.24240e+58
          1139.83310	         2.49564e+58
          1140.63940	         3.08257e+58
          1141.44570	         2.19332e+56
          1142.25200	        -9.06639e+57
          1143.05830	         1.59939e+58
          1143.86460	         1.86348e+58
          1144.67090	         2.38123e+58
          1145.47720	         1.23301e+58
          1146.28350	         1.09723e+58
          1147.08980	         2.00235e+58
          1147.89610	         8.34099e+57
          1148.70240	         1.94138e+58
          1149.50870	         1.86043e+58
          1150.31500	         6.86250e+57
          1151.12130	         6.76427e+57
          1151.92760	         6.81112e+56
          1152.73390	         3.21049e+57
          1153.54020	         5.84511e+57
          1154.34650	         3.47466e+58
          1155.15280	         1.77241e+58
          1155.95910	         1.46472e+58
          1156.76540	         9.12440e+57
          1157.57170	         3.34070e+57
          1158.37800	         1.41276e+57
          1159.18430	         7.07829e+57
          1159.99060	         1.12360e+58
          1160.79690	         1.71270e+57
          1161.60320	         1.29408e+57
          1162.40950	         2.41921e+58
          1163.21580	         2.00902e+58
          1164.02210	         8.65331e+57
          1164.82840	         1.30557e+58
          1165.63470	         2.48083e+58
          1166.44100	         2.11185e+58
          1167.24730	         1.80306e+58
          1168.05360	         1.01813e+58
          1168.85990	        -1.06881e+57
          1169.66620	         1.75713e+57
          1170.47250	         1.46622e+58
          1171.27880	         1.77764e+58
          1172.08510	         1.95641e+58
          1172.89140	         1.46806e+58
          1173.69770	         7.04097e+57
          1174.50400	         1.07974e+58
          1175.31030	         1.74874e+58
          1176.11660	         2.05530e+58
          1176.92290	         1.53573e+58
          1177.72920	         9.26083e+57
          1178.53550	         1.01287e+58
          1179.34180	         5.98518e+57
          1180.14810	         1.08593e+58
          1180.95440	         1.05449e+58
          1181.76070	         3.81594e+57
          1182.56700	         7.07104e+57
          1183.37330	         8.84351e+57
          1184.17960	         1.21756e+58
          1184.98590	         1.22361e+58
          1185.79220	         1.10125e+58
          1186.59850	         1.55581e+58
          1187.40480	         1.32638e+58
          1188.21110	         1.08031e+58
          1189.01740	         1.04150e+58
          1189.82370	         1.78374e+58
          1190.63000	         1.44363e+58
          1191.43630	         1.28395e+58
          1192.24260	         8.23314e+57
          1193.04890	         1.13428e+58
          1193.85520	         1.12273e+58
          1194.66150	         8.59842e+57
          1195.46780	         1.13639e+58
          1196.27410	         1.57410e+58
          1197.08040	         1.10052e+58
          1197.88670	         1.47592e+58
          1198.69300	         1.43824e+58
          1199.49930	         1.43655e+58
          1200.30560	         9.76067e+57
          1201.11190	         8.56400e+57
          1201.91820	         1.23102e+58
          1202.72450	         5.19179e+57
          1203.53080	         1.61366e+58
          1204.33710	         1.25161e+58
          1205.14340	         5.48041e+57
          1205.94970	         7.63144e+57
          1206.75600	         1.15173e+58
          1207.56230	         7.37633e+57
          1208.36860	         9.86155e+57
          1209.17490	         3.97983e+56
          1209.98120	         4.15166e+57
          1210.78750	         8.63516e+57
          1211.59380	         1.17449e+58
          1212.40010	         1.92609e+58
          1213.20640	         2.00795e+58
          1214.01270	         2.32234e+58
          1214.81900	         2.90453e+58
          1215.62530	         4.80446e+58
          1216.43160	         9.25988e+58
          1217.23790	         1.47464e+59
          1218.04420	         1.20194e+59
          1218.85050	         8.98586e+58
          1219.65680	         6.08774e+58
          1220.46310	         3.37067e+58
          1221.26940	         2.37099e+58
          1222.07570	         1.38382e+58
          1222.88200	         8.38426e+57
          1223.68830	         1.06737e+58
          1224.49460	         8.41527e+57
          1225.30090	         6.97602e+57
          1226.10720	         6.75660e+57
          1226.91350	         5.31710e+57
          1227.71980	         6.81026e+57
          1228.52610	         1.30492e+58
          1229.33240	         9.80324e+57
          1230.13870	         7.19528e+57
          1230.94500	         7.84826e+57
          1231.75130	         5.93914e+57
          1232.55760	         1.17987e+58
          1233.36390	         1.29984e+58
          1234.17020	         7.81948e+57
          1234.97650	         7.03213e+57
          1235.78280	         5.91388e+57
          1236.58910	         8.14106e+57
          1237.39540	         9.30242e+57
          1238.20170	         7.80243e+57
          1239.00800	         1.16216e+58
          1239.81430	         1.69280e+58
          1240.62060	         1.39255e+58
          1241.42690	         1.27636e+58
          1242.23320	         1.33538e+58
          1243.03950	         8.75927e+57
          1243.84580	         7.73559e+57
          1244.65210	         1.01269e+58
          1245.45840	         1.09409e+58
          1246.26470	         8.68459e+57
          1247.07100	         7.20820e+57
          1247.87730	         6.37213e+57
          1248.68360	         4.07385e+57
          1249.48990	         7.51776e+57
          1250.29620	         1.04806e+58
          1251.10250	         9.71978e+57
          1251.90880	         8.21178e+57
          1252.71510	         8.04612e+57
          1253.52140	         8.19102e+57
          1254.32770	         9.59757e+57
          1255.13400	         1.33092e+58
          1255.94030	         1.20927e+58
          1256.74660	         1.14785e+58
          1257.55290	         1.20511e+58
          1258.35920	         7.99027e+57
          1259.16550	         4.70032e+57
          1259.97180	         7.04386e+57
          1260.77810	         1.07853e+58
          1261.58440	         1.21160e+58
          1262.39070	         8.60786e+57
          1263.19700	         6.63402e+57
          1264.00330	         8.06990e+57
          1264.80960	         1.13253e+58
          1265.61590	         1.24158e+58
          1266.42220	         1.24871e+58
          1267.22850	         9.60241e+57
          1268.03480	         1.30725e+58
          1268.84110	         1.38861e+58
          1269.64740	         1.21361e+58
          1270.45370	         1.43537e+58
          1271.26000	         1.39918e+58
          1272.06630	         1.22403e+58
          1272.87260	         1.20798e+58
          1273.67890	         1.03073e+58
          1274.48520	         1.25118e+58
          1275.29150	         1.35072e+58
          1276.09780	         1.25609e+58
          1276.90410	         1.63844e+58
          1277.71040	         1.31553e+58
          1278.51670	         1.08077e+58
          1279.32300	         1.30079e+58
          1280.12930	         1.36407e+58
          1280.93560	         1.41077e+58
          1281.74190	         1.32985e+58
          1282.54820	         1.15399e+58
          1283.35450	         9.51530e+57
          1284.16080	         1.06829e+58
          1284.96710	         1.37459e+58
          1285.77340	         1.27991e+58
          1286.57970	         1.09862e+58
          1287.38600	         1.41112e+58
          1288.19230	         1.79577e+58
          1288.99860	         1.78733e+58
          1289.80490	         1.15595e+58
          1290.61120	         1.21736e+58
          1291.41750	         1.52993e+58
          1292.22380	         1.42817e+58
          1293.03010	         1.27894e+58
          1293.83640	         1.47598e+58
          1294.64270	         1.18295e+58
          1295.44900	         6.88239e+57
          1296.25530	         7.94989e+57
          1297.06160	         1.11457e+58
          1297.86790	         1.05950e+58
          1298.67420	         8.49072e+57
          1299.48050	         9.08127e+57
          1300.28680	         1.02036e+58
          1301.09310	         7.88378e+57
          1301.89940	         4.99917e+57
          1302.70570	         6.20357e+57
          1303.51200	         8.85463e+57
          1304.31830	         1.21891e+58
          1305.12460	         1.10963e+58
          1305.93090	         9.87575e+57
          1306.73720	         1.27456e+58
          1307.54350	         1.57988e+58
          1308.34980	         1.40095e+58
          1309.15610	         1.44693e+58
          1309.96240	         1.66533e+58
          1310.76870	         1.38024e+58
          1311.57500	         1.23263e+58
          1312.38130	         1.19946e+58
          1313.18760	         1.27458e+58
          1313.99390	         1.75308e+58
          1314.80020	         1.68062e+58
          1315.60650	         1.67474e+58
          1316.41280	         1.32765e+58
          1317.21910	         1.23979e+58
          1318.02540	         1.16954e+58
          1318.83170	         1.22046e+58
          1319.63800	         1.11078e+58
          1320.44430	         1.21288e+58
          1321.25060	         1.46718e+58
          1322.05690	         1.32161e+58
          1322.86320	         1.17183e+58
          1323.66950	         1.12664e+58
          1324.47580	         1.02141e+58
          1325.28210	         1.03561e+58
          1326.08840	         1.27515e+58
          1326.89470	         1.34825e+58
          1327.70100	         1.05027e+58
          1328.50730	         8.08904e+57
          1329.31360	         9.52028e+57
          1330.11990	         1.06848e+58
          1330.92620	         9.32305e+57
          1331.73250	         1.11426e+58
          1332.53880	         1.03411e+58
          1333.34510	         8.91353e+57
          1334.15140	         1.06817e+58
          1334.95770	         1.00804e+58
          1335.76400	         9.79606e+57
          1336.57030	         1.12153e+58
          1337.37660	         1.25440e+58
          1338.18290	         1.25820e+58
          1338.98920	         1.20925e+58
          1339.79550	         1.13437e+58
          1340.60180	         1.24574e+58
          1341.40810	         1.38017e+58
          1342.21440	         1.12738e+58
          1343.02070	         1.18970e+58
          1343.82700	         1.41902e+58
          1344.63330	         1.33874e+58
          1345.43960	         1.30139e+58
          1346.24590	         1.29081e+58
          1347.05220	         1.35288e+58
          1347.85850	         1.15636e+58
          1348.66480	         1.10141e+58
          1349.47110	         1.29409e+58
          1350.27740	         1.31809e+58
          1351.08370	         1.14661e+58
          1351.89000	         1.20931e+58
          1352.69630	         1.17139e+58
          1353.50260	         1.10021e+58
          1354.30890	         1.14459e+58
          1355.11520	         1.27412e+58
          1355.92150	         1.15946e+58
          1356.72780	         1.04819e+58
          1357.53410	         1.06148e+58
          1358.34040	         1.24962e+58
          1359.14670	         1.21886e+58
          1359.95300	         1.18140e+58
          1360.75930	         1.26079e+58
          1361.56560	         1.18193e+58
          1362.37190	         1.19259e+58
          1363.17820	         1.20172e+58
          1363.98450	         1.25374e+58
          1364.79080	         1.35157e+58
          1365.59710	         1.38771e+58
          1366.40340	         1.32380e+58
          1367.20970	         9.88295e+57
          1368.01600	         9.42950e+57
          1368.82230	         1.18231e+58
          1369.62860	         1.19632e+58
          1370.43490	         8.99901e+57
          1371.24120	         9.66782e+57
          1372.04750	         9.56065e+57
          1372.85380	         1.04030e+58
          1373.66010	         1.23189e+58
          1374.46640	         1.12730e+58
          1375.27270	         1.17056e+58
          1376.07900	         1.14143e+58
          1376.88530	         9.51069e+57
          1377.69160	         8.37741e+57
          1378.49790	         7.04611e+57
          1379.30420	         7.90430e+57
          1380.11050	         9.79552e+57
          1380.91680	         7.76183e+57
          1381.72310	         5.84075e+57
          1382.52940	         7.21600e+57
          1383.33570	         8.09923e+57
          1384.14200	         8.41241e+57
          1384.94830	         9.49085e+57
          1385.75460	         1.05723e+58
          1386.56090	         1.14455e+58
          1387.36720	         1.07727e+58
          1388.17350	         1.29980e+58
          1388.97980	         1.14162e+58
          1389.78610	         9.37479e+57
          1390.59240	         8.55961e+57
          1391.39870	         6.99062e+57
          1392.20500	         7.52837e+57
          1393.01130	         7.71200e+57
          1393.81760	         7.67272e+57
          1394.62390	         7.71589e+57
          1395.43020	         6.31871e+57
          1396.23650	         7.33349e+57
          1397.04280	         7.62108e+57
          1397.84910	         9.76299e+57
          1398.65540	         1.02392e+58
          1399.46170	         9.70114e+57
          1400.26800	         8.62722e+57
          1401.07430	         7.93775e+57
          1401.88060	         8.45269e+57
          1402.68690	         9.47275e+57
          1403.49320	         1.03114e+58
          1404.29950	         9.98472e+57
          1405.10580	         1.09705e+58
          1405.91210	         1.16508e+58
          1406.71840	         1.09013e+58
          1407.52470	         1.07361e+58
          1408.33100	         1.20921e+58
          1409.13730	         1.26223e+58
          1409.94360	         1.25605e+58
          1410.74990	         1.18400e+58
          1411.55620	         9.24920e+57
          1412.36250	         8.86482e+57
          1413.16880	         8.82503e+57
          1413.97510	         8.53081e+57
          1414.78140	         9.62636e+57
          1415.58770	         1.01472e+58
          1416.39400	         1.18086e+58
          1417.20030	         1.21298e+58
          1418.00660	         1.05972e+58
          1418.81290	         1.26518e+58
          1419.61920	         1.19611e+58
          1420.42550	         1.26350e+58
          1421.23180	         1.37030e+58
          1422.03810	         1.33995e+58
          1422.84440	         1.28483e+58
          1423.65070	         1.33229e+58
          1424.45700	         1.32696e+58
          1425.26330	         1.10706e+58
          1426.06960	         1.07788e+58
          1426.87590	         1.18249e+58
          1427.68220	         1.11013e+58
          1428.48850	         1.15085e+58
          1429.29480	         1.17951e+58
          1430.10110	         1.13098e+58
          1430.90740	         1.01246e+58
          1431.71370	         1.03564e+58
          1432.52000	         1.02059e+58
          1433.32630	         9.38555e+57
          1434.13260	         8.68921e+57
          1434.93890	         8.03349e+57
          1435.74520	         9.08458e+57
          1436.55150	         1.04898e+58
          1437.35780	         1.01895e+58
          1438.16410	         9.15475e+57
          1438.97040	         9.19644e+57
          1439.77670	         8.38749e+57
          1440.58300	         8.62317e+57
          1441.38930	         9.34956e+57
          1442.19560	         9.92847e+57
          1443.00190	         1.06149e+58
          1443.80820	         1.19359e+58
          1444.61450	         1.04761e+58
          1445.42080	         9.48372e+57
          1446.22710	         1.13890e+58
          1447.03340	         1.01860e+58
          1447.83970	         1.03276e+58
          1448.64600	         1.02084e+58
          1449.45230	         1.01919e+58
          1450.25860	         9.86571e+57
          1451.06490	         8.74018e+57
          1451.87120	         8.04046e+57
          1452.67750	         7.57674e+57
          1453.48380	         9.01147e+57
          1454.29010	         9.29261e+57
          1455.09640	         7.99875e+57
          1455.90270	         7.92942e+57
          1456.70900	         9.13557e+57
          1457.51530	         1.06018e+58
          1458.32160	         1.24818e+58
          1459.12790	         1.27535e+58
          1459.93420	         1.12348e+58
          1460.74050	         8.92201e+57
          1461.54680	         8.44755e+57
          1462.35310	         8.65422e+57
          1463.15940	         9.85271e+57
          1463.96570	         1.12964e+58
          1464.77200	         1.28281e+58
          1465.57830	         1.21686e+58
          1466.38460	         9.82494e+57
          1467.19090	         9.60079e+57
          1467.99720	         1.05588e+58
          1468.80350	         1.08510e+58
          1469.60980	         1.14448e+58
          1470.41610	         1.27023e+58
          1471.22240	         1.09465e+58
          1472.02870	         1.03155e+58
          1472.83500	         9.89823e+57
          1473.64130	         9.79312e+57
          1474.44760	         9.77195e+57
          1475.25390	         9.88645e+57
          1476.06020	         9.47936e+57
          1476.86650	         8.79086e+57
          1477.67280	         9.31456e+57
          1478.47910	         8.91839e+57
          1479.28540	         6.71833e+57
          1480.09170	         8.47258e+57
          1480.89800	         1.01299e+58
          1481.70430	         9.17010e+57
          1482.51060	         8.52817e+57
          1483.31690	         8.85528e+57
          1484.12320	         7.72934e+57
          1484.92950	         8.20776e+57
          1485.73580	         9.31467e+57
          1486.54210	         9.77524e+57
          1487.34840	         9.37549e+57
          1488.15470	         8.31075e+57
          1488.96100	         7.97290e+57
          1489.76730	         9.24579e+57
