#sample_418_stacked_spectrum_rest_UV-bands_median_H-alpha_noDC.txt
#median Lum: 1.70279e+42
#Rest-frame wavelength (A) | Luminosity (erg/s/A)
#
          1110.00000	         0.00000e+00
          1110.80630	         4.15006e+59
          1111.61260	         3.16593e+59
          1112.41890	         1.85970e+59
          1113.22520	        -5.60442e+58
          1114.03150	         2.97803e+58
          1114.83780	         9.79066e+58
          1115.64410	         1.66055e+56
          1116.45040	         1.35309e+59
          1117.25670	         9.14460e+58
          1118.06300	         1.64671e+59
          1118.86930	         5.19164e+58
          1119.67560	         1.56093e+59
          1120.48190	        -3.44281e+58
          1121.28820	        -1.86939e+59
          1122.09450	        -8.91881e+58
          1122.90080	         1.23798e+58
          1123.70710	         9.36786e+58
          1124.51340	         1.59342e+59
          1125.31970	         2.56319e+58
          1126.12600	         6.59030e+58
          1126.93230	        -7.92900e+58
          1127.73860	        -6.12951e+58
          1128.54490	        -5.78653e+57
          1129.35120	        -2.35184e+58
          1130.15750	        -3.35858e+58
          1130.96380	        -1.69661e+58
          1131.77010	         8.36272e+58
          1132.57640	         5.72252e+58
          1133.38270	         4.26820e+58
          1134.18900	         1.40125e+58
          1134.99530	         2.90948e+58
          1135.80160	         2.32111e+58
          1136.60790	         3.48623e+58
          1137.41420	         9.73256e+56
          1138.22050	         2.24596e+58
          1139.02680	         3.25052e+58
          1139.83310	         3.88504e+58
          1140.63940	         2.54440e+58
          1141.44570	        -1.23885e+58
          1142.25200	         1.58198e+57
          1143.05830	         2.60394e+58
          1143.86460	         2.33013e+58
          1144.67090	         2.48510e+58
          1145.47720	         7.25842e+57
          1146.28350	         1.74702e+58
          1147.08980	         1.54124e+58
          1147.89610	         1.92445e+58
          1148.70240	         2.78300e+58
          1149.50870	         3.34235e+58
          1150.31500	         1.17491e+58
          1151.12130	        -1.65384e+56
          1151.92760	         5.63758e+57
          1152.73390	         7.59410e+57
          1153.54020	        -4.59621e+57
          1154.34650	         1.77916e+58
          1155.15280	         2.40914e+58
          1155.95910	        -9.19767e+55
          1156.76540	        -8.06640e+57
          1157.57170	        -3.72209e+57
          1158.37800	         4.19653e+56
          1159.18430	         6.65342e+57
          1159.99060	         4.76666e+57
          1160.79690	         1.15904e+58
          1161.60320	         2.18346e+58
          1162.40950	         1.15660e+58
          1163.21580	         1.49002e+58
          1164.02210	         1.92383e+58
          1164.82840	         9.45142e+57
          1165.63470	         1.38238e+58
          1166.44100	         2.43600e+58
          1167.24730	         2.47695e+58
          1168.05360	         1.82616e+58
          1168.85990	         1.18187e+58
          1169.66620	         6.28820e+57
          1170.47250	         1.75440e+58
          1171.27880	         1.45666e+58
          1172.08510	         6.88626e+57
          1172.89140	         3.58584e+57
          1173.69770	         1.06873e+58
          1174.50400	         1.06453e+58
          1175.31030	         1.70344e+58
          1176.11660	         1.61437e+58
          1176.92290	         1.27829e+58
          1177.72920	         1.38675e+58
          1178.53550	         3.41505e+57
          1179.34180	        -3.76381e+57
          1180.14810	         2.17973e+57
          1180.95440	         1.09030e+58
          1181.76070	         7.34860e+57
          1182.56700	         5.24841e+57
          1183.37330	         8.66911e+57
          1184.17960	         1.76612e+58
          1184.98590	         1.68178e+58
          1185.79220	         1.16122e+58
          1186.59850	         1.09042e+58
          1187.40480	         1.14383e+58
          1188.21110	         1.41243e+58
          1189.01740	         8.17775e+57
          1189.82370	         1.39045e+58
          1190.63000	         6.80327e+57
          1191.43630	         6.70202e+57
          1192.24260	         8.82461e+57
          1193.04890	         1.16210e+58
          1193.85520	         1.27002e+58
          1194.66150	         2.42360e+57
          1195.46780	         9.12857e+57
          1196.27410	         1.07956e+58
          1197.08040	         8.13575e+57
          1197.88670	         1.77684e+58
          1198.69300	         1.37734e+58
          1199.49930	         1.68457e+58
          1200.30560	         1.46473e+58
          1201.11190	         1.07330e+58
          1201.91820	         9.94520e+57
          1202.72450	         8.93273e+57
          1203.53080	         1.45483e+58
          1204.33710	         9.60580e+57
          1205.14340	         5.15552e+57
          1205.94970	         4.51449e+57
          1206.75600	         4.48369e+57
          1207.56230	         8.24847e+57
          1208.36860	         9.59042e+57
          1209.17490	         4.85916e+57
          1209.98120	         3.26941e+57
          1210.78750	         7.29800e+57
          1211.59380	         1.28715e+58
          1212.40010	         1.71688e+58
          1213.20640	         2.35289e+58
          1214.01270	         2.37054e+58
          1214.81900	         2.55149e+58
          1215.62530	         4.51591e+58
          1216.43160	         9.28614e+58
          1217.23790	         1.53239e+59
          1218.04420	         1.14880e+59
          1218.85050	         8.89726e+58
          1219.65680	         6.27447e+58
          1220.46310	         3.37547e+58
          1221.26940	         1.88459e+58
          1222.07570	         1.15224e+58
          1222.88200	         9.98424e+57
          1223.68830	         7.87580e+57
          1224.49460	         6.55447e+57
          1225.30090	         4.08837e+57
          1226.10720	         5.08195e+57
          1226.91350	         5.79408e+57
          1227.71980	         6.90652e+57
          1228.52610	         1.10053e+58
          1229.33240	         6.32725e+57
          1230.13870	         5.76683e+57
          1230.94500	         3.98725e+57
          1231.75130	         5.18915e+57
          1232.55760	         9.65030e+57
          1233.36390	         1.07427e+58
          1234.17020	         8.23857e+57
          1234.97650	         8.19102e+57
          1235.78280	         6.92655e+57
          1236.58910	         9.00365e+57
          1237.39540	         1.24939e+58
          1238.20170	         1.35578e+58
          1239.00800	         1.44604e+58
          1239.81430	         1.56387e+58
          1240.62060	         1.14971e+58
          1241.42690	         1.04762e+58
          1242.23320	         1.36118e+58
          1243.03950	         9.11903e+57
          1243.84580	         6.00378e+57
          1244.65210	         9.88892e+57
          1245.45840	         1.21530e+58
          1246.26470	         9.35237e+57
          1247.07100	         5.79286e+57
          1247.87730	         4.42462e+57
          1248.68360	         4.03570e+57
          1249.48990	         6.74973e+57
          1250.29620	         8.65209e+57
          1251.10250	         7.91597e+57
          1251.90880	         6.67452e+57
          1252.71510	         7.18098e+57
          1253.52140	         8.43915e+57
          1254.32770	         8.58838e+57
          1255.13400	         1.38991e+58
          1255.94030	         1.40855e+58
          1256.74660	         1.23407e+58
          1257.55290	         1.28843e+58
          1258.35920	         1.06458e+58
          1259.16550	         4.71959e+57
          1259.97180	         5.36041e+57
          1260.77810	         9.10485e+57
          1261.58440	         1.19300e+58
          1262.39070	         1.01573e+58
          1263.19700	         8.74132e+57
          1264.00330	         9.78082e+57
          1264.80960	         1.07745e+58
          1265.61590	         1.32958e+58
          1266.42220	         1.44594e+58
          1267.22850	         1.16748e+58
          1268.03480	         1.35953e+58
          1268.84110	         1.46355e+58
          1269.64740	         1.22240e+58
          1270.45370	         1.21359e+58
          1271.26000	         1.06591e+58
          1272.06630	         1.16666e+58
          1272.87260	         1.26257e+58
          1273.67890	         1.14007e+58
          1274.48520	         1.05805e+58
          1275.29150	         1.26415e+58
          1276.09780	         1.24040e+58
          1276.90410	         1.47889e+58
          1277.71040	         1.27957e+58
          1278.51670	         1.03331e+58
          1279.32300	         1.24968e+58
          1280.12930	         1.24887e+58
          1280.93560	         1.28569e+58
          1281.74190	         1.35447e+58
          1282.54820	         1.34282e+58
          1283.35450	         8.55570e+57
          1284.16080	         8.72014e+57
          1284.96710	         1.25104e+58
          1285.77340	         1.05616e+58
          1286.57970	         1.11778e+58
          1287.38600	         1.48382e+58
          1288.19230	         1.66748e+58
          1288.99860	         1.65349e+58
          1289.80490	         1.18639e+58
          1290.61120	         1.28488e+58
          1291.41750	         1.49816e+58
          1292.22380	         1.17965e+58
          1293.03010	         1.05006e+58
          1293.83640	         1.15632e+58
          1294.64270	         9.59063e+57
          1295.44900	         6.22100e+57
          1296.25530	         7.96559e+57
          1297.06160	         9.98736e+57
          1297.86790	         9.64764e+57
          1298.67420	         1.05430e+58
          1299.48050	         1.10300e+58
          1300.28680	         1.13776e+58
          1301.09310	         9.77985e+57
          1301.89940	         4.59462e+57
          1302.70570	         5.32223e+57
          1303.51200	         7.77018e+57
          1304.31830	         1.06190e+58
          1305.12460	         1.21251e+58
          1305.93090	         1.27071e+58
          1306.73720	         1.37492e+58
          1307.54350	         1.33923e+58
          1308.34980	         1.35674e+58
          1309.15610	         1.58284e+58
          1309.96240	         1.65337e+58
          1310.76870	         1.30803e+58
          1311.57500	         1.02807e+58
          1312.38130	         1.00631e+58
          1313.18760	         1.32831e+58
          1313.99390	         1.58542e+58
          1314.80020	         1.58468e+58
          1315.60650	         1.51444e+58
          1316.41280	         1.21480e+58
          1317.21910	         1.00573e+58
          1318.02540	         1.22607e+58
          1318.83170	         1.23657e+58
          1319.63800	         1.14786e+58
          1320.44430	         1.06905e+58
          1321.25060	         1.19612e+58
          1322.05690	         1.19335e+58
          1322.86320	         1.11474e+58
          1323.66950	         1.07077e+58
          1324.47580	         7.63252e+57
          1325.28210	         8.80965e+57
          1326.08840	         1.11984e+58
          1326.89470	         1.21693e+58
          1327.70100	         1.05729e+58
          1328.50730	         7.73688e+57
          1329.31360	         9.46695e+57
          1330.11990	         1.09179e+58
          1330.92620	         9.02651e+57
          1331.73250	         9.88221e+57
          1332.53880	         9.38981e+57
          1333.34510	         7.93998e+57
          1334.15140	         8.64858e+57
          1334.95770	         8.68739e+57
          1335.76400	         1.00794e+58
          1336.57030	         1.08767e+58
          1337.37660	         1.01754e+58
          1338.18290	         9.80689e+57
          1338.98920	         1.02963e+58
          1339.79550	         1.02647e+58
          1340.60180	         1.03604e+58
          1341.40810	         1.30413e+58
          1342.21440	         1.15522e+58
          1343.02070	         1.07269e+58
          1343.82700	         1.25794e+58
          1344.63330	         1.38521e+58
          1345.43960	         1.37088e+58
          1346.24590	         1.04482e+58
          1347.05220	         1.16397e+58
          1347.85850	         1.11775e+58
          1348.66480	         1.25034e+58
          1349.47110	         1.18027e+58
          1350.27740	         1.10431e+58
          1351.08370	         1.16605e+58
          1351.89000	         1.16366e+58
          1352.69630	         1.14713e+58
          1353.50260	         1.15642e+58
          1354.30890	         1.11016e+58
          1355.11520	         1.10000e+58
          1355.92150	         1.03914e+58
          1356.72780	         1.02546e+58
          1357.53410	         9.45961e+57
          1358.34040	         9.57193e+57
          1359.14670	         9.98053e+57
          1359.95300	         1.13299e+58
          1360.75930	         1.11772e+58
          1361.56560	         1.13646e+58
          1362.37190	         1.16012e+58
          1363.17820	         1.15503e+58
          1363.98450	         1.33540e+58
          1364.79080	         1.27718e+58
          1365.59710	         1.26286e+58
          1366.40340	         1.28089e+58
          1367.20970	         1.20834e+58
          1368.01600	         1.22521e+58
          1368.82230	         1.08923e+58
          1369.62860	         1.03025e+58
          1370.43490	         1.09045e+58
          1371.24120	         1.02276e+58
          1372.04750	         9.10292e+57
          1372.85380	         1.07785e+58
          1373.66010	         1.09996e+58
          1374.46640	         1.19096e+58
          1375.27270	         1.22455e+58
          1376.07900	         9.44447e+57
          1376.88530	         8.61399e+57
          1377.69160	         8.70890e+57
          1378.49790	         8.76741e+57
          1379.30420	         8.85804e+57
          1380.11050	         1.00862e+58
          1380.91680	         9.56602e+57
          1381.72310	         8.76676e+57
          1382.52940	         1.01262e+58
          1383.33570	         9.97096e+57
          1384.14200	         9.67166e+57
          1384.94830	         1.06562e+58
          1385.75460	         1.12949e+58
          1386.56090	         1.09301e+58
          1387.36720	         1.08124e+58
          1388.17350	         1.31243e+58
          1388.97980	         1.06610e+58
          1389.78610	         7.84989e+57
          1390.59240	         8.46920e+57
          1391.39870	         8.46294e+57
          1392.20500	         8.99645e+57
          1393.01130	         8.41910e+57
          1393.81760	         6.45179e+57
          1394.62390	         5.90326e+57
          1395.43020	         6.93777e+57
          1396.23650	         7.82633e+57
          1397.04280	         7.36008e+57
          1397.84910	         7.19951e+57
          1398.65540	         7.60564e+57
          1399.46170	         9.41988e+57
          1400.26800	         7.64691e+57
          1401.07430	         6.53008e+57
          1401.88060	         7.69243e+57
          1402.68690	         9.61518e+57
          1403.49320	         1.00662e+58
          1404.29950	         9.86135e+57
          1405.10580	         9.92369e+57
          1405.91210	         1.02595e+58
          1406.71840	         1.04530e+58
          1407.52470	         1.02667e+58
          1408.33100	         1.03419e+58
          1409.13730	         1.20518e+58
          1409.94360	         1.21988e+58
          1410.74990	         1.22818e+58
          1411.55620	         1.07367e+58
          1412.36250	         8.96694e+57
          1413.16880	         9.29076e+57
          1413.97510	         8.79415e+57
          1414.78140	         8.17495e+57
          1415.58770	         1.01710e+58
          1416.39400	         1.03230e+58
          1417.20030	         9.58714e+57
          1418.00660	         8.60839e+57
          1418.81290	         9.98953e+57
          1419.61920	         1.14299e+58
          1420.42550	         1.37023e+58
          1421.23180	         1.51103e+58
          1422.03810	         1.21692e+58
          1422.84440	         1.03918e+58
          1423.65070	         1.19090e+58
          1424.45700	         1.11716e+58
          1425.26330	         9.26558e+57
          1426.06960	         8.53463e+57
          1426.87590	         9.79091e+57
          1427.68220	         1.09932e+58
          1428.48850	         1.23808e+58
          1429.29480	         1.13391e+58
          1430.10110	         1.01035e+58
          1430.90740	         8.11762e+57
          1431.71370	         7.30835e+57
          1432.52000	         7.85339e+57
          1433.32630	         7.32535e+57
          1434.13260	         7.16049e+57
          1434.93890	         7.55409e+57
          1435.74520	         8.89435e+57
          1436.55150	         9.71997e+57
          1437.35780	         8.83941e+57
          1438.16410	         8.62843e+57
          1438.97040	         8.64140e+57
          1439.77670	         8.98359e+57
          1440.58300	         9.37205e+57
          1441.38930	         1.06885e+58
          1442.19560	         9.93540e+57
          1443.00190	         9.11623e+57
          1443.80820	         1.00333e+58
          1444.61450	         9.80037e+57
          1445.42080	         9.01492e+57
          1446.22710	         1.03161e+58
          1447.03340	         9.85413e+57
          1447.83970	         1.02905e+58
          1448.64600	         1.08892e+58
          1449.45230	         1.01706e+58
          1450.25860	         9.25709e+57
          1451.06490	         9.19338e+57
          1451.87120	         8.74265e+57
          1452.67750	         7.85887e+57
          1453.48380	         9.19448e+57
          1454.29010	         8.10770e+57
          1455.09640	         7.32392e+57
          1455.90270	         9.35768e+57
          1456.70900	         8.76474e+57
          1457.51530	         9.36401e+57
          1458.32160	         1.14891e+58
          1459.12790	         1.11582e+58
          1459.93420	         8.95802e+57
          1460.74050	         7.77390e+57
          1461.54680	         9.28325e+57
          1462.35310	         8.74037e+57
          1463.15940	         8.50751e+57
          1463.96570	         1.04130e+58
          1464.77200	         1.18513e+58
          1465.57830	         1.07051e+58
          1466.38460	         9.56158e+57
          1467.19090	         9.10828e+57
          1467.99720	         8.92913e+57
          1468.80350	         9.32932e+57
          1469.60980	         9.92953e+57
          1470.41610	         1.11261e+58
          1471.22240	         9.94175e+57
          1472.02870	         9.46083e+57
          1472.83500	         9.80701e+57
          1473.64130	         8.80132e+57
          1474.44760	         7.63067e+57
          1475.25390	         8.77042e+57
          1476.06020	         9.53839e+57
          1476.86650	         8.92087e+57
          1477.67280	         7.63793e+57
          1478.47910	         7.05778e+57
          1479.28540	         7.48046e+57
          1480.09170	         9.06499e+57
          1480.89800	         8.81287e+57
          1481.70430	         8.68968e+57
          1482.51060	         8.40086e+57
          1483.31690	         7.83616e+57
          1484.12320	         7.47222e+57
          1484.92950	         7.66850e+57
          1485.73580	         8.18018e+57
          1486.54210	         8.70557e+57
          1487.34840	         9.12017e+57
          1488.15470	         8.49198e+57
          1488.96100	         8.30290e+57
          1489.76730	         8.51450e+57
