#sample_415_stacked_spectrum_rest_UV-bands_median_H-alpha_noDC.txt
#median Lum: 1.70372e+42
#Rest-frame wavelength (A) | Luminosity (erg/s/A)
#
          1110.00000	         0.00000e+00
          1110.80630	         2.12264e+59
          1111.61260	         1.75785e+59
          1112.41890	         2.38412e+59
          1113.22520	        -2.08467e+57
          1114.03150	        -2.21875e+59
          1114.83780	         7.59580e+58
          1115.64410	         1.78022e+59
          1116.45040	         2.06002e+59
          1117.25670	         7.15821e+58
          1118.06300	         1.03917e+59
          1118.86930	        -3.35497e+58
          1119.67560	         2.39989e+58
          1120.48190	        -8.01272e+57
          1121.28820	        -1.70236e+58
          1122.09450	         3.51075e+58
          1122.90080	         5.31629e+58
          1123.70710	         5.64143e+58
          1124.51340	         1.15640e+59
          1125.31970	         1.55954e+58
          1126.12600	        -2.22583e+58
          1126.93230	        -6.07125e+58
          1127.73860	        -6.80333e+58
          1128.54490	        -4.00263e+58
          1129.35120	         7.11304e+57
          1130.15750	        -3.31769e+58
          1130.96380	        -4.78415e+58
          1131.77010	        -1.60433e+58
          1132.57640	         1.93926e+58
          1133.38270	         1.52227e+58
          1134.18900	        -1.42253e+57
          1134.99530	         4.11808e+58
          1135.80160	         1.86042e+58
          1136.60790	        -7.85118e+54
          1137.41420	         1.02467e+57
          1138.22050	         3.62148e+58
          1139.02680	         3.34604e+58
          1139.83310	         2.75057e+58
          1140.63940	         9.14175e+57
          1141.44570	        -1.44350e+58
          1142.25200	        -7.69352e+56
          1143.05830	         1.65175e+58
          1143.86460	         2.09193e+58
          1144.67090	         1.01060e+58
          1145.47720	         9.45770e+57
          1146.28350	         3.60638e+57
          1147.08980	         1.28617e+58
          1147.89610	         1.86355e+58
          1148.70240	         9.17408e+57
          1149.50870	         3.23616e+58
          1150.31500	         2.59856e+58
          1151.12130	         1.39196e+58
          1151.92760	         7.66023e+56
          1152.73390	        -6.71457e+57
          1153.54020	         4.74818e+57
          1154.34650	         2.01432e+58
          1155.15280	         2.33779e+58
          1155.95910	         8.26523e+57
          1156.76540	         1.43532e+58
          1157.57170	        -5.07217e+57
          1158.37800	         2.19851e+57
          1159.18430	        -1.93592e+57
          1159.99060	         1.47947e+58
          1160.79690	         1.62028e+58
          1161.60320	         1.86160e+58
          1162.40950	         4.40080e+57
          1163.21580	         9.44907e+57
          1164.02210	         1.51672e+58
          1164.82840	         3.08309e+57
          1165.63470	         1.45679e+58
          1166.44100	         2.95852e+58
          1167.24730	         3.00931e+58
          1168.05360	         1.13662e+58
          1168.85990	         1.85372e+56
          1169.66620	         6.63328e+57
          1170.47250	         1.03362e+58
          1171.27880	         1.04320e+58
          1172.08510	         1.65326e+58
          1172.89140	         1.29543e+58
          1173.69770	         1.01119e+58
          1174.50400	         1.52760e+58
          1175.31030	         1.74317e+58
          1176.11660	         1.18744e+58
          1176.92290	         1.21934e+58
          1177.72920	         1.05795e+58
          1178.53550	         3.51932e+57
          1179.34180	         5.99116e+57
          1180.14810	         1.27473e+58
          1180.95440	         8.39198e+57
          1181.76070	         3.29133e+57
          1182.56700	         1.91301e+57
          1183.37330	         4.89923e+57
          1184.17960	         1.13365e+58
          1184.98590	         1.15972e+58
          1185.79220	         1.51014e+56
          1186.59850	         4.79464e+57
          1187.40480	         8.03614e+57
          1188.21110	         1.54105e+58
          1189.01740	         8.32193e+57
          1189.82370	         6.91444e+57
          1190.63000	         6.69184e+57
          1191.43630	         7.85703e+57
          1192.24260	         7.24701e+57
          1193.04890	         1.30785e+58
          1193.85520	         1.51304e+58
          1194.66150	         7.28847e+57
          1195.46780	         1.12001e+58
          1196.27410	         1.21539e+58
          1197.08040	         7.85778e+57
          1197.88670	         1.25122e+58
          1198.69300	         1.44767e+58
          1199.49930	         1.62992e+58
          1200.30560	         1.30338e+58
          1201.11190	         1.26908e+58
          1201.91820	         1.22861e+58
          1202.72450	         5.47476e+57
          1203.53080	         8.93060e+57
          1204.33710	         7.38037e+57
          1205.14340	         6.16179e+57
          1205.94970	         5.21731e+57
          1206.75600	         8.67842e+57
          1207.56230	         7.91364e+57
          1208.36860	         1.23823e+58
          1209.17490	         5.72666e+57
          1209.98120	         5.28256e+57
          1210.78750	         8.65179e+57
          1211.59380	         8.64594e+57
          1212.40010	         1.36790e+58
          1213.20640	         2.18119e+58
          1214.01270	         2.13077e+58
          1214.81900	         2.53754e+58
          1215.62530	         4.62679e+58
          1216.43160	         9.29368e+58
          1217.23790	         1.48825e+59
          1218.04420	         1.13463e+59
          1218.85050	         8.70074e+58
          1219.65680	         5.80068e+58
          1220.46310	         3.21446e+58
          1221.26940	         2.41040e+58
          1222.07570	         1.66624e+58
          1222.88200	         1.36669e+58
          1223.68830	         8.75945e+57
          1224.49460	         2.95746e+57
          1225.30090	         3.82422e+57
          1226.10720	         6.32692e+57
          1226.91350	         1.02196e+58
          1227.71980	         1.56310e+58
          1228.52610	         1.27913e+58
          1229.33240	         9.11962e+57
          1230.13870	         7.07988e+57
          1230.94500	         7.26043e+57
          1231.75130	         7.34229e+57
          1232.55760	         1.15147e+58
          1233.36390	         9.89234e+57
          1234.17020	         9.22161e+57
          1234.97650	         9.55978e+57
          1235.78280	         8.77578e+57
          1236.58910	         6.73673e+57
          1237.39540	         8.59844e+57
          1238.20170	         1.14316e+58
          1239.00800	         1.39434e+58
          1239.81430	         1.43955e+58
          1240.62060	         1.15077e+58
          1241.42690	         1.05397e+58
          1242.23320	         1.18379e+58
          1243.03950	         1.11829e+58
          1243.84580	         9.79454e+57
          1244.65210	         8.88116e+57
          1245.45840	         1.00502e+58
          1246.26470	         9.34782e+57
          1247.07100	         8.08442e+57
          1247.87730	         7.74539e+57
          1248.68360	         6.74503e+57
          1249.48990	         6.06519e+57
          1250.29620	         6.82570e+57
          1251.10250	         8.58675e+57
          1251.90880	         7.90712e+57
          1252.71510	         5.69661e+57
          1253.52140	         6.82430e+57
          1254.32770	         9.81511e+57
          1255.13400	         1.21482e+58
          1255.94030	         1.19098e+58
          1256.74660	         8.88525e+57
          1257.55290	         8.67275e+57
          1258.35920	         6.86550e+57
          1259.16550	         6.34263e+57
          1259.97180	         5.35302e+57
          1260.77810	         7.70875e+57
          1261.58440	         1.17032e+58
          1262.39070	         9.55877e+57
          1263.19700	         8.93722e+57
          1264.00330	         8.90739e+57
          1264.80960	         1.00541e+58
          1265.61590	         1.19917e+58
          1266.42220	         1.09347e+58
          1267.22850	         1.04386e+58
          1268.03480	         1.45967e+58
          1268.84110	         1.44993e+58
          1269.64740	         1.20708e+58
          1270.45370	         1.22009e+58
          1271.26000	         1.12447e+58
          1272.06630	         1.18159e+58
          1272.87260	         1.11141e+58
          1273.67890	         1.12707e+58
          1274.48520	         1.07610e+58
          1275.29150	         1.40336e+58
          1276.09780	         1.43080e+58
          1276.90410	         1.63521e+58
          1277.71040	         1.52512e+58
          1278.51670	         1.27125e+58
          1279.32300	         1.40235e+58
          1280.12930	         1.31312e+58
          1280.93560	         1.21925e+58
          1281.74190	         1.30510e+58
          1282.54820	         1.27777e+58
          1283.35450	         9.64998e+57
          1284.16080	         1.10134e+58
          1284.96710	         1.14666e+58
          1285.77340	         1.02461e+58
          1286.57970	         1.17375e+58
          1287.38600	         1.59354e+58
          1288.19230	         1.78596e+58
          1288.99860	         1.42961e+58
          1289.80490	         1.07366e+58
          1290.61120	         1.29338e+58
          1291.41750	         1.28139e+58
          1292.22380	         1.11610e+58
          1293.03010	         1.03684e+58
          1293.83640	         1.34813e+58
          1294.64270	         1.03749e+58
          1295.44900	         5.34710e+57
          1296.25530	         7.32498e+57
          1297.06160	         9.92984e+57
          1297.86790	         1.10595e+58
          1298.67420	         1.05995e+58
          1299.48050	         1.05653e+58
          1300.28680	         9.72276e+57
          1301.09310	         7.75448e+57
          1301.89940	         3.86943e+57
          1302.70570	         5.91823e+57
          1303.51200	         7.39970e+57
          1304.31830	         8.30630e+57
          1305.12460	         9.50949e+57
          1305.93090	         1.03026e+58
          1306.73720	         1.16739e+58
          1307.54350	         1.39241e+58
          1308.34980	         1.46363e+58
          1309.15610	         1.49546e+58
          1309.96240	         1.38462e+58
          1310.76870	         1.11337e+58
          1311.57500	         8.35192e+57
          1312.38130	         9.63084e+57
          1313.18760	         1.26983e+58
          1313.99390	         1.48618e+58
          1314.80020	         1.79036e+58
          1315.60650	         1.34481e+58
          1316.41280	         1.07547e+58
          1317.21910	         9.76959e+57
          1318.02540	         1.03945e+58
          1318.83170	         1.24042e+58
          1319.63800	         1.23640e+58
          1320.44430	         1.11975e+58
          1321.25060	         1.15155e+58
          1322.05690	         1.31815e+58
          1322.86320	         1.27876e+58
          1323.66950	         1.06948e+58
          1324.47580	         9.04316e+57
          1325.28210	         9.16184e+57
          1326.08840	         1.09328e+58
          1326.89470	         1.23383e+58
          1327.70100	         1.12676e+58
          1328.50730	         7.99041e+57
          1329.31360	         7.41102e+57
          1330.11990	         8.95308e+57
          1330.92620	         9.85248e+57
          1331.73250	         1.07387e+58
          1332.53880	         1.01598e+58
          1333.34510	         9.94972e+57
          1334.15140	         9.75833e+57
          1334.95770	         9.03310e+57
          1335.76400	         1.07580e+58
          1336.57030	         1.11640e+58
          1337.37660	         1.13931e+58
          1338.18290	         1.14217e+58
          1338.98920	         1.18888e+58
          1339.79550	         1.24272e+58
          1340.60180	         1.23831e+58
          1341.40810	         1.28856e+58
          1342.21440	         1.20257e+58
          1343.02070	         1.19650e+58
          1343.82700	         1.25778e+58
          1344.63330	         1.18225e+58
          1345.43960	         1.27686e+58
          1346.24590	         1.15409e+58
          1347.05220	         1.01818e+58
          1347.85850	         1.17873e+58
          1348.66480	         1.35847e+58
          1349.47110	         1.43975e+58
          1350.27740	         1.14259e+58
          1351.08370	         1.07119e+58
          1351.89000	         1.06176e+58
          1352.69630	         1.13855e+58
          1353.50260	         1.16723e+58
          1354.30890	         1.24877e+58
          1355.11520	         1.25425e+58
          1355.92150	         1.13565e+58
          1356.72780	         1.10537e+58
          1357.53410	         1.01950e+58
          1358.34040	         1.04243e+58
          1359.14670	         1.11170e+58
          1359.95300	         1.18857e+58
          1360.75930	         1.17168e+58
          1361.56560	         9.46676e+57
          1362.37190	         9.77556e+57
          1363.17820	         1.03734e+58
          1363.98450	         1.09129e+58
          1364.79080	         1.30275e+58
          1365.59710	         1.32613e+58
          1366.40340	         1.20103e+58
          1367.20970	         9.99189e+57
          1368.01600	         9.31294e+57
          1368.82230	         8.70933e+57
          1369.62860	         9.48278e+57
          1370.43490	         9.48270e+57
          1371.24120	         1.06096e+58
          1372.04750	         8.80474e+57
          1372.85380	         1.12260e+58
          1373.66010	         1.11847e+58
          1374.46640	         1.10943e+58
          1375.27270	         1.20024e+58
          1376.07900	         9.34113e+57
          1376.88530	         7.98505e+57
          1377.69160	         8.25346e+57
          1378.49790	         6.62134e+57
          1379.30420	         7.35718e+57
          1380.11050	         9.47221e+57
          1380.91680	         9.04910e+57
          1381.72310	         7.99730e+57
          1382.52940	         7.25968e+57
          1383.33570	         8.59587e+57
          1384.14200	         1.06985e+58
          1384.94830	         1.18756e+58
          1385.75460	         1.19274e+58
          1386.56090	         1.09475e+58
          1387.36720	         1.03891e+58
          1388.17350	         1.17489e+58
          1388.97980	         1.14899e+58
          1389.78610	         1.07288e+58
          1390.59240	         8.21044e+57
          1391.39870	         8.01500e+57
          1392.20500	         8.24560e+57
          1393.01130	         7.37271e+57
          1393.81760	         6.86899e+57
          1394.62390	         6.86700e+57
          1395.43020	         5.63487e+57
          1396.23650	         6.75630e+57
          1397.04280	         8.57240e+57
          1397.84910	         8.98273e+57
          1398.65540	         8.89456e+57
          1399.46170	         9.72364e+57
          1400.26800	         8.65626e+57
          1401.07430	         8.03879e+57
          1401.88060	         7.15655e+57
          1402.68690	         8.36231e+57
          1403.49320	         9.74428e+57
          1404.29950	         9.50820e+57
          1405.10580	         1.09484e+58
          1405.91210	         1.13021e+58
          1406.71840	         1.02906e+58
          1407.52470	         1.00080e+58
          1408.33100	         1.06774e+58
          1409.13730	         1.19209e+58
          1409.94360	         1.19385e+58
          1410.74990	         1.20237e+58
          1411.55620	         1.06646e+58
          1412.36250	         9.73178e+57
          1413.16880	         8.80526e+57
          1413.97510	         9.34936e+57
          1414.78140	         1.00486e+58
          1415.58770	         9.65122e+57
          1416.39400	         1.18794e+58
          1417.20030	         1.13463e+58
          1418.00660	         1.08329e+58
          1418.81290	         1.08993e+58
          1419.61920	         9.65486e+57
          1420.42550	         1.14426e+58
          1421.23180	         1.39536e+58
          1422.03810	         1.23831e+58
          1422.84440	         1.18204e+58
          1423.65070	         1.37780e+58
          1424.45700	         1.03553e+58
          1425.26330	         7.58654e+57
          1426.06960	         8.31079e+57
          1426.87590	         9.70008e+57
          1427.68220	         9.81822e+57
          1428.48850	         1.11830e+58
          1429.29480	         1.07180e+58
          1430.10110	         9.46305e+57
          1430.90740	         8.85056e+57
          1431.71370	         9.10889e+57
          1432.52000	         8.05265e+57
          1433.32630	         8.27074e+57
          1434.13260	         8.12030e+57
          1434.93890	         8.19999e+57
          1435.74520	         8.97802e+57
          1436.55150	         9.05823e+57
          1437.35780	         9.18417e+57
          1438.16410	         9.89648e+57
          1438.97040	         9.21206e+57
          1439.77670	         8.58429e+57
          1440.58300	         8.76487e+57
          1441.38930	         9.46358e+57
          1442.19560	         9.74921e+57
          1443.00190	         9.69372e+57
          1443.80820	         1.06058e+58
          1444.61450	         9.54412e+57
          1445.42080	         7.63849e+57
          1446.22710	         9.06911e+57
          1447.03340	         9.23280e+57
          1447.83970	         9.71997e+57
          1448.64600	         9.66970e+57
          1449.45230	         9.78656e+57
          1450.25860	         1.03810e+58
          1451.06490	         9.79909e+57
          1451.87120	         8.54808e+57
          1452.67750	         8.50360e+57
          1453.48380	         9.22949e+57
          1454.29010	         7.72440e+57
          1455.09640	         7.16399e+57
          1455.90270	         9.77244e+57
          1456.70900	         1.01005e+58
          1457.51530	         9.84729e+57
          1458.32160	         1.22473e+58
          1459.12790	         1.16579e+58
          1459.93420	         9.88075e+57
          1460.74050	         6.53591e+57
          1461.54680	         6.80670e+57
          1462.35310	         7.63002e+57
          1463.15940	         8.95769e+57
          1463.96570	         1.10243e+58
          1464.77200	         1.07470e+58
          1465.57830	         1.00673e+58
          1466.38460	         9.43639e+57
          1467.19090	         8.24647e+57
          1467.99720	         8.30809e+57
          1468.80350	         8.59543e+57
          1469.60980	         9.54158e+57
          1470.41610	         1.11178e+58
          1471.22240	         9.81909e+57
          1472.02870	         9.60516e+57
          1472.83500	         9.90505e+57
          1473.64130	         9.79488e+57
          1474.44760	         1.03568e+58
          1475.25390	         1.06564e+58
          1476.06020	         8.37741e+57
          1476.86650	         8.99311e+57
          1477.67280	         8.70604e+57
          1478.47910	         6.42836e+57
          1479.28540	         6.48331e+57
          1480.09170	         8.47651e+57
          1480.89800	         9.14438e+57
          1481.70430	         8.57624e+57
          1482.51060	         9.22560e+57
          1483.31690	         9.58574e+57
          1484.12320	         9.01028e+57
          1484.92950	         7.93121e+57
          1485.73580	         7.27348e+57
          1486.54210	         8.48463e+57
          1487.34840	         9.43746e+57
          1488.15470	         8.42137e+57
          1488.96100	         8.12668e+57
          1489.76730	         8.49266e+57
