#sample_129_stacked_spectrum_rest_UV-bands_median_H-alpha_noDC.txt
#median Lum: 1.68360e+42
#Rest-frame wavelength (A) | Luminosity (erg/s/A)
#
          1110.00000	         0.00000e+00
          1110.80630	         4.82328e+59
          1111.61260	        -1.99008e+59
          1112.41890	         6.04389e+58
          1113.22520	         1.25040e+59
          1114.03150	        -1.20398e+59
          1114.83780	         3.32836e+58
          1115.64410	         1.14410e+59
          1116.45040	         7.85201e+58
          1117.25670	         6.04323e+57
          1118.06300	        -1.19630e+58
          1118.86930	        -1.08617e+58
          1119.67560	         3.64195e+58
          1120.48190	        -1.01840e+59
          1121.28820	        -1.36686e+59
          1122.09450	        -9.04504e+57
          1122.90080	         4.72773e+58
          1123.70710	         1.44103e+59
          1124.51340	         1.22160e+59
          1125.31970	        -3.49707e+58
          1126.12600	         3.08443e+57
          1126.93230	        -3.89510e+58
          1127.73860	        -4.21611e+58
          1128.54490	        -2.90971e+58
          1129.35120	         1.58707e+58
          1130.15750	         1.79385e+58
          1130.96380	        -2.69718e+58
          1131.77010	         3.14664e+58
          1132.57640	         6.33280e+58
          1133.38270	         3.13628e+58
          1134.18900	         4.69447e+58
          1134.99530	         1.26973e+58
          1135.80160	         2.73117e+58
          1136.60790	         2.08216e+58
          1137.41420	        -1.12594e+58
          1138.22050	         3.24485e+58
          1139.02680	         9.69701e+57
          1139.83310	         1.65062e+58
          1140.63940	         2.40728e+58
          1141.44570	        -1.56674e+58
          1142.25200	        -9.05841e+57
          1143.05830	         2.28736e+58
          1143.86460	         2.76651e+58
          1144.67090	         2.27429e+58
          1145.47720	         1.44661e+58
          1146.28350	         6.03908e+57
          1147.08980	         1.74870e+58
          1147.89610	         2.03298e+58
          1148.70240	         2.08650e+58
          1149.50870	         2.61384e+58
          1150.31500	         1.72540e+58
          1151.12130	         8.68444e+57
          1151.92760	         1.42592e+58
          1152.73390	        -4.79391e+57
          1153.54020	        -1.03651e+58
          1154.34650	         1.15075e+58
          1155.15280	         1.91788e+58
          1155.95910	         9.78361e+57
          1156.76540	         2.37509e+58
          1157.57170	         7.04158e+57
          1158.37800	        -3.40957e+57
          1159.18430	        -2.12359e+57
          1159.99060	         1.88006e+57
          1160.79690	        -1.38533e+57
          1161.60320	         4.53382e+57
          1162.40950	         1.43160e+58
          1163.21580	         7.94330e+57
          1164.02210	         7.98803e+57
          1164.82840	         7.98374e+57
          1165.63470	         2.07655e+58
          1166.44100	         2.02537e+58
          1167.24730	         1.49582e+58
          1168.05360	         1.29817e+58
          1168.85990	         3.16378e+57
          1169.66620	         4.73134e+57
          1170.47250	         1.64267e+58
          1171.27880	         1.46624e+58
          1172.08510	         1.15305e+58
          1172.89140	         8.92048e+57
          1173.69770	         1.23288e+58
          1174.50400	         1.50816e+58
          1175.31030	         1.46566e+58
          1176.11660	         1.71537e+58
          1176.92290	         1.62235e+58
          1177.72920	         9.44487e+57
          1178.53550	         6.18129e+57
          1179.34180	         3.69642e+57
          1180.14810	         9.55207e+57
          1180.95440	         1.29195e+58
          1181.76070	         5.65226e+57
          1182.56700	         6.65731e+57
          1183.37330	         6.49792e+57
          1184.17960	         1.06905e+58
          1184.98590	         9.24431e+57
          1185.79220	         7.72482e+57
          1186.59850	         1.08558e+58
          1187.40480	         6.57190e+57
          1188.21110	         1.27079e+58
          1189.01740	         7.72410e+57
          1189.82370	         9.28117e+57
          1190.63000	         1.78091e+58
          1191.43630	         1.52782e+58
          1192.24260	         6.27223e+57
          1193.04890	         1.35680e+58
          1193.85520	         1.35431e+58
          1194.66150	         5.43189e+57
          1195.46780	         1.38467e+58
          1196.27410	         1.83922e+58
          1197.08040	         1.06465e+58
          1197.88670	         1.29263e+58
          1198.69300	         1.40369e+58
          1199.49930	         1.47868e+58
          1200.30560	         1.22959e+58
          1201.11190	         8.81626e+57
          1201.91820	         7.51839e+57
          1202.72450	         8.31629e+57
          1203.53080	         1.30835e+58
          1204.33710	         9.57034e+57
          1205.14340	         5.45649e+57
          1205.94970	         6.05531e+57
          1206.75600	         7.64513e+57
          1207.56230	         6.86790e+57
          1208.36860	         9.49686e+57
          1209.17490	         2.64382e+57
          1209.98120	         3.63869e+57
          1210.78750	         1.03988e+58
          1211.59380	         1.27755e+58
          1212.40010	         1.64126e+58
          1213.20640	         1.74281e+58
          1214.01270	         1.95456e+58
          1214.81900	         2.68041e+58
          1215.62530	         4.51103e+58
          1216.43160	         8.74875e+58
          1217.23790	         1.49111e+59
          1218.04420	         1.14513e+59
          1218.85050	         8.51227e+58
          1219.65680	         5.90750e+58
          1220.46310	         3.23755e+58
          1221.26940	         2.45150e+58
          1222.07570	         1.68340e+58
          1222.88200	         1.29133e+58
          1223.68830	         1.13318e+58
          1224.49460	         5.26523e+57
          1225.30090	         7.07143e+57
          1226.10720	         7.51956e+57
          1226.91350	         7.77619e+57
          1227.71980	         7.06783e+57
          1228.52610	         8.27921e+57
          1229.33240	         6.82204e+57
          1230.13870	         8.83818e+57
          1230.94500	         8.35848e+57
          1231.75130	         4.36391e+57
          1232.55760	         5.85979e+57
          1233.36390	         8.47507e+57
          1234.17020	         8.91527e+57
          1234.97650	         9.11266e+57
          1235.78280	         9.42889e+57
          1236.58910	         1.03047e+58
          1237.39540	         1.19378e+58
          1238.20170	         1.04627e+58
          1239.00800	         9.61949e+57
          1239.81430	         1.38016e+58
          1240.62060	         1.32293e+58
          1241.42690	         1.08619e+58
          1242.23320	         1.17396e+58
          1243.03950	         7.59893e+57
          1243.84580	         9.17424e+57
          1244.65210	         1.30928e+58
          1245.45840	         1.04154e+58
          1246.26470	         9.36202e+57
          1247.07100	         7.43362e+57
          1247.87730	         6.37359e+57
          1248.68360	         4.42666e+57
          1249.48990	         8.97088e+57
          1250.29620	         8.71891e+57
          1251.10250	         8.81669e+57
          1251.90880	         7.79263e+57
          1252.71510	         6.36941e+57
          1253.52140	         6.81137e+57
          1254.32770	         9.38255e+57
          1255.13400	         1.12120e+58
          1255.94030	         9.75262e+57
          1256.74660	         7.82922e+57
          1257.55290	         8.05578e+57
          1258.35920	         8.33183e+57
          1259.16550	         4.89602e+57
          1259.97180	         3.97934e+57
          1260.77810	         6.95283e+57
          1261.58440	         1.08451e+58
          1262.39070	         8.18980e+57
          1263.19700	         9.72662e+57
          1264.00330	         9.87708e+57
          1264.80960	         9.95258e+57
          1265.61590	         1.20720e+58
          1266.42220	         1.21847e+58
          1267.22850	         1.19399e+58
          1268.03480	         1.64384e+58
          1268.84110	         1.59874e+58
          1269.64740	         1.22897e+58
          1270.45370	         1.31440e+58
          1271.26000	         1.19757e+58
          1272.06630	         1.25969e+58
          1272.87260	         1.04174e+58
          1273.67890	         1.06726e+58
          1274.48520	         1.17601e+58
          1275.29150	         1.16933e+58
          1276.09780	         1.13984e+58
          1276.90410	         1.48670e+58
          1277.71040	         1.49716e+58
          1278.51670	         1.25564e+58
          1279.32300	         1.57104e+58
          1280.12930	         1.50249e+58
          1280.93560	         1.41176e+58
          1281.74190	         1.27909e+58
          1282.54820	         1.31322e+58
          1283.35450	         1.15176e+58
          1284.16080	         1.05730e+58
          1284.96710	         1.28311e+58
          1285.77340	         1.13545e+58
          1286.57970	         1.11358e+58
          1287.38600	         1.61502e+58
          1288.19230	         1.74889e+58
          1288.99860	         1.48107e+58
          1289.80490	         9.85947e+57
          1290.61120	         1.21165e+58
          1291.41750	         1.48973e+58
          1292.22380	         1.29462e+58
          1293.03010	         1.21737e+58
          1293.83640	         1.32807e+58
          1294.64270	         1.10290e+58
          1295.44900	         7.72336e+57
          1296.25530	         8.55073e+57
          1297.06160	         1.02072e+58
          1297.86790	         1.08535e+58
          1298.67420	         9.88242e+57
          1299.48050	         8.90341e+57
          1300.28680	         1.14281e+58
          1301.09310	         9.34274e+57
          1301.89940	         3.83034e+57
          1302.70570	         5.84813e+57
          1303.51200	         8.43202e+57
          1304.31830	         9.88722e+57
          1305.12460	         1.07156e+58
          1305.93090	         1.14191e+58
          1306.73720	         1.23255e+58
          1307.54350	         1.34836e+58
          1308.34980	         1.57948e+58
          1309.15610	         1.77448e+58
          1309.96240	         1.75117e+58
          1310.76870	         1.37945e+58
          1311.57500	         1.12781e+58
          1312.38130	         1.24007e+58
          1313.18760	         1.36770e+58
          1313.99390	         1.73464e+58
          1314.80020	         1.70595e+58
          1315.60650	         1.59893e+58
          1316.41280	         1.45306e+58
          1317.21910	         1.15883e+58
          1318.02540	         1.12921e+58
          1318.83170	         1.27948e+58
          1319.63800	         1.23999e+58
          1320.44430	         1.22131e+58
          1321.25060	         1.22516e+58
          1322.05690	         1.30475e+58
          1322.86320	         1.31984e+58
          1323.66950	         1.12090e+58
          1324.47580	         8.86352e+57
          1325.28210	         9.28396e+57
          1326.08840	         1.16817e+58
          1326.89470	         1.30289e+58
          1327.70100	         1.09439e+58
          1328.50730	         7.90644e+57
          1329.31360	         7.93679e+57
          1330.11990	         1.06493e+58
          1330.92620	         1.00962e+58
          1331.73250	         9.87759e+57
          1332.53880	         8.56777e+57
          1333.34510	         8.33777e+57
          1334.15140	         9.69762e+57
          1334.95770	         1.03054e+58
          1335.76400	         1.14683e+58
          1336.57030	         1.04859e+58
          1337.37660	         9.96962e+57
          1338.18290	         1.14038e+58
          1338.98920	         1.29268e+58
          1339.79550	         1.26306e+58
          1340.60180	         1.30391e+58
          1341.40810	         1.30815e+58
          1342.21440	         1.12672e+58
          1343.02070	         1.16663e+58
          1343.82700	         1.29628e+58
          1344.63330	         1.18294e+58
          1345.43960	         1.24412e+58
          1346.24590	         1.06241e+58
          1347.05220	         1.17404e+58
          1347.85850	         1.26100e+58
          1348.66480	         1.24938e+58
          1349.47110	         1.21652e+58
          1350.27740	         1.11684e+58
          1351.08370	         1.25262e+58
          1351.89000	         1.28309e+58
          1352.69630	         1.29086e+58
          1353.50260	         1.24262e+58
          1354.30890	         1.15685e+58
          1355.11520	         1.19206e+58
          1355.92150	         1.08296e+58
          1356.72780	         1.08651e+58
          1357.53410	         1.07155e+58
          1358.34040	         1.02943e+58
          1359.14670	         1.09946e+58
          1359.95300	         1.13119e+58
          1360.75930	         1.17202e+58
          1361.56560	         1.14636e+58
          1362.37190	         1.11461e+58
          1363.17820	         1.03266e+58
          1363.98450	         1.13684e+58
          1364.79080	         1.26430e+58
          1365.59710	         1.25801e+58
          1366.40340	         1.10364e+58
          1367.20970	         1.11026e+58
          1368.01600	         1.01375e+58
          1368.82230	         9.44469e+57
          1369.62860	         9.77760e+57
          1370.43490	         8.91514e+57
          1371.24120	         1.03345e+58
          1372.04750	         9.37531e+57
          1372.85380	         1.10849e+58
          1373.66010	         1.21252e+58
          1374.46640	         1.22112e+58
          1375.27270	         1.17773e+58
          1376.07900	         9.31740e+57
          1376.88530	         7.43331e+57
          1377.69160	         6.81989e+57
          1378.49790	         6.24850e+57
          1379.30420	         7.45761e+57
          1380.11050	         7.81383e+57
          1380.91680	         7.62794e+57
          1381.72310	         8.58598e+57
          1382.52940	         8.90945e+57
          1383.33570	         7.83978e+57
          1384.14200	         8.05211e+57
          1384.94830	         1.07364e+58
          1385.75460	         9.65036e+57
          1386.56090	         1.18276e+58
          1387.36720	         1.21302e+58
          1388.17350	         1.14654e+58
          1388.97980	         1.09294e+58
          1389.78610	         9.29672e+57
          1390.59240	         8.47447e+57
          1391.39870	         7.29759e+57
          1392.20500	         8.90014e+57
          1393.01130	         9.19478e+57
          1393.81760	         8.04812e+57
          1394.62390	         8.54618e+57
          1395.43020	         7.27381e+57
          1396.23650	         6.26982e+57
          1397.04280	         6.61524e+57
          1397.84910	         7.13303e+57
          1398.65540	         8.55642e+57
          1399.46170	         1.01616e+58
          1400.26800	         8.94855e+57
          1401.07430	         7.65745e+57
          1401.88060	         7.92364e+57
          1402.68690	         1.02092e+58
          1403.49320	         1.04531e+58
          1404.29950	         9.10967e+57
          1405.10580	         1.00183e+58
          1405.91210	         1.05880e+58
          1406.71840	         1.18711e+58
          1407.52470	         1.05479e+58
          1408.33100	         8.66261e+57
          1409.13730	         1.09033e+58
          1409.94360	         1.13156e+58
          1410.74990	         1.11515e+58
          1411.55620	         1.00344e+58
          1412.36250	         9.34055e+57
          1413.16880	         9.62352e+57
          1413.97510	         8.19836e+57
          1414.78140	         7.91116e+57
          1415.58770	         1.03658e+58
          1416.39400	         1.27935e+58
          1417.20030	         1.14168e+58
          1418.00660	         9.48537e+57
          1418.81290	         1.06939e+58
          1419.61920	         1.03824e+58
          1420.42550	         1.26516e+58
          1421.23180	         1.42298e+58
          1422.03810	         1.41322e+58
          1422.84440	         1.27092e+58
          1423.65070	         1.31588e+58
          1424.45700	         1.19786e+58
          1425.26330	         8.82682e+57
          1426.06960	         8.01058e+57
          1426.87590	         1.04233e+58
          1427.68220	         1.09275e+58
          1428.48850	         1.03188e+58
          1429.29480	         9.44693e+57
          1430.10110	         9.87724e+57
          1430.90740	         9.40304e+57
          1431.71370	         9.45726e+57
          1432.52000	         8.66953e+57
          1433.32630	         6.53606e+57
          1434.13260	         7.61737e+57
          1434.93890	         8.82828e+57
          1435.74520	         8.48094e+57
          1436.55150	         9.46153e+57
          1437.35780	         8.84141e+57
          1438.16410	         8.76673e+57
          1438.97040	         8.93540e+57
          1439.77670	         8.71520e+57
          1440.58300	         8.56533e+57
          1441.38930	         8.89256e+57
          1442.19560	         9.75679e+57
          1443.00190	         9.77533e+57
          1443.80820	         1.06652e+58
          1444.61450	         9.28637e+57
          1445.42080	         7.74736e+57
          1446.22710	         1.07732e+58
          1447.03340	         1.09122e+58
          1447.83970	         1.06850e+58
          1448.64600	         1.04852e+58
          1449.45230	         1.07419e+58
          1450.25860	         1.03124e+58
          1451.06490	         9.16122e+57
          1451.87120	         7.09087e+57
          1452.67750	         7.15948e+57
          1453.48380	         9.44223e+57
          1454.29010	         9.66291e+57
          1455.09640	         8.57228e+57
          1455.90270	         9.52741e+57
          1456.70900	         9.02172e+57
          1457.51530	         1.00263e+58
          1458.32160	         1.18733e+58
          1459.12790	         1.26012e+58
          1459.93420	         1.10476e+58
          1460.74050	         7.93001e+57
          1461.54680	         7.87836e+57
          1462.35310	         9.81067e+57
          1463.15940	         1.01468e+58
          1463.96570	         1.02807e+58
          1464.77200	         1.09921e+58
          1465.57830	         1.03052e+58
          1466.38460	         8.91348e+57
          1467.19090	         8.40289e+57
          1467.99720	         7.71030e+57
          1468.80350	         8.90542e+57
          1469.60980	         9.95873e+57
          1470.41610	         1.08108e+58
          1471.22240	         9.56105e+57
          1472.02870	         9.96276e+57
          1472.83500	         1.11429e+58
          1473.64130	         1.00772e+58
          1474.44760	         9.35151e+57
          1475.25390	         9.49683e+57
          1476.06020	         8.99283e+57
          1476.86650	         8.55489e+57
          1477.67280	         7.56970e+57
          1478.47910	         6.79305e+57
          1479.28540	         7.79092e+57
          1480.09170	         8.83169e+57
          1480.89800	         8.63196e+57
          1481.70430	         9.00913e+57
          1482.51060	         9.03771e+57
          1483.31690	         7.87260e+57
          1484.12320	         7.82183e+57
          1484.92950	         8.38953e+57
          1485.73580	         9.33966e+57
          1486.54210	         9.57741e+57
          1487.34840	         9.59701e+57
          1488.15470	         9.00708e+57
          1488.96100	         8.71177e+57
          1489.76730	         8.41262e+57
