#sample_293_stacked_spectrum_rest_UV-bands_median_H-alpha_noDC.txt
#median Lum: 1.68666e+42
#Rest-frame wavelength (A) | Luminosity (erg/s/A)
#
          1110.00000	         0.00000e+00
          1110.80630	         6.80331e+59
          1111.61260	        -1.72491e+59
          1112.41890	         7.00985e+58
          1113.22520	         7.41127e+58
          1114.03150	        -2.28976e+58
          1114.83780	         1.59042e+59
          1115.64410	        -1.66287e+58
          1116.45040	        -5.72612e+58
          1117.25670	         1.89846e+58
          1118.06300	         1.48724e+59
          1118.86930	         4.24342e+58
          1119.67560	         1.04889e+59
          1120.48190	        -4.02073e+58
          1121.28820	        -1.68494e+59
          1122.09450	        -1.97883e+58
          1122.90080	         4.84778e+58
          1123.70710	         4.80356e+58
          1124.51340	         1.60955e+59
          1125.31970	        -7.50038e+56
          1126.12600	        -1.63565e+58
          1126.93230	        -4.05480e+58
          1127.73860	        -3.94407e+58
          1128.54490	        -1.06074e+58
          1129.35120	        -3.29266e+57
          1130.15750	        -2.27992e+58
          1130.96380	        -2.41913e+58
          1131.77010	         2.60908e+58
          1132.57640	         5.89087e+58
          1133.38270	         3.36702e+58
          1134.18900	         2.78305e+57
          1134.99530	         3.06761e+58
          1135.80160	         2.12640e+58
          1136.60790	        -1.23064e+58
          1137.41420	         5.69694e+57
          1138.22050	         4.94379e+58
          1139.02680	         2.35216e+58
          1139.83310	         1.59627e+58
          1140.63940	         1.67813e+58
          1141.44570	         1.76814e+57
          1142.25200	        -1.65233e+56
          1143.05830	         6.73919e+57
          1143.86460	         1.11786e+58
          1144.67090	         2.88681e+58
          1145.47720	         3.06268e+57
          1146.28350	         1.59792e+58
          1147.08980	         1.74507e+58
          1147.89610	         7.34325e+57
          1148.70240	         1.37215e+58
          1149.50870	         1.01551e+58
          1150.31500	         1.35602e+58
          1151.12130	         9.43126e+57
          1151.92760	         1.17397e+57
          1152.73390	         5.61528e+57
          1153.54020	        -4.16606e+57
          1154.34650	         1.33947e+58
          1155.15280	         1.28417e+58
          1155.95910	         9.42628e+57
          1156.76540	         5.67192e+57
          1157.57170	        -1.19700e+57
          1158.37800	         9.41030e+57
          1159.18430	        -3.17238e+57
          1159.99060	         7.33113e+57
          1160.79690	         6.12596e+57
          1161.60320	         1.01520e+58
          1162.40950	         2.70969e+58
          1163.21580	         2.75491e+58
          1164.02210	         1.37861e+58
          1164.82840	         1.32262e+57
          1165.63470	         1.13877e+58
          1166.44100	         2.83013e+58
          1167.24730	         2.29748e+58
          1168.05360	         9.03197e+57
          1168.85990	         8.09509e+57
          1169.66620	         1.01758e+58
          1170.47250	         1.31886e+58
          1171.27880	         8.17017e+57
          1172.08510	         1.87356e+58
          1172.89140	         1.98707e+58
          1173.69770	         5.97281e+57
          1174.50400	         1.48363e+58
          1175.31030	         1.73971e+58
          1176.11660	         1.99541e+58
          1176.92290	         1.20696e+58
          1177.72920	         1.05781e+58
          1178.53550	         1.08874e+58
          1179.34180	         2.08557e+57
          1180.14810	         9.92329e+56
          1180.95440	         6.69078e+57
          1181.76070	         9.32869e+57
          1182.56700	         7.99485e+57
          1183.37330	         8.94785e+57
          1184.17960	         1.15653e+58
          1184.98590	         9.49864e+57
          1185.79220	         5.45466e+57
          1186.59850	         8.88901e+57
          1187.40480	         1.24523e+58
          1188.21110	         2.10715e+58
          1189.01740	         1.63441e+58
          1189.82370	         1.12417e+58
          1190.63000	         9.74475e+57
          1191.43630	         1.50381e+58
          1192.24260	         1.13373e+58
          1193.04890	         7.05315e+57
          1193.85520	         9.81565e+57
          1194.66150	         8.99661e+57
          1195.46780	         8.33381e+57
          1196.27410	         1.32201e+58
          1197.08040	         8.23935e+57
          1197.88670	         9.50835e+57
          1198.69300	         1.21329e+58
          1199.49930	         1.65058e+58
          1200.30560	         1.43763e+58
          1201.11190	         1.08865e+58
          1201.91820	         1.15367e+58
          1202.72450	         8.09700e+57
          1203.53080	         1.13613e+58
          1204.33710	         8.07789e+57
          1205.14340	         9.94609e+57
          1205.94970	         8.53891e+57
          1206.75600	         4.92638e+57
          1207.56230	         5.06000e+57
          1208.36860	         7.47937e+57
          1209.17490	         4.96090e+57
          1209.98120	         9.95174e+57
          1210.78750	         1.19105e+58
          1211.59380	         1.04757e+58
          1212.40010	         1.44826e+58
          1213.20640	         1.59411e+58
          1214.01270	         1.77314e+58
          1214.81900	         2.46129e+58
          1215.62530	         4.47942e+58
          1216.43160	         8.74740e+58
          1217.23790	         1.46028e+59
          1218.04420	         1.12512e+59
          1218.85050	         8.67050e+58
          1219.65680	         6.02710e+58
          1220.46310	         3.41920e+58
          1221.26940	         2.31775e+58
          1222.07570	         1.40503e+58
          1222.88200	         1.19020e+58
          1223.68830	         8.66922e+57
          1224.49460	         7.80392e+57
          1225.30090	         5.57685e+57
          1226.10720	         5.56526e+57
          1226.91350	         7.02210e+57
          1227.71980	         8.33103e+57
          1228.52610	         1.42434e+58
          1229.33240	         1.38346e+58
          1230.13870	         1.03732e+58
          1230.94500	         9.47938e+57
          1231.75130	         7.23849e+57
          1232.55760	         6.55703e+57
          1233.36390	         8.07088e+57
          1234.17020	         7.70420e+57
          1234.97650	         4.97590e+57
          1235.78280	         8.51167e+57
          1236.58910	         1.15939e+58
          1237.39540	         1.19972e+58
          1238.20170	         1.11111e+58
          1239.00800	         1.17477e+58
          1239.81430	         1.27221e+58
          1240.62060	         9.61952e+57
          1241.42690	         9.56841e+57
          1242.23320	         9.35234e+57
          1243.03950	         8.00986e+57
          1243.84580	         1.13770e+58
          1244.65210	         1.12883e+58
          1245.45840	         1.06172e+58
          1246.26470	         1.19940e+58
          1247.07100	         7.01476e+57
          1247.87730	         5.44767e+57
          1248.68360	         2.43075e+57
          1249.48990	         8.02892e+57
          1250.29620	         9.30901e+57
          1251.10250	         6.07225e+57
          1251.90880	         5.57478e+57
          1252.71510	         5.24815e+57
          1253.52140	         6.30092e+57
          1254.32770	         9.59056e+57
          1255.13400	         1.19251e+58
          1255.94030	         1.09632e+58
          1256.74660	         8.66639e+57
          1257.55290	         6.73421e+57
          1258.35920	         5.97733e+57
          1259.16550	         5.10327e+57
          1259.97180	         6.30717e+57
          1260.77810	         7.68024e+57
          1261.58440	         1.02747e+58
          1262.39070	         7.25457e+57
          1263.19700	         7.97017e+57
          1264.00330	         9.34511e+57
          1264.80960	         9.42772e+57
          1265.61590	         1.00484e+58
          1266.42220	         1.03746e+58
          1267.22850	         1.20524e+58
          1268.03480	         1.45023e+58
          1268.84110	         1.30448e+58
          1269.64740	         1.26660e+58
          1270.45370	         1.29174e+58
          1271.26000	         1.23179e+58
          1272.06630	         1.52986e+58
          1272.87260	         1.26694e+58
          1273.67890	         9.89106e+57
          1274.48520	         1.06073e+58
          1275.29150	         1.19245e+58
          1276.09780	         1.16343e+58
          1276.90410	         1.33659e+58
          1277.71040	         1.38004e+58
          1278.51670	         1.41431e+58
          1279.32300	         1.43821e+58
          1280.12930	         1.47648e+58
          1280.93560	         1.28979e+58
          1281.74190	         1.16656e+58
          1282.54820	         1.17268e+58
          1283.35450	         1.09381e+58
          1284.16080	         1.16753e+58
          1284.96710	         1.37692e+58
          1285.77340	         1.29949e+58
          1286.57970	         1.16741e+58
          1287.38600	         1.41562e+58
          1288.19230	         1.75173e+58
          1288.99860	         1.59638e+58
          1289.80490	         1.11229e+58
          1290.61120	         1.04983e+58
          1291.41750	         1.12067e+58
          1292.22380	         1.21182e+58
          1293.03010	         1.13587e+58
          1293.83640	         1.06983e+58
          1294.64270	         1.02240e+58
          1295.44900	         6.67731e+57
          1296.25530	         7.22562e+57
          1297.06160	         1.02763e+58
          1297.86790	         1.02018e+58
          1298.67420	         8.84642e+57
          1299.48050	         1.11912e+58
          1300.28680	         1.16253e+58
          1301.09310	         8.26841e+57
          1301.89940	         5.26455e+57
          1302.70570	         5.80996e+57
          1303.51200	         7.13341e+57
          1304.31830	         9.30394e+57
          1305.12460	         1.12848e+58
          1305.93090	         1.12838e+58
          1306.73720	         1.16015e+58
          1307.54350	         1.38123e+58
          1308.34980	         1.50916e+58
          1309.15610	         1.69633e+58
          1309.96240	         1.71368e+58
          1310.76870	         1.36102e+58
          1311.57500	         1.29318e+58
          1312.38130	         1.13055e+58
          1313.18760	         1.27640e+58
          1313.99390	         1.57240e+58
          1314.80020	         1.63494e+58
          1315.60650	         1.57434e+58
          1316.41280	         1.50093e+58
          1317.21910	         1.23799e+58
          1318.02540	         1.22009e+58
          1318.83170	         1.23725e+58
          1319.63800	         1.14742e+58
          1320.44430	         1.12733e+58
          1321.25060	         1.23562e+58
          1322.05690	         1.21977e+58
          1322.86320	         1.22311e+58
          1323.66950	         1.21473e+58
          1324.47580	         1.08723e+58
          1325.28210	         1.05357e+58
          1326.08840	         1.21385e+58
          1326.89470	         1.18957e+58
          1327.70100	         1.05666e+58
          1328.50730	         8.15585e+57
          1329.31360	         7.76511e+57
          1330.11990	         9.64691e+57
          1330.92620	         8.22486e+57
          1331.73250	         1.01385e+58
          1332.53880	         1.00393e+58
          1333.34510	         8.32112e+57
          1334.15140	         9.27606e+57
          1334.95770	         9.28219e+57
          1335.76400	         1.02630e+58
          1336.57030	         1.09604e+58
          1337.37660	         9.15422e+57
          1338.18290	         1.07613e+58
          1338.98920	         1.23449e+58
          1339.79550	         1.08638e+58
          1340.60180	         1.11842e+58
          1341.40810	         1.23237e+58
          1342.21440	         1.23226e+58
          1343.02070	         1.39262e+58
          1343.82700	         1.44427e+58
          1344.63330	         1.25222e+58
          1345.43960	         1.24134e+58
          1346.24590	         1.15783e+58
          1347.05220	         1.00988e+58
          1347.85850	         1.04076e+58
          1348.66480	         1.21250e+58
          1349.47110	         1.33973e+58
          1350.27740	         1.32109e+58
          1351.08370	         1.20022e+58
          1351.89000	         1.14934e+58
          1352.69630	         1.17282e+58
          1353.50260	         1.20865e+58
          1354.30890	         1.26122e+58
          1355.11520	         1.14342e+58
          1355.92150	         1.10070e+58
          1356.72780	         1.13234e+58
          1357.53410	         1.01010e+58
          1358.34040	         9.63203e+57
          1359.14670	         9.07694e+57
          1359.95300	         9.77595e+57
          1360.75930	         1.06728e+58
          1361.56560	         1.02955e+58
          1362.37190	         1.09757e+58
          1363.17820	         1.08591e+58
          1363.98450	         1.09407e+58
          1364.79080	         1.20184e+58
          1365.59710	         1.26706e+58
          1366.40340	         1.02605e+58
          1367.20970	         8.25281e+57
          1368.01600	         7.49670e+57
          1368.82230	         8.99629e+57
          1369.62860	         1.16600e+58
          1370.43490	         1.01642e+58
          1371.24120	         9.15258e+57
          1372.04750	         8.69132e+57
          1372.85380	         1.05534e+58
          1373.66010	         1.10812e+58
          1374.46640	         1.02806e+58
          1375.27270	         1.12756e+58
          1376.07900	         9.70349e+57
          1376.88530	         8.49720e+57
          1377.69160	         7.71716e+57
          1378.49790	         7.31765e+57
          1379.30420	         7.12538e+57
          1380.11050	         8.47609e+57
          1380.91680	         9.30517e+57
          1381.72310	         7.75910e+57
          1382.52940	         8.17878e+57
          1383.33570	         8.46816e+57
          1384.14200	         9.64338e+57
          1384.94830	         1.00921e+58
          1385.75460	         9.85393e+57
          1386.56090	         1.03647e+58
          1387.36720	         1.06140e+58
          1388.17350	         1.19295e+58
          1388.97980	         1.08833e+58
          1389.78610	         8.86938e+57
          1390.59240	         7.40767e+57
          1391.39870	         7.08075e+57
          1392.20500	         8.26221e+57
          1393.01130	         7.88880e+57
          1393.81760	         7.21498e+57
          1394.62390	         8.30174e+57
          1395.43020	         7.59749e+57
          1396.23650	         7.06473e+57
          1397.04280	         8.05669e+57
          1397.84910	         8.57487e+57
          1398.65540	         8.30662e+57
          1399.46170	         9.29828e+57
          1400.26800	         9.27061e+57
          1401.07430	         8.03294e+57
          1401.88060	         8.43089e+57
          1402.68690	         1.00175e+58
          1403.49320	         1.04694e+58
          1404.29950	         1.00511e+58
          1405.10580	         1.17104e+58
          1405.91210	         1.27585e+58
          1406.71840	         1.11407e+58
          1407.52470	         1.15023e+58
          1408.33100	         1.10044e+58
          1409.13730	         1.05602e+58
          1409.94360	         1.03675e+58
          1410.74990	         1.11451e+58
          1411.55620	         9.87937e+57
          1412.36250	         8.89636e+57
          1413.16880	         8.62291e+57
          1413.97510	         9.21388e+57
          1414.78140	         8.36729e+57
          1415.58770	         1.01257e+58
          1416.39400	         1.04357e+58
          1417.20030	         1.04656e+58
          1418.00660	         9.03944e+57
          1418.81290	         1.03874e+58
          1419.61920	         1.12269e+58
          1420.42550	         1.11165e+58
          1421.23180	         1.12296e+58
          1422.03810	         1.24281e+58
          1422.84440	         1.24365e+58
          1423.65070	         1.39887e+58
          1424.45700	         1.28101e+58
          1425.26330	         9.02604e+57
          1426.06960	         9.39708e+57
          1426.87590	         1.05300e+58
          1427.68220	         1.04683e+58
          1428.48850	         1.08499e+58
          1429.29480	         1.15614e+58
          1430.10110	         1.06243e+58
          1430.90740	         8.94967e+57
          1431.71370	         8.69696e+57
          1432.52000	         8.02088e+57
          1433.32630	         7.70467e+57
          1434.13260	         7.49666e+57
          1434.93890	         8.26839e+57
          1435.74520	         9.40515e+57
          1436.55150	         9.70401e+57
          1437.35780	         8.41728e+57
          1438.16410	         8.45746e+57
          1438.97040	         9.34303e+57
          1439.77670	         9.68458e+57
          1440.58300	         9.73248e+57
          1441.38930	         9.63137e+57
          1442.19560	         8.98911e+57
          1443.00190	         9.14214e+57
          1443.80820	         1.01055e+58
          1444.61450	         8.98679e+57
          1445.42080	         8.50504e+57
          1446.22710	         1.04534e+58
          1447.03340	         1.07680e+58
          1447.83970	         1.10645e+58
          1448.64600	         1.13125e+58
          1449.45230	         1.11736e+58
          1450.25860	         1.05451e+58
          1451.06490	         9.73517e+57
          1451.87120	         8.44320e+57
          1452.67750	         7.52922e+57
          1453.48380	         8.97873e+57
          1454.29010	         8.31485e+57
          1455.09640	         6.75022e+57
          1455.90270	         8.01552e+57
          1456.70900	         9.31810e+57
          1457.51530	         9.89783e+57
          1458.32160	         1.14465e+58
          1459.12790	         1.14628e+58
          1459.93420	         9.50843e+57
          1460.74050	         8.46669e+57
          1461.54680	         8.85213e+57
          1462.35310	         8.03303e+57
          1463.15940	         9.65261e+57
          1463.96570	         1.08236e+58
          1464.77200	         1.21363e+58
          1465.57830	         1.04772e+58
          1466.38460	         8.12735e+57
          1467.19090	         8.40889e+57
          1467.99720	         9.33735e+57
          1468.80350	         9.41570e+57
          1469.60980	         8.83120e+57
          1470.41610	         9.65029e+57
          1471.22240	         8.40896e+57
          1472.02870	         7.81618e+57
          1472.83500	         8.74782e+57
          1473.64130	         9.05684e+57
          1474.44760	         9.08060e+57
          1475.25390	         8.92843e+57
          1476.06020	         8.15221e+57
          1476.86650	         9.40381e+57
          1477.67280	         8.21418e+57
          1478.47910	         6.34630e+57
          1479.28540	         7.29072e+57
          1480.09170	         8.60759e+57
          1480.89800	         9.07025e+57
          1481.70430	         1.02004e+58
          1482.51060	         9.38631e+57
          1483.31690	         6.79535e+57
          1484.12320	         7.34008e+57
          1484.92950	         9.39309e+57
          1485.73580	         8.37571e+57
          1486.54210	         7.87685e+57
          1487.34840	         8.48901e+57
          1488.15470	         8.26478e+57
          1488.96100	         7.38491e+57
          1489.76730	         9.06416e+57
