#sample_38_stacked_spectrum_rest_UV-bands_median_H-alpha_noDC.txt
#median Lum: 1.65878e+42
#Rest-frame wavelength (A) | Luminosity (erg/s/A)
#
          1110.00000	         0.00000e+00
          1110.80630	        -2.70866e+59
          1111.61260	        -1.75241e+59
          1112.41890	        -1.98699e+59
          1113.22520	        -2.11262e+59
          1114.03150	        -2.98710e+59
          1114.83780	         2.12037e+58
          1115.64410	         2.38157e+59
          1116.45040	         3.39328e+59
          1117.25670	        -4.00075e+58
          1118.06300	         3.64438e+58
          1118.86930	         3.01946e+58
          1119.67560	         1.60906e+59
          1120.48190	         6.00076e+58
          1121.28820	        -1.44484e+59
          1122.09450	        -1.23158e+58
          1122.90080	        -1.19729e+58
          1123.70710	        -2.84947e+57
          1124.51340	         4.04964e+58
          1125.31970	        -2.88846e+58
          1126.12600	        -3.74287e+58
          1126.93230	        -2.29123e+58
          1127.73860	        -4.66654e+58
          1128.54490	        -4.32188e+57
          1129.35120	         7.92325e+57
          1130.15750	        -3.66884e+58
          1130.96380	        -2.11851e+58
          1131.77010	         5.82816e+58
          1132.57640	         4.89548e+58
          1133.38270	         1.93243e+58
          1134.18900	         1.00623e+58
          1134.99530	         1.22632e+58
          1135.80160	         1.36725e+58
          1136.60790	         3.52264e+58
          1137.41420	         6.88115e+57
          1138.22050	         3.47453e+58
          1139.02680	         1.72688e+58
          1139.83310	         3.05914e+58
          1140.63940	         1.89779e+58
          1141.44570	        -1.24804e+58
          1142.25200	         1.56697e+58
          1143.05830	         3.50262e+58
          1143.86460	         2.42682e+58
          1144.67090	         3.33972e+58
          1145.47720	         1.36324e+58
          1146.28350	         1.31613e+58
          1147.08980	         1.61090e+58
          1147.89610	         1.81343e+58
          1148.70240	         2.96629e+58
          1149.50870	         2.57421e+58
          1150.31500	         1.20749e+58
          1151.12130	         1.59000e+58
          1151.92760	         4.05532e+57
          1152.73390	         1.02785e+58
          1153.54020	         1.13643e+58
          1154.34650	         2.61606e+58
          1155.15280	         2.85623e+58
          1155.95910	         8.59412e+57
          1156.76540	         9.79094e+57
          1157.57170	         1.71314e+57
          1158.37800	        -6.80320e+56
          1159.18430	         7.10238e+57
          1159.99060	         1.79403e+58
          1160.79690	         6.89228e+57
          1161.60320	         1.18389e+58
          1162.40950	         1.86031e+58
          1163.21580	         1.71921e+58
          1164.02210	         1.36079e+58
          1164.82840	         7.22908e+57
          1165.63470	         1.75090e+58
          1166.44100	         2.68548e+58
          1167.24730	         1.88863e+58
          1168.05360	         8.22503e+57
          1168.85990	        -9.17594e+55
          1169.66620	         7.81917e+57
          1170.47250	         1.45972e+58
          1171.27880	         9.62493e+57
          1172.08510	         1.86543e+58
          1172.89140	         1.45519e+58
          1173.69770	         9.97529e+57
          1174.50400	         1.06730e+58
          1175.31030	         1.79973e+58
          1176.11660	         2.09180e+58
          1176.92290	         1.39347e+58
          1177.72920	         5.99274e+57
          1178.53550	         7.53485e+56
          1179.34180	        -2.15708e+57
          1180.14810	         5.95005e+57
          1180.95440	         1.23964e+58
          1181.76070	         9.16248e+57
          1182.56700	         5.22325e+57
          1183.37330	         6.90018e+57
          1184.17960	         9.78944e+57
          1184.98590	         8.20372e+57
          1185.79220	         9.47043e+57
          1186.59850	         9.99972e+57
          1187.40480	         1.14730e+58
          1188.21110	         2.17818e+58
          1189.01740	         1.50290e+58
          1189.82370	         1.12913e+58
          1190.63000	         9.29817e+57
          1191.43630	         9.64067e+57
          1192.24260	         8.84264e+57
          1193.04890	         1.44028e+58
          1193.85520	         1.49062e+58
          1194.66150	         6.97904e+57
          1195.46780	         1.35096e+58
          1196.27410	         1.57571e+58
          1197.08040	         1.14535e+58
          1197.88670	         1.33438e+58
          1198.69300	         1.60732e+58
          1199.49930	         1.43479e+58
          1200.30560	         1.07829e+58
          1201.11190	         8.01632e+57
          1201.91820	         6.70601e+57
          1202.72450	         7.93122e+57
          1203.53080	         1.66660e+58
          1204.33710	         1.01139e+58
          1205.14340	         6.34832e+57
          1205.94970	         4.11600e+57
          1206.75600	         4.09554e+57
          1207.56230	         6.93434e+57
          1208.36860	         5.85390e+57
          1209.17490	         2.84927e+57
          1209.98120	         5.04462e+57
          1210.78750	         5.07809e+57
          1211.59380	         1.11903e+58
          1212.40010	         1.81510e+58
          1213.20640	         2.03186e+58
          1214.01270	         2.06211e+58
          1214.81900	         2.89251e+58
          1215.62530	         4.50125e+58
          1216.43160	         8.75796e+58
          1217.23790	         1.53062e+59
          1218.04420	         1.15579e+59
          1218.85050	         8.80496e+58
          1219.65680	         5.95743e+58
          1220.46310	         3.38088e+58
          1221.26940	         2.37533e+58
          1222.07570	         1.56436e+58
          1222.88200	         1.21489e+58
          1223.68830	         1.20805e+58
          1224.49460	         6.16674e+57
          1225.30090	         5.98847e+57
          1226.10720	         7.00724e+57
          1226.91350	         7.33781e+57
          1227.71980	         7.82348e+57
          1228.52610	         1.15842e+58
          1229.33240	         9.58908e+57
          1230.13870	         8.80580e+57
          1230.94500	         8.13937e+57
          1231.75130	         4.89104e+57
          1232.55760	         9.77127e+57
          1233.36390	         1.03533e+58
          1234.17020	         1.08088e+58
          1234.97650	         8.26973e+57
          1235.78280	         8.71090e+57
          1236.58910	         7.92442e+57
          1237.39540	         8.79854e+57
          1238.20170	         9.56287e+57
          1239.00800	         1.10270e+58
          1239.81430	         1.43957e+58
          1240.62060	         1.35393e+58
          1241.42690	         1.15565e+58
          1242.23320	         1.29762e+58
          1243.03950	         8.06896e+57
          1243.84580	         6.14997e+57
          1244.65210	         9.49607e+57
          1245.45840	         9.88737e+57
          1246.26470	         9.45548e+57
          1247.07100	         9.16492e+57
          1247.87730	         7.68513e+57
          1248.68360	         5.97191e+57
          1249.48990	         1.09098e+58
          1250.29620	         9.61889e+57
          1251.10250	         8.03755e+57
          1251.90880	         7.14008e+57
          1252.71510	         6.71666e+57
          1253.52140	         6.79794e+57
          1254.32770	         1.01750e+58
          1255.13400	         1.46945e+58
          1255.94030	         1.09721e+58
          1256.74660	         8.40534e+57
          1257.55290	         1.19042e+58
          1258.35920	         1.09388e+58
          1259.16550	         6.43423e+57
          1259.97180	         4.27319e+57
          1260.77810	         7.71020e+57
          1261.58440	         9.01425e+57
          1262.39070	         7.51428e+57
          1263.19700	         7.35830e+57
          1264.00330	         9.97189e+57
          1264.80960	         9.88605e+57
          1265.61590	         1.26548e+58
          1266.42220	         1.44478e+58
          1267.22850	         1.17880e+58
          1268.03480	         1.33769e+58
          1268.84110	         1.32808e+58
          1269.64740	         1.16003e+58
          1270.45370	         1.26512e+58
          1271.26000	         1.27678e+58
          1272.06630	         1.19580e+58
          1272.87260	         1.23398e+58
          1273.67890	         1.40216e+58
          1274.48520	         1.35475e+58
          1275.29150	         1.33331e+58
          1276.09780	         1.07315e+58
          1276.90410	         1.29623e+58
          1277.71040	         1.34318e+58
          1278.51670	         1.32910e+58
          1279.32300	         1.45330e+58
          1280.12930	         1.38447e+58
          1280.93560	         1.33424e+58
          1281.74190	         1.30602e+58
          1282.54820	         1.24535e+58
          1283.35450	         1.02668e+58
          1284.16080	         1.14058e+58
          1284.96710	         1.46307e+58
          1285.77340	         1.39767e+58
          1286.57970	         1.34194e+58
          1287.38600	         1.65347e+58
          1288.19230	         1.94828e+58
          1288.99860	         1.65234e+58
          1289.80490	         1.06384e+58
          1290.61120	         1.37023e+58
          1291.41750	         1.45728e+58
          1292.22380	         9.75143e+57
          1293.03010	         1.10228e+58
          1293.83640	         1.24398e+58
          1294.64270	         1.11998e+58
          1295.44900	         5.68156e+57
          1296.25530	         3.96507e+57
          1297.06160	         1.05648e+58
          1297.86790	         1.34503e+58
          1298.67420	         1.14585e+58
          1299.48050	         1.11407e+58
          1300.28680	         1.25196e+58
          1301.09310	         1.00590e+58
          1301.89940	         4.18060e+57
          1302.70570	         6.91040e+57
          1303.51200	         8.95975e+57
          1304.31830	         9.83428e+57
          1305.12460	         1.03713e+58
          1305.93090	         1.02900e+58
          1306.73720	         1.13319e+58
          1307.54350	         1.34979e+58
          1308.34980	         1.46947e+58
          1309.15610	         1.57077e+58
          1309.96240	         1.47668e+58
          1310.76870	         1.25913e+58
          1311.57500	         1.02312e+58
          1312.38130	         8.63155e+57
          1313.18760	         1.30068e+58
          1313.99390	         1.40453e+58
          1314.80020	         1.48951e+58
          1315.60650	         1.32477e+58
          1316.41280	         1.25744e+58
          1317.21910	         1.17342e+58
          1318.02540	         1.11102e+58
          1318.83170	         1.32563e+58
          1319.63800	         1.34851e+58
          1320.44430	         1.26426e+58
          1321.25060	         1.31340e+58
          1322.05690	         1.34104e+58
          1322.86320	         1.24804e+58
          1323.66950	         1.09174e+58
          1324.47580	         9.38631e+57
          1325.28210	         9.84047e+57
          1326.08840	         1.07567e+58
          1326.89470	         1.27788e+58
          1327.70100	         1.14510e+58
          1328.50730	         8.77842e+57
          1329.31360	         1.04207e+58
          1330.11990	         9.61990e+57
          1330.92620	         8.31445e+57
          1331.73250	         1.06958e+58
          1332.53880	         1.03750e+58
          1333.34510	         8.95340e+57
          1334.15140	         7.88196e+57
          1334.95770	         8.20766e+57
          1335.76400	         1.03194e+58
          1336.57030	         1.15649e+58
          1337.37660	         1.05563e+58
          1338.18290	         9.73400e+57
          1338.98920	         1.12248e+58
          1339.79550	         1.05232e+58
          1340.60180	         1.15361e+58
          1341.40810	         1.24994e+58
          1342.21440	         1.22803e+58
          1343.02070	         1.39474e+58
          1343.82700	         1.37863e+58
          1344.63330	         1.29091e+58
          1345.43960	         1.39956e+58
          1346.24590	         1.26804e+58
          1347.05220	         1.23731e+58
          1347.85850	         1.19134e+58
          1348.66480	         1.16974e+58
          1349.47110	         1.37187e+58
          1350.27740	         1.31770e+58
          1351.08370	         1.29939e+58
          1351.89000	         1.14519e+58
          1352.69630	         1.03245e+58
          1353.50260	         1.09158e+58
          1354.30890	         1.17775e+58
          1355.11520	         1.23518e+58
          1355.92150	         1.06132e+58
          1356.72780	         8.48492e+57
          1357.53410	         8.91762e+57
          1358.34040	         9.96701e+57
          1359.14670	         1.03410e+58
          1359.95300	         1.18482e+58
          1360.75930	         1.18724e+58
          1361.56560	         9.88820e+57
          1362.37190	         1.06339e+58
          1363.17820	         1.13417e+58
          1363.98450	         1.31450e+58
          1364.79080	         1.44172e+58
          1365.59710	         1.31434e+58
          1366.40340	         1.29391e+58
          1367.20970	         1.01542e+58
          1368.01600	         9.23542e+57
          1368.82230	         9.18529e+57
          1369.62860	         9.93820e+57
          1370.43490	         9.09046e+57
          1371.24120	         1.04176e+58
          1372.04750	         9.30845e+57
          1372.85380	         8.42553e+57
          1373.66010	         1.04339e+58
          1374.46640	         1.08294e+58
          1375.27270	         1.04501e+58
          1376.07900	         1.03593e+58
          1376.88530	         9.67340e+57
          1377.69160	         7.93861e+57
          1378.49790	         6.43519e+57
          1379.30420	         6.77195e+57
          1380.11050	         8.49116e+57
          1380.91680	         9.00622e+57
          1381.72310	         8.52075e+57
          1382.52940	         9.81292e+57
          1383.33570	         9.87370e+57
          1384.14200	         9.56725e+57
          1384.94830	         1.08615e+58
          1385.75460	         1.09448e+58
          1386.56090	         1.12100e+58
          1387.36720	         1.21047e+58
          1388.17350	         1.40654e+58
          1388.97980	         1.13351e+58
          1389.78610	         7.97364e+57
          1390.59240	         7.20695e+57
          1391.39870	         6.98673e+57
          1392.20500	         9.21314e+57
          1393.01130	         8.37144e+57
          1393.81760	         8.44572e+57
          1394.62390	         7.94214e+57
          1395.43020	         6.56366e+57
          1396.23650	         6.71776e+57
          1397.04280	         8.12601e+57
          1397.84910	         8.55677e+57
          1398.65540	         8.57733e+57
          1399.46170	         1.07740e+58
          1400.26800	         9.63610e+57
          1401.07430	         7.16103e+57
          1401.88060	         7.40512e+57
          1402.68690	         1.00802e+58
          1403.49320	         9.85972e+57
          1404.29950	         8.27608e+57
          1405.10580	         9.53951e+57
          1405.91210	         1.09246e+58
          1406.71840	         1.08612e+58
          1407.52470	         9.77585e+57
          1408.33100	         9.21081e+57
          1409.13730	         1.02587e+58
          1409.94360	         1.05304e+58
          1410.74990	         9.96981e+57
          1411.55620	         1.06097e+58
          1412.36250	         9.64797e+57
          1413.16880	         9.26069e+57
          1413.97510	         8.58640e+57
          1414.78140	         7.24152e+57
          1415.58770	         9.02836e+57
          1416.39400	         1.04966e+58
          1417.20030	         1.09574e+58
          1418.00660	         9.17664e+57
          1418.81290	         9.62067e+57
          1419.61920	         1.04536e+58
          1420.42550	         1.17065e+58
          1421.23180	         1.25275e+58
          1422.03810	         1.21856e+58
          1422.84440	         1.18596e+58
          1423.65070	         1.22799e+58
          1424.45700	         1.10057e+58
          1425.26330	         8.42483e+57
          1426.06960	         8.60616e+57
          1426.87590	         9.53794e+57
          1427.68220	         1.00301e+58
          1428.48850	         1.10797e+58
          1429.29480	         1.07750e+58
          1430.10110	         9.64970e+57
          1430.90740	         8.19683e+57
          1431.71370	         8.66420e+57
          1432.52000	         9.14115e+57
          1433.32630	         8.74329e+57
          1434.13260	         8.25168e+57
          1434.93890	         7.87906e+57
          1435.74520	         8.56825e+57
          1436.55150	         9.96686e+57
          1437.35780	         8.96734e+57
          1438.16410	         9.47765e+57
          1438.97040	         9.04540e+57
          1439.77670	         8.77591e+57
          1440.58300	         9.50368e+57
          1441.38930	         9.34060e+57
          1442.19560	         9.13548e+57
          1443.00190	         9.66488e+57
          1443.80820	         1.01538e+58
          1444.61450	         9.21634e+57
          1445.42080	         8.90289e+57
          1446.22710	         1.04245e+58
          1447.03340	         9.77226e+57
          1447.83970	         9.17055e+57
          1448.64600	         1.00387e+58
          1449.45230	         1.11439e+58
          1450.25860	         1.09655e+58
          1451.06490	         1.01698e+58
          1451.87120	         8.93869e+57
          1452.67750	         7.21803e+57
          1453.48380	         8.82326e+57
          1454.29010	         8.40236e+57
          1455.09640	         6.75999e+57
          1455.90270	         7.43360e+57
          1456.70900	         7.69331e+57
          1457.51530	         9.58351e+57
          1458.32160	         1.31863e+58
          1459.12790	         1.23655e+58
          1459.93420	         9.94843e+57
          1460.74050	         8.75623e+57
          1461.54680	         7.69659e+57
          1462.35310	         6.59796e+57
          1463.15940	         9.21235e+57
          1463.96570	         1.20401e+58
          1464.77200	         1.27109e+58
          1465.57830	         1.04589e+58
          1466.38460	         8.86647e+57
          1467.19090	         8.81335e+57
          1467.99720	         9.63972e+57
          1468.80350	         9.94906e+57
          1469.60980	         1.00267e+58
          1470.41610	         1.03407e+58
          1471.22240	         8.99346e+57
          1472.02870	         9.70445e+57
          1472.83500	         9.21376e+57
          1473.64130	         1.02507e+58
          1474.44760	         1.05321e+58
          1475.25390	         8.35941e+57
          1476.06020	         7.49076e+57
          1476.86650	         8.27819e+57
          1477.67280	         9.08283e+57
          1478.47910	         7.32178e+57
          1479.28540	         7.18624e+57
          1480.09170	         8.03002e+57
          1480.89800	         7.91333e+57
          1481.70430	         7.78844e+57
          1482.51060	         7.29953e+57
          1483.31690	         6.99516e+57
          1484.12320	         6.92276e+57
          1484.92950	         7.05391e+57
          1485.73580	         8.22912e+57
          1486.54210	         8.86289e+57
          1487.34840	         9.11762e+57
          1488.15470	         8.05083e+57
          1488.96100	         8.20124e+57
          1489.76730	         8.67530e+57
