#sample_221_stacked_spectrum_rest_UV-bands_median_H-alpha_noDC.txt
#median Lum: 1.69696e+42
#Rest-frame wavelength (A) | Luminosity (erg/s/A)
#
          1110.00000	         0.00000e+00
          1110.80630	        -3.65162e+58
          1111.61260	         2.94727e+59
          1112.41890	        -3.29799e+58
          1113.22520	        -2.60734e+58
          1114.03150	        -4.06272e+58
          1114.83780	         2.32018e+59
          1115.64410	         1.79692e+59
          1116.45040	         1.72242e+59
          1117.25670	        -5.68113e+57
          1118.06300	         5.39476e+58
          1118.86930	        -4.42778e+58
          1119.67560	         9.31107e+58
          1120.48190	        -5.17992e+56
          1121.28820	        -2.06920e+59
          1122.09450	        -4.97017e+58
          1122.90080	         2.62640e+58
          1123.70710	         5.65173e+58
          1124.51340	         1.48952e+59
          1125.31970	        -2.89930e+58
          1126.12600	        -4.09393e+57
          1126.93230	        -3.49555e+58
          1127.73860	        -3.80037e+57
          1128.54490	        -2.46427e+58
          1129.35120	        -9.65696e+57
          1130.15750	         1.05791e+58
          1130.96380	         4.05471e+57
          1131.77010	         7.17934e+58
          1132.57640	         3.57040e+58
          1133.38270	         4.27060e+58
          1134.18900	         2.61095e+58
          1134.99530	        -3.41296e+57
          1135.80160	         2.36337e+58
          1136.60790	         1.37454e+58
          1137.41420	         7.55837e+57
          1138.22050	         6.17296e+58
          1139.02680	         4.41326e+58
          1139.83310	         1.86008e+58
          1140.63940	         2.67086e+58
          1141.44570	        -1.78834e+58
          1142.25200	        -6.39115e+57
          1143.05830	         2.65531e+58
          1143.86460	         4.49475e+58
          1144.67090	         1.37822e+58
          1145.47720	         6.72744e+57
          1146.28350	         1.58305e+58
          1147.08980	         9.37530e+57
          1147.89610	         2.82412e+58
          1148.70240	         3.58826e+58
          1149.50870	         2.77769e+58
          1150.31500	         2.09909e+58
          1151.12130	         7.82708e+57
          1151.92760	         4.28195e+57
          1152.73390	        -2.44937e+57
          1153.54020	         6.13167e+57
          1154.34650	         2.36074e+58
          1155.15280	         2.12334e+58
          1155.95910	         1.20319e+58
          1156.76540	         1.14414e+58
          1157.57170	        -2.03227e+57
          1158.37800	         7.45630e+57
          1159.18430	         1.40746e+58
          1159.99060	         8.95456e+57
          1160.79690	        -1.91973e+57
          1161.60320	         7.55546e+57
          1162.40950	         1.92925e+58
          1163.21580	         2.31889e+58
          1164.02210	         1.69501e+58
          1164.82840	         9.86705e+57
          1165.63470	         2.25062e+58
          1166.44100	         3.10161e+58
          1167.24730	         1.44464e+58
          1168.05360	         6.26385e+57
          1168.85990	         4.11983e+57
          1169.66620	         1.06185e+57
          1170.47250	         1.63297e+58
          1171.27880	         1.41589e+58
          1172.08510	         1.85597e+58
          1172.89140	         1.64298e+58
          1173.69770	         9.60220e+57
          1174.50400	         5.85711e+57
          1175.31030	         1.55067e+58
          1176.11660	         1.72451e+58
          1176.92290	         2.08947e+58
          1177.72920	         1.49967e+58
          1178.53550	         1.18447e+58
          1179.34180	         7.79720e+57
          1180.14810	         8.11269e+57
          1180.95440	         8.14563e+57
          1181.76070	         7.58846e+57
          1182.56700	         9.41565e+57
          1183.37330	         1.13184e+58
          1184.17960	         1.44281e+58
          1184.98590	         1.44417e+58
          1185.79220	         1.16693e+58
          1186.59850	         9.30802e+57
          1187.40480	         1.11775e+58
          1188.21110	         1.53949e+58
          1189.01740	         5.56354e+57
          1189.82370	         5.12277e+57
          1190.63000	         1.04611e+58
          1191.43630	         1.06972e+58
          1192.24260	         1.01368e+58
          1193.04890	         1.09403e+58
          1193.85520	         9.92532e+57
          1194.66150	         7.19846e+57
          1195.46780	         1.32983e+58
          1196.27410	         1.70330e+58
          1197.08040	         9.89798e+57
          1197.88670	         1.62258e+58
          1198.69300	         1.36180e+58
          1199.49930	         1.74058e+58
          1200.30560	         1.66355e+58
          1201.11190	         8.59921e+57
          1201.91820	         8.43298e+57
          1202.72450	         1.01585e+58
          1203.53080	         1.40728e+58
          1204.33710	         9.07573e+57
          1205.14340	         8.27153e+57
          1205.94970	         4.12845e+57
          1206.75600	         5.09093e+57
          1207.56230	         6.60358e+57
          1208.36860	         7.48985e+57
          1209.17490	         1.05238e+58
          1209.98120	         6.43962e+57
          1210.78750	         9.01753e+57
          1211.59380	         9.84376e+57
          1212.40010	         1.49198e+58
          1213.20640	         2.20483e+58
          1214.01270	         2.36869e+58
          1214.81900	         2.45637e+58
          1215.62530	         4.57851e+58
          1216.43160	         9.43397e+58
          1217.23790	         1.53347e+59
          1218.04420	         1.09907e+59
          1218.85050	         8.28568e+58
          1219.65680	         5.75187e+58
          1220.46310	         3.51600e+58
          1221.26940	         2.27385e+58
          1222.07570	         9.28826e+57
          1222.88200	         1.10146e+58
          1223.68830	         9.57802e+57
          1224.49460	         6.85251e+57
          1225.30090	         6.87580e+57
          1226.10720	         6.76146e+57
          1226.91350	         8.48449e+57
          1227.71980	         1.06309e+58
          1228.52610	         1.29239e+58
          1229.33240	         1.11093e+58
          1230.13870	         1.05853e+58
          1230.94500	         8.79226e+57
          1231.75130	         4.43493e+57
          1232.55760	         8.78406e+57
          1233.36390	         7.85795e+57
          1234.17020	         7.58915e+57
          1234.97650	         7.05426e+57
          1235.78280	         7.25714e+57
          1236.58910	         9.19443e+57
          1237.39540	         1.10792e+58
          1238.20170	         1.03768e+58
          1239.00800	         9.54274e+57
          1239.81430	         1.47610e+58
          1240.62060	         1.46564e+58
          1241.42690	         1.06478e+58
          1242.23320	         1.06227e+58
          1243.03950	         7.93366e+57
          1243.84580	         8.52295e+57
          1244.65210	         9.33427e+57
          1245.45840	         8.91268e+57
          1246.26470	         9.41170e+57
          1247.07100	         8.98779e+57
          1247.87730	         6.21435e+57
          1248.68360	         3.31415e+57
          1249.48990	         7.83616e+57
          1250.29620	         9.68897e+57
          1251.10250	         8.80895e+57
          1251.90880	         4.70726e+57
          1252.71510	         4.31276e+57
          1253.52140	         6.19078e+57
          1254.32770	         1.01726e+58
          1255.13400	         1.10996e+58
          1255.94030	         9.91584e+57
          1256.74660	         1.04042e+58
          1257.55290	         1.05307e+58
          1258.35920	         7.26152e+57
          1259.16550	         5.06196e+57
          1259.97180	         3.26685e+57
          1260.77810	         6.36339e+57
          1261.58440	         9.12706e+57
          1262.39070	         6.97515e+57
          1263.19700	         8.33890e+57
          1264.00330	         9.80331e+57
          1264.80960	         1.12227e+58
          1265.61590	         1.28251e+58
          1266.42220	         1.29949e+58
          1267.22850	         1.36948e+58
          1268.03480	         1.54385e+58
          1268.84110	         1.46867e+58
          1269.64740	         1.37149e+58
          1270.45370	         1.31682e+58
          1271.26000	         1.20961e+58
          1272.06630	         1.35623e+58
          1272.87260	         1.20579e+58
          1273.67890	         1.24334e+58
          1274.48520	         1.36168e+58
          1275.29150	         1.35101e+58
          1276.09780	         1.11434e+58
          1276.90410	         1.58514e+58
          1277.71040	         1.34124e+58
          1278.51670	         1.02271e+58
          1279.32300	         1.29099e+58
          1280.12930	         1.34664e+58
          1280.93560	         1.06731e+58
          1281.74190	         1.01326e+58
          1282.54820	         1.15574e+58
          1283.35450	         1.01630e+58
          1284.16080	         1.11706e+58
          1284.96710	         1.45010e+58
          1285.77340	         1.28312e+58
          1286.57970	         1.10974e+58
          1287.38600	         1.71497e+58
          1288.19230	         1.92660e+58
          1288.99860	         1.67557e+58
          1289.80490	         1.13973e+58
          1290.61120	         1.22541e+58
          1291.41750	         1.33630e+58
          1292.22380	         1.16242e+58
          1293.03010	         1.07357e+58
          1293.83640	         1.11254e+58
          1294.64270	         9.56984e+57
          1295.44900	         5.12321e+57
          1296.25530	         6.43414e+57
          1297.06160	         9.40918e+57
          1297.86790	         1.12941e+58
          1298.67420	         1.06510e+58
          1299.48050	         9.80976e+57
          1300.28680	         9.92973e+57
          1301.09310	         8.00450e+57
          1301.89940	         4.23624e+57
          1302.70570	         6.50349e+57
          1303.51200	         8.82828e+57
          1304.31830	         9.84975e+57
          1305.12460	         1.04014e+58
          1305.93090	         1.15147e+58
          1306.73720	         1.13549e+58
          1307.54350	         1.35262e+58
          1308.34980	         1.56983e+58
          1309.15610	         1.53749e+58
          1309.96240	         1.37850e+58
          1310.76870	         1.20658e+58
          1311.57500	         1.39584e+58
          1312.38130	         1.59524e+58
          1313.18760	         1.70804e+58
          1313.99390	         1.61653e+58
          1314.80020	         1.52794e+58
          1315.60650	         1.51466e+58
          1316.41280	         1.23994e+58
          1317.21910	         1.12834e+58
          1318.02540	         1.25692e+58
          1318.83170	         1.16268e+58
          1319.63800	         1.00323e+58
          1320.44430	         9.07312e+57
          1321.25060	         1.17937e+58
          1322.05690	         1.35866e+58
          1322.86320	         1.21927e+58
          1323.66950	         1.06330e+58
          1324.47580	         8.50922e+57
          1325.28210	         1.06395e+58
          1326.08840	         1.19227e+58
          1326.89470	         1.21554e+58
          1327.70100	         1.09621e+58
          1328.50730	         7.41913e+57
          1329.31360	         9.71367e+57
          1330.11990	         1.06403e+58
          1330.92620	         9.59504e+57
          1331.73250	         1.12128e+58
          1332.53880	         1.05419e+58
          1333.34510	         9.50025e+57
          1334.15140	         9.31781e+57
          1334.95770	         9.78424e+57
          1335.76400	         1.05413e+58
          1336.57030	         1.03763e+58
          1337.37660	         8.92868e+57
          1338.18290	         1.01390e+58
          1338.98920	         1.02064e+58
          1339.79550	         1.04297e+58
          1340.60180	         1.11362e+58
          1341.40810	         1.17748e+58
          1342.21440	         1.06573e+58
          1343.02070	         1.00431e+58
          1343.82700	         1.38256e+58
          1344.63330	         1.38303e+58
          1345.43960	         1.26113e+58
          1346.24590	         1.14786e+58
          1347.05220	         1.22640e+58
          1347.85850	         1.20117e+58
          1348.66480	         1.32515e+58
          1349.47110	         1.35538e+58
          1350.27740	         1.22256e+58
          1351.08370	         1.09962e+58
          1351.89000	         1.13892e+58
          1352.69630	         1.13749e+58
          1353.50260	         1.09001e+58
          1354.30890	         1.07403e+58
          1355.11520	         1.00625e+58
          1355.92150	         1.01415e+58
          1356.72780	         1.08712e+58
          1357.53410	         1.11157e+58
          1358.34040	         1.17045e+58
          1359.14670	         1.16673e+58
          1359.95300	         1.13584e+58
          1360.75930	         1.19872e+58
          1361.56560	         1.15809e+58
          1362.37190	         1.22348e+58
          1363.17820	         1.11696e+58
          1363.98450	         1.23188e+58
          1364.79080	         1.39467e+58
          1365.59710	         1.30129e+58
          1366.40340	         1.18586e+58
          1367.20970	         1.04448e+58
          1368.01600	         8.85314e+57
          1368.82230	         8.35868e+57
          1369.62860	         9.54260e+57
          1370.43490	         9.26113e+57
          1371.24120	         9.73612e+57
          1372.04750	         9.80048e+57
          1372.85380	         1.09254e+58
          1373.66010	         1.14314e+58
          1374.46640	         1.16985e+58
          1375.27270	         1.13334e+58
          1376.07900	         9.28470e+57
          1376.88530	         9.69348e+57
          1377.69160	         8.94858e+57
          1378.49790	         6.55594e+57
          1379.30420	         6.43718e+57
          1380.11050	         8.36331e+57
          1380.91680	         8.39929e+57
          1381.72310	         8.72078e+57
          1382.52940	         8.45322e+57
          1383.33570	         7.89044e+57
          1384.14200	         8.45407e+57
          1384.94830	         1.14695e+58
          1385.75460	         1.17750e+58
          1386.56090	         1.14300e+58
          1387.36720	         1.08852e+58
          1388.17350	         1.30429e+58
          1388.97980	         1.10654e+58
          1389.78610	         9.53801e+57
          1390.59240	         8.96919e+57
          1391.39870	         8.01150e+57
          1392.20500	         9.91844e+57
          1393.01130	         8.36746e+57
          1393.81760	         7.05575e+57
          1394.62390	         8.54005e+57
          1395.43020	         8.73256e+57
          1396.23650	         7.76939e+57
          1397.04280	         8.18204e+57
          1397.84910	         8.67896e+57
          1398.65540	         8.73497e+57
          1399.46170	         8.71019e+57
          1400.26800	         8.07403e+57
          1401.07430	         7.96689e+57
          1401.88060	         8.72407e+57
          1402.68690	         9.32092e+57
          1403.49320	         9.31637e+57
          1404.29950	         9.28734e+57
          1405.10580	         1.08724e+58
          1405.91210	         1.14383e+58
          1406.71840	         1.07557e+58
          1407.52470	         1.02585e+58
          1408.33100	         1.01639e+58
          1409.13730	         1.14887e+58
          1409.94360	         1.28712e+58
          1410.74990	         1.25223e+58
          1411.55620	         9.67404e+57
          1412.36250	         8.75911e+57
          1413.16880	         8.93086e+57
          1413.97510	         8.56105e+57
          1414.78140	         8.93024e+57
          1415.58770	         1.12278e+58
          1416.39400	         1.16801e+58
          1417.20030	         1.14402e+58
          1418.00660	         1.00301e+58
          1418.81290	         1.11562e+58
          1419.61920	         1.07116e+58
          1420.42550	         1.12787e+58
          1421.23180	         1.38814e+58
          1422.03810	         1.26916e+58
          1422.84440	         1.15235e+58
          1423.65070	         1.41772e+58
          1424.45700	         1.28585e+58
          1425.26330	         8.89113e+57
          1426.06960	         8.40910e+57
          1426.87590	         9.73391e+57
          1427.68220	         1.12095e+58
          1428.48850	         1.16425e+58
          1429.29480	         1.11701e+58
          1430.10110	         1.04216e+58
          1430.90740	         8.85899e+57
          1431.71370	         8.51349e+57
          1432.52000	         8.95297e+57
          1433.32630	         8.77110e+57
          1434.13260	         7.82093e+57
          1434.93890	         7.98905e+57
          1435.74520	         9.50929e+57
          1436.55150	         9.58579e+57
          1437.35780	         9.08270e+57
          1438.16410	         9.20336e+57
          1438.97040	         8.74067e+57
          1439.77670	         8.97822e+57
          1440.58300	         8.50710e+57
          1441.38930	         8.94758e+57
          1442.19560	         9.86466e+57
          1443.00190	         9.32105e+57
          1443.80820	         1.03829e+58
          1444.61450	         9.16978e+57
          1445.42080	         8.14208e+57
          1446.22710	         9.88804e+57
          1447.03340	         1.07521e+58
          1447.83970	         1.09683e+58
          1448.64600	         1.07947e+58
          1449.45230	         9.39310e+57
          1450.25860	         9.38113e+57
          1451.06490	         9.02062e+57
          1451.87120	         7.87682e+57
          1452.67750	         8.08740e+57
          1453.48380	         9.67228e+57
          1454.29010	         8.22156e+57
          1455.09640	         7.99340e+57
          1455.90270	         9.93984e+57
          1456.70900	         8.38669e+57
          1457.51530	         9.74350e+57
          1458.32160	         1.22323e+58
          1459.12790	         1.22846e+58
          1459.93420	         1.14841e+58
          1460.74050	         8.66828e+57
          1461.54680	         8.17057e+57
          1462.35310	         8.11624e+57
          1463.15940	         9.80134e+57
          1463.96570	         1.08499e+58
          1464.77200	         1.17784e+58
          1465.57830	         1.00770e+58
          1466.38460	         8.64976e+57
          1467.19090	         8.26293e+57
          1467.99720	         7.79922e+57
          1468.80350	         8.96384e+57
          1469.60980	         9.20920e+57
          1470.41610	         1.00298e+58
          1471.22240	         9.66599e+57
          1472.02870	         1.01687e+58
          1472.83500	         1.12547e+58
          1473.64130	         1.07236e+58
          1474.44760	         9.06787e+57
          1475.25390	         8.71899e+57
          1476.06020	         8.66039e+57
          1476.86650	         8.60550e+57
          1477.67280	         7.33690e+57
          1478.47910	         7.19152e+57
          1479.28540	         7.48477e+57
          1480.09170	         8.29375e+57
          1480.89800	         8.38546e+57
          1481.70430	         8.50691e+57
          1482.51060	         8.15045e+57
          1483.31690	         8.08800e+57
          1484.12320	         8.00381e+57
          1484.92950	         7.03039e+57
          1485.73580	         7.42663e+57
          1486.54210	         8.72442e+57
          1487.34840	         9.10977e+57
          1488.15470	         9.53898e+57
          1488.96100	         1.04721e+58
          1489.76730	         1.01876e+58
