#sample_58_stacked_spectrum_rest_UV-bands_median_H-alpha_noDC.txt
#median Lum: 1.71458e+42
#Rest-frame wavelength (A) | Luminosity (erg/s/A)
#
          1110.00000	         0.00000e+00
          1110.80630	         2.25439e+59
          1111.61260	         3.25463e+59
          1112.41890	         1.75377e+59
          1113.22520	         8.55963e+58
          1114.03150	         6.07009e+58
          1114.83780	         9.86119e+58
          1115.64410	         2.35040e+59
          1116.45040	         2.64662e+59
          1117.25670	        -2.23560e+58
          1118.06300	         7.71461e+58
          1118.86930	        -7.72566e+57
          1119.67560	         4.79071e+58
          1120.48190	        -4.89632e+58
          1121.28820	        -1.49854e+59
          1122.09450	         8.78775e+58
          1122.90080	         1.09729e+58
          1123.70710	         2.56998e+58
          1124.51340	         6.86825e+58
          1125.31970	         6.08130e+58
          1126.12600	         1.77843e+58
          1126.93230	        -4.71998e+58
          1127.73860	        -2.22722e+58
          1128.54490	         6.44747e+57
          1129.35120	         1.16321e+57
          1130.15750	        -1.74271e+58
          1130.96380	        -2.36331e+58
          1131.77010	        -4.38947e+57
          1132.57640	         1.13528e+58
          1133.38270	         1.23588e+58
          1134.18900	         1.23239e+58
          1134.99530	        -1.18658e+58
          1135.80160	         5.68726e+57
          1136.60790	         9.64966e+57
          1137.41420	         6.64888e+57
          1138.22050	         3.32872e+58
          1139.02680	         2.63340e+58
          1139.83310	         2.16850e+58
          1140.63940	         1.49560e+58
          1141.44570	        -1.48591e+58
          1142.25200	        -1.19829e+58
          1143.05830	         1.33197e+58
          1143.86460	         2.63746e+58
          1144.67090	         2.67009e+58
          1145.47720	         1.29664e+58
          1146.28350	         2.08913e+58
          1147.08980	         1.49406e+58
          1147.89610	         1.43646e+58
          1148.70240	         3.17428e+58
          1149.50870	         3.40778e+58
          1150.31500	         2.24545e+58
          1151.12130	         1.74743e+58
          1151.92760	         4.52479e+57
          1152.73390	        -2.15831e+57
          1153.54020	         8.48765e+57
          1154.34650	         1.30543e+58
          1155.15280	         1.09949e+58
          1155.95910	         1.17245e+58
          1156.76540	         1.62046e+58
          1157.57170	         2.50097e+57
          1158.37800	         6.46818e+56
          1159.18430	        -8.37620e+57
          1159.99060	         4.90291e+57
          1160.79690	         1.33501e+58
          1161.60320	         1.27538e+58
          1162.40950	         1.14901e+58
          1163.21580	         1.82521e+58
          1164.02210	         1.55321e+58
          1164.82840	         1.31881e+58
          1165.63470	         2.02863e+58
          1166.44100	         2.60319e+58
          1167.24730	         1.64746e+58
          1168.05360	         8.22744e+57
          1168.85990	         4.20968e+57
          1169.66620	         1.00375e+58
          1170.47250	         1.48627e+58
          1171.27880	         1.30799e+58
          1172.08510	         1.56049e+58
          1172.89140	         3.87364e+57
          1173.69770	         1.10729e+58
          1174.50400	         1.86071e+58
          1175.31030	         1.43311e+58
          1176.11660	         1.56351e+58
          1176.92290	         1.23163e+58
          1177.72920	         1.10895e+58
          1178.53550	         2.17735e+57
          1179.34180	         1.45395e+57
          1180.14810	         5.94879e+57
          1180.95440	         1.06478e+58
          1181.76070	         1.50848e+57
          1182.56700	         1.86111e+57
          1183.37330	         7.65624e+57
          1184.17960	         1.16505e+58
          1184.98590	         1.30454e+58
          1185.79220	         9.71544e+57
          1186.59850	         1.43899e+58
          1187.40480	         8.19649e+57
          1188.21110	         1.17761e+58
          1189.01740	         1.22110e+58
          1189.82370	         1.20114e+58
          1190.63000	         1.47315e+58
          1191.43630	         1.14299e+58
          1192.24260	         8.90302e+57
          1193.04890	         1.38997e+58
          1193.85520	         1.26638e+58
          1194.66150	         9.11908e+57
          1195.46780	         1.54804e+58
          1196.27410	         1.78190e+58
          1197.08040	         9.29658e+57
          1197.88670	         1.33043e+58
          1198.69300	         1.33273e+58
          1199.49930	         1.46519e+58
          1200.30560	         1.30254e+58
          1201.11190	         9.95599e+57
          1201.91820	         1.11089e+58
          1202.72450	         9.12030e+57
          1203.53080	         1.26398e+58
          1204.33710	         7.46272e+57
          1205.14340	         1.91988e+57
          1205.94970	         7.00847e+57
          1206.75600	         5.50117e+57
          1207.56230	         4.31184e+57
          1208.36860	         8.94831e+57
          1209.17490	         7.84598e+57
          1209.98120	         1.26984e+58
          1210.78750	         7.45188e+57
          1211.59380	         1.10239e+58
          1212.40010	         1.92584e+58
          1213.20640	         2.08791e+58
          1214.01270	         1.95170e+58
          1214.81900	         2.53004e+58
          1215.62530	         4.33499e+58
          1216.43160	         8.76590e+58
          1217.23790	         1.50073e+59
          1218.04420	         1.16885e+59
          1218.85050	         8.42206e+58
          1219.65680	         5.44487e+58
          1220.46310	         2.85678e+58
          1221.26940	         1.97612e+58
          1222.07570	         1.35114e+58
          1222.88200	         1.12670e+58
          1223.68830	         8.17360e+57
          1224.49460	         6.99533e+57
          1225.30090	         7.30212e+57
          1226.10720	         7.00531e+57
          1226.91350	         6.52954e+57
          1227.71980	         8.70589e+57
          1228.52610	         1.34812e+58
          1229.33240	         1.12942e+58
          1230.13870	         1.33924e+58
          1230.94500	         9.76016e+57
          1231.75130	         7.81156e+57
          1232.55760	         8.52047e+57
          1233.36390	         8.77459e+57
          1234.17020	         1.35385e+58
          1234.97650	         1.12041e+58
          1235.78280	         9.72605e+57
          1236.58910	         8.92782e+57
          1237.39540	         1.07860e+58
          1238.20170	         9.77489e+57
          1239.00800	         1.37643e+58
          1239.81430	         1.68533e+58
          1240.62060	         1.14491e+58
          1241.42690	         1.34533e+58
          1242.23320	         1.26193e+58
          1243.03950	         6.97969e+57
          1243.84580	         7.77096e+57
          1244.65210	         1.01313e+58
          1245.45840	         8.47122e+57
          1246.26470	         7.58264e+57
          1247.07100	         6.39017e+57
          1247.87730	         6.22052e+57
          1248.68360	         3.43113e+57
          1249.48990	         7.29780e+57
          1250.29620	         8.13412e+57
          1251.10250	         4.51182e+57
          1251.90880	         1.85885e+57
          1252.71510	         3.81155e+57
          1253.52140	         5.90378e+57
          1254.32770	         9.21795e+57
          1255.13400	         1.11657e+58
          1255.94030	         9.70699e+57
          1256.74660	         8.89190e+57
          1257.55290	         1.16461e+58
          1258.35920	         9.80041e+57
          1259.16550	         7.70946e+57
          1259.97180	         5.66075e+57
          1260.77810	         8.31072e+57
          1261.58440	         1.09222e+58
          1262.39070	         5.77936e+57
          1263.19700	         7.04343e+57
          1264.00330	         1.11116e+58
          1264.80960	         1.23141e+58
          1265.61590	         1.14074e+58
          1266.42220	         1.35473e+58
          1267.22850	         1.29935e+58
          1268.03480	         1.21276e+58
          1268.84110	         1.34024e+58
          1269.64740	         1.34967e+58
          1270.45370	         1.23233e+58
          1271.26000	         1.23154e+58
          1272.06630	         1.22591e+58
          1272.87260	         1.16055e+58
          1273.67890	         1.46466e+58
          1274.48520	         1.33910e+58
          1275.29150	         1.26795e+58
          1276.09780	         1.39461e+58
          1276.90410	         1.65440e+58
          1277.71040	         1.29991e+58
          1278.51670	         1.10100e+58
          1279.32300	         1.40870e+58
          1280.12930	         1.41166e+58
          1280.93560	         1.20895e+58
          1281.74190	         1.20560e+58
          1282.54820	         1.25237e+58
          1283.35450	         1.15221e+58
          1284.16080	         1.19495e+58
          1284.96710	         1.33100e+58
          1285.77340	         1.23029e+58
          1286.57970	         1.44204e+58
          1287.38600	         1.67922e+58
          1288.19230	         1.76566e+58
          1288.99860	         1.64320e+58
          1289.80490	         9.89087e+57
          1290.61120	         1.18653e+58
          1291.41750	         1.64175e+58
          1292.22380	         1.43766e+58
          1293.03010	         1.04708e+58
          1293.83640	         1.23325e+58
          1294.64270	         1.07051e+58
          1295.44900	         6.98624e+57
          1296.25530	         8.35906e+57
          1297.06160	         9.47914e+57
          1297.86790	         1.05051e+58
          1298.67420	         1.12373e+58
          1299.48050	         1.10180e+58
          1300.28680	         1.10554e+58
          1301.09310	         9.12293e+57
          1301.89940	         4.52429e+57
          1302.70570	         6.09036e+57
          1303.51200	         7.98107e+57
          1304.31830	         9.93313e+57
          1305.12460	         1.16225e+58
          1305.93090	         1.07482e+58
          1306.73720	         1.13250e+58
          1307.54350	         1.56759e+58
          1308.34980	         1.51210e+58
          1309.15610	         1.33567e+58
          1309.96240	         1.34981e+58
          1310.76870	         1.30864e+58
          1311.57500	         1.06717e+58
          1312.38130	         9.82003e+57
          1313.18760	         1.33602e+58
          1313.99390	         1.69705e+58
          1314.80020	         1.76486e+58
          1315.60650	         1.56471e+58
          1316.41280	         1.45000e+58
          1317.21910	         1.28792e+58
          1318.02540	         1.30146e+58
          1318.83170	         1.34192e+58
          1319.63800	         1.24201e+58
          1320.44430	         1.13295e+58
          1321.25060	         1.26651e+58
          1322.05690	         1.28494e+58
          1322.86320	         1.22194e+58
          1323.66950	         1.18118e+58
          1324.47580	         1.00838e+58
          1325.28210	         9.83059e+57
          1326.08840	         1.19227e+58
          1326.89470	         1.29926e+58
          1327.70100	         1.10709e+58
          1328.50730	         8.56831e+57
          1329.31360	         9.40550e+57
          1330.11990	         1.07213e+58
          1330.92620	         1.03078e+58
          1331.73250	         1.04828e+58
          1332.53880	         1.02629e+58
          1333.34510	         9.31873e+57
          1334.15140	         9.75101e+57
          1334.95770	         9.35342e+57
          1335.76400	         1.03962e+58
          1336.57030	         1.05818e+58
          1337.37660	         9.38474e+57
          1338.18290	         8.61827e+57
          1338.98920	         9.85503e+57
          1339.79550	         1.13430e+58
          1340.60180	         1.20255e+58
          1341.40810	         1.42351e+58
          1342.21440	         1.17433e+58
          1343.02070	         1.06560e+58
          1343.82700	         1.37646e+58
          1344.63330	         1.34054e+58
          1345.43960	         1.24008e+58
          1346.24590	         1.07548e+58
          1347.05220	         1.27149e+58
          1347.85850	         9.97287e+57
          1348.66480	         1.00933e+58
          1349.47110	         1.15951e+58
          1350.27740	         1.13861e+58
          1351.08370	         1.15395e+58
          1351.89000	         1.15138e+58
          1352.69630	         1.12212e+58
          1353.50260	         1.24954e+58
          1354.30890	         1.24917e+58
          1355.11520	         1.21279e+58
          1355.92150	         9.93179e+57
          1356.72780	         9.03578e+57
          1357.53410	         9.97608e+57
          1358.34040	         1.07241e+58
          1359.14670	         1.10249e+58
          1359.95300	         1.04873e+58
          1360.75930	         1.10848e+58
          1361.56560	         1.08972e+58
          1362.37190	         9.91192e+57
          1363.17820	         1.02739e+58
          1363.98450	         1.16682e+58
          1364.79080	         1.33790e+58
          1365.59710	         1.41379e+58
          1366.40340	         1.24569e+58
          1367.20970	         1.08034e+58
          1368.01600	         9.88145e+57
          1368.82230	         9.19805e+57
          1369.62860	         9.22726e+57
          1370.43490	         1.05061e+58
          1371.24120	         1.09609e+58
          1372.04750	         9.52627e+57
          1372.85380	         1.02770e+58
          1373.66010	         1.08601e+58
          1374.46640	         1.17079e+58
          1375.27270	         1.09803e+58
          1376.07900	         9.53434e+57
          1376.88530	         8.57408e+57
          1377.69160	         8.48163e+57
          1378.49790	         7.48570e+57
          1379.30420	         6.90813e+57
          1380.11050	         8.63555e+57
          1380.91680	         9.20330e+57
          1381.72310	         8.58753e+57
          1382.52940	         7.99685e+57
          1383.33570	         8.68029e+57
          1384.14200	         9.40496e+57
          1384.94830	         1.07564e+58
          1385.75460	         9.90604e+57
          1386.56090	         9.87023e+57
          1387.36720	         1.00807e+58
          1388.17350	         1.24252e+58
          1388.97980	         1.23263e+58
          1389.78610	         1.01590e+58
          1390.59240	         8.46418e+57
          1391.39870	         7.66906e+57
          1392.20500	         9.38360e+57
          1393.01130	         8.03306e+57
          1393.81760	         6.91497e+57
          1394.62390	         7.56033e+57
          1395.43020	         7.09077e+57
          1396.23650	         5.79709e+57
          1397.04280	         6.73555e+57
          1397.84910	         9.14464e+57
          1398.65540	         8.80646e+57
          1399.46170	         9.66864e+57
          1400.26800	         7.70677e+57
          1401.07430	         7.52126e+57
          1401.88060	         8.29959e+57
          1402.68690	         1.00215e+58
          1403.49320	         9.99078e+57
          1404.29950	         9.65056e+57
          1405.10580	         1.04225e+58
          1405.91210	         1.08389e+58
          1406.71840	         1.06991e+58
          1407.52470	         1.05256e+58
          1408.33100	         1.08934e+58
          1409.13730	         1.19390e+58
          1409.94360	         1.10790e+58
          1410.74990	         1.04803e+58
          1411.55620	         1.04279e+58
          1412.36250	         8.62194e+57
          1413.16880	         7.68283e+57
          1413.97510	         8.06932e+57
          1414.78140	         8.64629e+57
          1415.58770	         1.04528e+58
          1416.39400	         1.18974e+58
          1417.20030	         1.12226e+58
          1418.00660	         1.01714e+58
          1418.81290	         1.08743e+58
          1419.61920	         1.11397e+58
          1420.42550	         1.25649e+58
          1421.23180	         1.32453e+58
          1422.03810	         1.41640e+58
          1422.84440	         1.14437e+58
          1423.65070	         1.20992e+58
          1424.45700	         1.11709e+58
          1425.26330	         7.66364e+57
          1426.06960	         8.40024e+57
          1426.87590	         1.03070e+58
          1427.68220	         1.00391e+58
          1428.48850	         1.01796e+58
          1429.29480	         1.00048e+58
          1430.10110	         1.00847e+58
          1430.90740	         9.13949e+57
          1431.71370	         9.39834e+57
          1432.52000	         9.45935e+57
          1433.32630	         8.39326e+57
          1434.13260	         8.35677e+57
          1434.93890	         8.20047e+57
          1435.74520	         8.97675e+57
          1436.55150	         9.52928e+57
          1437.35780	         8.69585e+57
          1438.16410	         8.82586e+57
          1438.97040	         8.97066e+57
          1439.77670	         9.87229e+57
          1440.58300	         9.99970e+57
          1441.38930	         9.42355e+57
          1442.19560	         9.85074e+57
          1443.00190	         9.35140e+57
          1443.80820	         1.05320e+58
          1444.61450	         1.00573e+58
          1445.42080	         8.91107e+57
          1446.22710	         1.06314e+58
          1447.03340	         9.64264e+57
          1447.83970	         1.00982e+58
          1448.64600	         9.54322e+57
          1449.45230	         8.77489e+57
          1450.25860	         9.64736e+57
          1451.06490	         8.84050e+57
          1451.87120	         8.02360e+57
          1452.67750	         7.68999e+57
          1453.48380	         8.16841e+57
          1454.29010	         8.71300e+57
          1455.09640	         8.19786e+57
          1455.90270	         8.78494e+57
          1456.70900	         8.88964e+57
          1457.51530	         9.41930e+57
          1458.32160	         1.14708e+58
          1459.12790	         1.10737e+58
          1459.93420	         9.74583e+57
          1460.74050	         8.83193e+57
          1461.54680	         8.10110e+57
          1462.35310	         7.89031e+57
          1463.15940	         1.08200e+58
          1463.96570	         1.19990e+58
          1464.77200	         1.20367e+58
          1465.57830	         1.08592e+58
          1466.38460	         9.50240e+57
          1467.19090	         8.97086e+57
          1467.99720	         7.98949e+57
          1468.80350	         9.57698e+57
          1469.60980	         1.10100e+58
          1470.41610	         1.16388e+58
          1471.22240	         1.01959e+58
          1472.02870	         9.63059e+57
          1472.83500	         9.59502e+57
          1473.64130	         9.22826e+57
          1474.44760	         9.02205e+57
          1475.25390	         9.01834e+57
          1476.06020	         9.40651e+57
          1476.86650	         8.22516e+57
          1477.67280	         7.68223e+57
          1478.47910	         7.75861e+57
          1479.28540	         8.30947e+57
          1480.09170	         9.53520e+57
          1480.89800	         8.44718e+57
          1481.70430	         7.79213e+57
          1482.51060	         7.33012e+57
          1483.31690	         7.04698e+57
          1484.12320	         7.95853e+57
          1484.92950	         6.92504e+57
          1485.73580	         6.76251e+57
          1486.54210	         8.45530e+57
          1487.34840	         7.62349e+57
          1488.15470	         6.62263e+57
          1488.96100	         8.56765e+57
          1489.76730	         9.80975e+57
