#sample_19_stacked_spectrum_rest_UV-bands_median_H-alpha_noDC.txt
#median Lum: 1.70829e+42
#Rest-frame wavelength (A) | Luminosity (erg/s/A)
#
          1110.00000	         0.00000e+00
          1110.80630	        -8.94955e+58
          1111.61260	         9.40491e+58
          1112.41890	         6.58555e+57
          1113.22520	         1.82869e+59
          1114.03150	        -9.46358e+58
          1114.83780	         1.91184e+59
          1115.64410	         1.87979e+59
          1116.45040	         2.09459e+59
          1117.25670	         1.43712e+59
          1118.06300	         1.33754e+59
          1118.86930	         7.14726e+58
          1119.67560	         7.56659e+58
          1120.48190	        -1.86467e+58
          1121.28820	        -5.49630e+58
          1122.09450	         1.26589e+59
          1122.90080	         8.15968e+58
          1123.70710	         8.17177e+58
          1124.51340	         8.11935e+58
          1125.31970	        -2.51552e+57
          1126.12600	         4.36402e+58
          1126.93230	        -2.01604e+58
          1127.73860	        -6.04788e+58
          1128.54490	         1.13670e+58
          1129.35120	         1.42014e+58
          1130.15750	        -2.00747e+58
          1130.96380	        -6.61784e+58
          1131.77010	         1.11517e+56
          1132.57640	         3.42132e+58
          1133.38270	         1.10981e+58
          1134.18900	         3.15924e+57
          1134.99530	        -4.31296e+57
          1135.80160	         1.18767e+58
          1136.60790	         2.63037e+58
          1137.41420	         7.03079e+56
          1138.22050	         4.20521e+58
          1139.02680	         3.29561e+58
          1139.83310	         2.42591e+58
          1140.63940	         2.38880e+58
          1141.44570	        -8.90329e+57
          1142.25200	        -3.57417e+57
          1143.05830	         2.15398e+58
          1143.86460	         3.83099e+58
          1144.67090	         8.42060e+57
          1145.47720	         8.68403e+57
          1146.28350	         1.87818e+58
          1147.08980	         1.07742e+58
          1147.89610	         3.93009e+57
          1148.70240	         1.22230e+58
          1149.50870	         2.67346e+58
          1150.31500	         2.28694e+58
          1151.12130	         2.63511e+58
          1151.92760	         1.44793e+58
          1152.73390	         7.54206e+57
          1153.54020	         3.09106e+57
          1154.34650	         2.20944e+58
          1155.15280	         2.90171e+58
          1155.95910	         1.41086e+58
          1156.76540	         8.49376e+57
          1157.57170	         6.65037e+56
          1158.37800	         5.23683e+57
          1159.18430	         3.78067e+57
          1159.99060	         9.79099e+57
          1160.79690	         4.17871e+57
          1161.60320	         1.08827e+58
          1162.40950	         1.64961e+58
          1163.21580	         1.27259e+58
          1164.02210	         3.51511e+57
          1164.82840	         7.27209e+57
          1165.63470	         1.54816e+58
          1166.44100	         3.22186e+58
          1167.24730	         1.59922e+58
          1168.05360	         1.18503e+58
          1168.85990	         1.17720e+58
          1169.66620	         8.47391e+57
          1170.47250	         1.41451e+58
          1171.27880	         1.30790e+58
          1172.08510	         1.53342e+58
          1172.89140	         1.07515e+58
          1173.69770	         1.36932e+58
          1174.50400	         1.14489e+58
          1175.31030	         1.21804e+58
          1176.11660	         1.73097e+58
          1176.92290	         1.99956e+58
          1177.72920	         1.48226e+58
          1178.53550	         8.00871e+57
          1179.34180	         5.34649e+57
          1180.14810	         6.91235e+57
          1180.95440	         9.64726e+57
          1181.76070	         6.23138e+57
          1182.56700	         7.75832e+57
          1183.37330	         1.02706e+58
          1184.17960	         1.07315e+58
          1184.98590	         1.36081e+58
          1185.79220	         8.46934e+57
          1186.59850	         8.03701e+57
          1187.40480	         1.01765e+58
          1188.21110	         1.78736e+58
          1189.01740	         1.12364e+58
          1189.82370	         1.38110e+58
          1190.63000	         9.20327e+57
          1191.43630	         1.34056e+58
          1192.24260	         1.01689e+58
          1193.04890	         1.11819e+58
          1193.85520	         9.83870e+57
          1194.66150	        -1.95517e+57
          1195.46780	         5.06133e+57
          1196.27410	         1.39041e+58
          1197.08040	         1.00303e+58
          1197.88670	         1.34985e+58
          1198.69300	         1.47235e+58
          1199.49930	         1.66702e+58
          1200.30560	         1.03352e+58
          1201.11190	         9.25359e+57
          1201.91820	         7.36285e+57
          1202.72450	         1.08193e+58
          1203.53080	         1.44935e+58
          1204.33710	         8.01072e+57
          1205.14340	         5.33756e+57
          1205.94970	         7.50399e+57
          1206.75600	         9.43070e+57
          1207.56230	         9.08695e+57
          1208.36860	         1.18787e+58
          1209.17490	         6.29615e+57
          1209.98120	         7.23923e+57
          1210.78750	         1.23612e+58
          1211.59380	         1.20106e+58
          1212.40010	         1.84325e+58
          1213.20640	         1.86196e+58
          1214.01270	         1.97427e+58
          1214.81900	         2.69328e+58
          1215.62530	         4.36001e+58
          1216.43160	         8.86992e+58
          1217.23790	         1.50730e+59
          1218.04420	         1.14982e+59
          1218.85050	         8.58938e+58
          1219.65680	         5.86668e+58
          1220.46310	         3.46844e+58
          1221.26940	         2.27617e+58
          1222.07570	         1.66638e+58
          1222.88200	         1.26166e+58
          1223.68830	         1.07321e+58
          1224.49460	         1.05019e+58
          1225.30090	         7.84389e+57
          1226.10720	         7.13402e+57
          1226.91350	         7.91344e+57
          1227.71980	         1.18035e+58
          1228.52610	         1.13661e+58
          1229.33240	         8.54258e+57
          1230.13870	         5.11650e+57
          1230.94500	         5.03580e+57
          1231.75130	         7.00560e+57
          1232.55760	         9.17034e+57
          1233.36390	         8.95659e+57
          1234.17020	         8.02318e+57
          1234.97650	         7.42751e+57
          1235.78280	         8.65012e+57
          1236.58910	         1.14594e+58
          1237.39540	         1.16722e+58
          1238.20170	         1.05992e+58
          1239.00800	         1.17746e+58
          1239.81430	         1.34099e+58
          1240.62060	         1.11681e+58
          1241.42690	         9.83728e+57
          1242.23320	         1.03723e+58
          1243.03950	         8.73645e+57
          1243.84580	         8.77538e+57
          1244.65210	         1.05322e+58
          1245.45840	         1.08122e+58
          1246.26470	         9.02757e+57
          1247.07100	         7.99887e+57
          1247.87730	         7.78220e+57
          1248.68360	         5.52486e+57
          1249.48990	         5.09720e+57
          1250.29620	         7.59139e+57
          1251.10250	         7.04212e+57
          1251.90880	         7.05145e+57
          1252.71510	         8.25873e+57
          1253.52140	         8.18650e+57
          1254.32770	         9.09804e+57
          1255.13400	         1.24511e+58
          1255.94030	         1.07398e+58
          1256.74660	         9.18607e+57
          1257.55290	         9.38851e+57
          1258.35920	         7.71246e+57
          1259.16550	         3.47804e+57
          1259.97180	         5.75751e+57
          1260.77810	         7.66540e+57
          1261.58440	         9.21968e+57
          1262.39070	         7.24142e+57
          1263.19700	         6.79573e+57
          1264.00330	         1.00044e+58
          1264.80960	         1.16814e+58
          1265.61590	         1.24124e+58
          1266.42220	         1.26831e+58
          1267.22850	         1.22710e+58
          1268.03480	         1.58388e+58
          1268.84110	         1.53304e+58
          1269.64740	         1.52696e+58
          1270.45370	         1.43423e+58
          1271.26000	         1.14413e+58
          1272.06630	         1.16089e+58
          1272.87260	         1.26360e+58
          1273.67890	         1.31558e+58
          1274.48520	         1.10566e+58
          1275.29150	         1.13602e+58
          1276.09780	         9.96040e+57
          1276.90410	         1.36652e+58
          1277.71040	         1.32078e+58
          1278.51670	         9.79981e+57
          1279.32300	         1.15052e+58
          1280.12930	         1.24749e+58
          1280.93560	         1.01446e+58
          1281.74190	         1.11251e+58
          1282.54820	         1.13454e+58
          1283.35450	         1.02910e+58
          1284.16080	         1.24003e+58
          1284.96710	         1.57540e+58
          1285.77340	         1.25287e+58
          1286.57970	         8.90465e+57
          1287.38600	         1.29191e+58
          1288.19230	         1.78584e+58
          1288.99860	         1.65068e+58
          1289.80490	         1.28422e+58
          1290.61120	         1.41921e+58
          1291.41750	         1.47160e+58
          1292.22380	         1.15300e+58
          1293.03010	         1.12712e+58
          1293.83640	         1.12379e+58
          1294.64270	         9.44792e+57
          1295.44900	         6.63630e+57
          1296.25530	         6.20957e+57
          1297.06160	         9.02224e+57
          1297.86790	         1.10039e+58
          1298.67420	         1.09538e+58
          1299.48050	         1.07354e+58
          1300.28680	         1.12521e+58
          1301.09310	         9.05874e+57
          1301.89940	         5.00130e+57
          1302.70570	         6.09298e+57
          1303.51200	         7.69940e+57
          1304.31830	         1.10483e+58
          1305.12460	         1.19141e+58
          1305.93090	         1.17211e+58
          1306.73720	         1.14971e+58
          1307.54350	         1.23762e+58
          1308.34980	         1.49721e+58
          1309.15610	         1.58624e+58
          1309.96240	         1.50450e+58
          1310.76870	         1.35046e+58
          1311.57500	         1.25285e+58
          1312.38130	         1.21192e+58
          1313.18760	         1.25541e+58
          1313.99390	         1.60838e+58
          1314.80020	         1.48022e+58
          1315.60650	         1.63305e+58
          1316.41280	         1.42845e+58
          1317.21910	         1.22412e+58
          1318.02540	         1.35084e+58
          1318.83170	         1.32997e+58
          1319.63800	         1.11160e+58
          1320.44430	         1.09262e+58
          1321.25060	         1.09658e+58
          1322.05690	         1.09570e+58
          1322.86320	         1.12668e+58
          1323.66950	         9.76648e+57
          1324.47580	         9.92731e+57
          1325.28210	         1.12411e+58
          1326.08840	         1.27096e+58
          1326.89470	         1.26875e+58
          1327.70100	         1.02631e+58
          1328.50730	         8.22288e+57
          1329.31360	         8.99688e+57
          1330.11990	         1.05782e+58
          1330.92620	         9.57818e+57
          1331.73250	         1.13039e+58
          1332.53880	         1.14394e+58
          1333.34510	         9.40241e+57
          1334.15140	         9.49372e+57
          1334.95770	         9.97289e+57
          1335.76400	         9.65675e+57
          1336.57030	         1.07557e+58
          1337.37660	         1.07909e+58
          1338.18290	         1.09341e+58
          1338.98920	         1.13881e+58
          1339.79550	         9.17018e+57
          1340.60180	         1.12873e+58
          1341.40810	         1.37612e+58
          1342.21440	         1.23090e+58
          1343.02070	         1.21947e+58
          1343.82700	         1.22420e+58
          1344.63330	         1.24295e+58
          1345.43960	         1.40962e+58
          1346.24590	         1.20556e+58
          1347.05220	         1.21017e+58
          1347.85850	         1.12244e+58
          1348.66480	         1.21912e+58
          1349.47110	         1.20768e+58
          1350.27740	         1.05447e+58
          1351.08370	         1.15345e+58
          1351.89000	         1.20276e+58
          1352.69630	         1.26011e+58
          1353.50260	         1.26858e+58
          1354.30890	         1.18940e+58
          1355.11520	         1.15852e+58
          1355.92150	         1.06865e+58
          1356.72780	         1.01739e+58
          1357.53410	         9.78234e+57
          1358.34040	         9.97366e+57
          1359.14670	         1.16404e+58
          1359.95300	         1.31438e+58
          1360.75930	         1.26648e+58
          1361.56560	         1.14083e+58
          1362.37190	         1.16074e+58
          1363.17820	         1.04929e+58
          1363.98450	         1.19053e+58
          1364.79080	         1.26895e+58
          1365.59710	         1.30227e+58
          1366.40340	         1.21885e+58
          1367.20970	         1.01882e+58
          1368.01600	         9.48614e+57
          1368.82230	         1.07283e+58
          1369.62860	         1.23094e+58
          1370.43490	         1.04816e+58
          1371.24120	         9.11503e+57
          1372.04750	         8.84509e+57
          1372.85380	         1.16934e+58
          1373.66010	         1.28954e+58
          1374.46640	         1.21871e+58
          1375.27270	         1.01289e+58
          1376.07900	         8.28039e+57
          1376.88530	         8.23988e+57
          1377.69160	         8.55579e+57
          1378.49790	         6.47860e+57
          1379.30420	         7.43910e+57
          1380.11050	         9.28279e+57
          1380.91680	         9.24548e+57
          1381.72310	         8.74891e+57
          1382.52940	         8.92503e+57
          1383.33570	         9.38886e+57
          1384.14200	         1.03303e+58
          1384.94830	         1.03453e+58
          1385.75460	         1.02796e+58
          1386.56090	         1.08840e+58
          1387.36720	         1.17410e+58
          1388.17350	         1.39195e+58
          1388.97980	         1.20509e+58
          1389.78610	         8.76729e+57
          1390.59240	         7.84989e+57
          1391.39870	         7.78327e+57
          1392.20500	         8.99109e+57
          1393.01130	         8.28819e+57
          1393.81760	         8.10555e+57
          1394.62390	         7.92079e+57
          1395.43020	         7.44697e+57
          1396.23650	         7.35406e+57
          1397.04280	         7.04478e+57
          1397.84910	         9.06789e+57
          1398.65540	         9.73740e+57
          1399.46170	         9.67151e+57
          1400.26800	         8.74000e+57
          1401.07430	         8.97438e+57
          1401.88060	         9.45819e+57
          1402.68690	         9.95216e+57
          1403.49320	         9.93143e+57
          1404.29950	         8.90480e+57
          1405.10580	         9.60620e+57
          1405.91210	         1.13081e+58
          1406.71840	         1.15081e+58
          1407.52470	         1.04426e+58
          1408.33100	         9.78741e+57
          1409.13730	         1.08415e+58
          1409.94360	         1.14668e+58
          1410.74990	         1.08299e+58
          1411.55620	         8.95033e+57
          1412.36250	         8.27317e+57
          1413.16880	         8.47822e+57
          1413.97510	         8.30275e+57
          1414.78140	         8.90808e+57
          1415.58770	         1.08133e+58
          1416.39400	         9.17898e+57
          1417.20030	         9.51771e+57
          1418.00660	         1.08018e+58
          1418.81290	         1.13031e+58
          1419.61920	         1.15480e+58
          1420.42550	         1.17669e+58
          1421.23180	         1.27302e+58
          1422.03810	         1.31514e+58
          1422.84440	         1.18016e+58
          1423.65070	         1.18418e+58
          1424.45700	         1.04717e+58
          1425.26330	         7.27339e+57
          1426.06960	         8.99203e+57
          1426.87590	         1.16139e+58
          1427.68220	         1.04294e+58
          1428.48850	         1.14123e+58
          1429.29480	         1.09233e+58
          1430.10110	         9.60264e+57
          1430.90740	         9.28098e+57
          1431.71370	         8.67817e+57
          1432.52000	         8.26873e+57
          1433.32630	         7.95399e+57
          1434.13260	         7.57918e+57
          1434.93890	         8.43344e+57
          1435.74520	         8.37304e+57
          1436.55150	         9.20096e+57
          1437.35780	         8.40576e+57
          1438.16410	         8.40425e+57
          1438.97040	         8.86305e+57
          1439.77670	         9.29837e+57
          1440.58300	         9.32953e+57
          1441.38930	         9.12748e+57
          1442.19560	         9.88234e+57
          1443.00190	         9.55354e+57
          1443.80820	         1.01198e+58
          1444.61450	         1.03033e+58
          1445.42080	         8.68690e+57
          1446.22710	         1.02371e+58
          1447.03340	         1.12623e+58
          1447.83970	         1.15586e+58
          1448.64600	         1.15127e+58
          1449.45230	         1.04344e+58
          1450.25860	         8.97069e+57
          1451.06490	         8.35856e+57
          1451.87120	         8.00877e+57
          1452.67750	         7.97665e+57
          1453.48380	         8.43430e+57
          1454.29010	         7.56615e+57
          1455.09640	         7.73761e+57
          1455.90270	         9.01923e+57
          1456.70900	         8.75878e+57
          1457.51530	         1.01224e+58
          1458.32160	         1.22303e+58
          1459.12790	         1.19367e+58
          1459.93420	         1.09209e+58
          1460.74050	         9.13924e+57
          1461.54680	         8.79405e+57
          1462.35310	         7.33828e+57
          1463.15940	         9.78430e+57
          1463.96570	         1.22900e+58
          1464.77200	         1.15716e+58
          1465.57830	         1.05222e+58
          1466.38460	         9.88436e+57
          1467.19090	         8.99861e+57
          1467.99720	         8.73941e+57
          1468.80350	         1.05954e+58
          1469.60980	         1.07344e+58
          1470.41610	         1.09939e+58
          1471.22240	         1.00831e+58
          1472.02870	         9.82246e+57
          1472.83500	         1.05255e+58
          1473.64130	         1.09275e+58
          1474.44760	         9.59279e+57
          1475.25390	         8.36706e+57
          1476.06020	         8.50704e+57
          1476.86650	         8.99160e+57
          1477.67280	         9.05733e+57
          1478.47910	         8.08851e+57
          1479.28540	         7.96134e+57
          1480.09170	         8.63749e+57
          1480.89800	         8.42353e+57
          1481.70430	         7.74975e+57
          1482.51060	         7.41096e+57
          1483.31690	         8.16880e+57
          1484.12320	         7.83547e+57
          1484.92950	         7.75127e+57
          1485.73580	         7.85864e+57
          1486.54210	         8.56246e+57
          1487.34840	         8.74880e+57
          1488.15470	         8.79314e+57
          1488.96100	         9.32960e+57
          1489.76730	         9.18675e+57
