#sample_60_stacked_spectrum_rest_UV-bands_median_H-alpha_noDC.txt
#median Lum: 1.67790e+42
#Rest-frame wavelength (A) | Luminosity (erg/s/A)
#
          1110.00000	         0.00000e+00
          1110.80630	         6.38078e+58
          1111.61260	        -1.12370e+59
          1112.41890	         5.95302e+58
          1113.22520	        -6.85059e+58
          1114.03150	        -1.28786e+59
          1114.83780	         5.65661e+58
          1115.64410	         1.12524e+59
          1116.45040	         2.82423e+59
          1117.25670	         5.78108e+58
          1118.06300	         4.80554e+58
          1118.86930	        -1.48255e+58
          1119.67560	         2.08050e+58
          1120.48190	        -1.37511e+58
          1121.28820	        -8.56398e+58
          1122.09450	         9.14295e+58
          1122.90080	         9.09092e+58
          1123.70710	         2.61233e+58
          1124.51340	         1.15373e+59
          1125.31970	         9.16880e+57
          1126.12600	        -1.68919e+58
          1126.93230	        -4.15275e+58
          1127.73860	         8.00894e+57
          1128.54490	         1.54549e+58
          1129.35120	         1.00904e+58
          1130.15750	        -1.67634e+58
          1130.96380	        -2.72790e+58
          1131.77010	         2.04963e+58
          1132.57640	         4.06522e+58
          1133.38270	         4.83104e+58
          1134.18900	         3.17963e+58
          1134.99530	         6.16047e+57
          1135.80160	         4.51783e+58
          1136.60790	         1.09118e+58
          1137.41420	         3.84295e+57
          1138.22050	         3.21849e+58
          1139.02680	         1.88752e+58
          1139.83310	         2.27262e+58
          1140.63940	         1.63679e+58
          1141.44570	        -2.14903e+57
          1142.25200	        -6.37866e+57
          1143.05830	         3.69518e+57
          1143.86460	         1.14347e+58
          1144.67090	         2.86293e+58
          1145.47720	         3.88196e+57
          1146.28350	         1.62978e+58
          1147.08980	         2.05000e+58
          1147.89610	         2.38009e+58
          1148.70240	         1.87417e+58
          1149.50870	         1.79684e+58
          1150.31500	         9.57067e+57
          1151.12130	         1.26739e+58
          1151.92760	         9.88756e+57
          1152.73390	         1.36598e+58
          1153.54020	         2.75600e+57
          1154.34650	         1.94791e+58
          1155.15280	         1.36285e+58
          1155.95910	         5.98258e+57
          1156.76540	         1.19989e+58
          1157.57170	        -4.09277e+56
          1158.37800	         1.33338e+57
          1159.18430	        -9.72163e+57
          1159.99060	         4.96134e+57
          1160.79690	         1.31335e+58
          1161.60320	         1.87739e+58
          1162.40950	         1.64758e+58
          1163.21580	         1.52439e+58
          1164.02210	         6.13842e+57
          1164.82840	         2.56454e+57
          1165.63470	         1.84374e+58
          1166.44100	         3.55316e+58
          1167.24730	         2.56822e+58
          1168.05360	         8.07490e+57
          1168.85990	         6.15199e+57
          1169.66620	         9.51363e+57
          1170.47250	         1.30495e+58
          1171.27880	         1.30405e+58
          1172.08510	         9.82298e+57
          1172.89140	         1.10832e+58
          1173.69770	         6.51032e+57
          1174.50400	         1.08776e+58
          1175.31030	         2.01073e+58
          1176.11660	         2.11943e+58
          1176.92290	         1.47823e+58
          1177.72920	         1.13566e+58
          1178.53550	         9.06960e+57
          1179.34180	         2.78512e+57
          1180.14810	         5.31391e+57
          1180.95440	         6.37127e+57
          1181.76070	         2.03954e+57
          1182.56700	         7.12572e+57
          1183.37330	         8.93883e+57
          1184.17960	         1.05352e+58
          1184.98590	         7.75904e+57
          1185.79220	         2.49818e+57
          1186.59850	         9.08080e+57
          1187.40480	         1.27498e+58
          1188.21110	         1.89375e+58
          1189.01740	         1.35769e+58
          1189.82370	         6.50862e+57
          1190.63000	         1.14864e+58
          1191.43630	         1.59126e+58
          1192.24260	         1.28330e+58
          1193.04890	         1.21106e+58
          1193.85520	         1.23166e+58
          1194.66150	         8.86100e+57
          1195.46780	         1.04239e+58
          1196.27410	         1.22552e+58
          1197.08040	         9.18550e+57
          1197.88670	         9.38351e+57
          1198.69300	         1.07715e+58
          1199.49930	         1.14541e+58
          1200.30560	         9.74577e+57
          1201.11190	         9.37639e+57
          1201.91820	         9.99912e+57
          1202.72450	         7.91518e+57
          1203.53080	         1.23045e+58
          1204.33710	         9.80862e+57
          1205.14340	         6.89846e+57
          1205.94970	         7.01462e+57
          1206.75600	         5.94969e+57
          1207.56230	         6.54710e+57
          1208.36860	         8.98726e+57
          1209.17490	         6.00754e+57
          1209.98120	         6.42832e+57
          1210.78750	         8.88671e+57
          1211.59380	         1.36460e+58
          1212.40010	         1.60660e+58
          1213.20640	         1.69550e+58
          1214.01270	         2.13924e+58
          1214.81900	         2.72943e+58
          1215.62530	         4.44308e+58
          1216.43160	         8.88774e+58
          1217.23790	         1.53173e+59
          1218.04420	         1.12643e+59
          1218.85050	         8.12064e+58
          1219.65680	         5.20832e+58
          1220.46310	         3.16288e+58
          1221.26940	         2.52619e+58
          1222.07570	         1.47614e+58
          1222.88200	         8.91433e+57
          1223.68830	         9.67076e+57
          1224.49460	         8.31888e+57
          1225.30090	         5.45250e+57
          1226.10720	         6.93805e+57
          1226.91350	         7.76851e+57
          1227.71980	         6.87613e+57
          1228.52610	         1.02997e+58
          1229.33240	         7.36965e+57
          1230.13870	         8.71350e+57
          1230.94500	         1.12868e+58
          1231.75130	         6.64617e+57
          1232.55760	         9.15916e+57
          1233.36390	         8.72856e+57
          1234.17020	         8.30496e+57
          1234.97650	         7.07145e+57
          1235.78280	         7.88802e+57
          1236.58910	         7.99486e+57
          1237.39540	         8.54254e+57
          1238.20170	         9.84926e+57
          1239.00800	         1.13623e+58
          1239.81430	         1.03837e+58
          1240.62060	         9.11053e+57
          1241.42690	         1.02914e+58
          1242.23320	         1.03673e+58
          1243.03950	         7.66351e+57
          1243.84580	         7.67027e+57
          1244.65210	         7.96644e+57
          1245.45840	         8.96934e+57
          1246.26470	         9.35700e+57
          1247.07100	         6.55646e+57
          1247.87730	         4.35539e+57
          1248.68360	         6.57314e+57
          1249.48990	         7.32716e+57
          1250.29620	         6.53271e+57
          1251.10250	         6.52601e+57
          1251.90880	         5.20060e+57
          1252.71510	         3.44061e+57
          1253.52140	         6.01485e+57
          1254.32770	         9.44376e+57
          1255.13400	         1.29083e+58
          1255.94030	         1.12264e+58
          1256.74660	         1.09539e+58
          1257.55290	         1.39540e+58
          1258.35920	         8.90645e+57
          1259.16550	         5.07563e+57
          1259.97180	         5.85669e+57
          1260.77810	         7.50303e+57
          1261.58440	         9.33559e+57
          1262.39070	         8.04971e+57
          1263.19700	         8.65631e+57
          1264.00330	         8.58264e+57
          1264.80960	         9.65800e+57
          1265.61590	         1.29454e+58
          1266.42220	         1.32827e+58
          1267.22850	         1.12562e+58
          1268.03480	         1.20343e+58
          1268.84110	         1.49156e+58
          1269.64740	         1.26550e+58
          1270.45370	         1.13339e+58
          1271.26000	         1.09641e+58
          1272.06630	         1.14508e+58
          1272.87260	         1.27570e+58
          1273.67890	         1.15852e+58
          1274.48520	         1.16972e+58
          1275.29150	         1.30569e+58
          1276.09780	         1.16145e+58
          1276.90410	         1.51075e+58
          1277.71040	         1.44324e+58
          1278.51670	         1.12288e+58
          1279.32300	         1.19507e+58
          1280.12930	         1.15113e+58
          1280.93560	         1.20730e+58
          1281.74190	         1.18837e+58
          1282.54820	         1.30532e+58
          1283.35450	         1.31444e+58
          1284.16080	         1.09552e+58
          1284.96710	         1.22165e+58
          1285.77340	         1.25329e+58
          1286.57970	         1.00763e+58
          1287.38600	         1.19520e+58
          1288.19230	         1.70825e+58
          1288.99860	         1.62365e+58
          1289.80490	         1.19545e+58
          1290.61120	         1.38273e+58
          1291.41750	         1.44959e+58
          1292.22380	         1.14669e+58
          1293.03010	         1.00199e+58
          1293.83640	         9.64592e+57
          1294.64270	         9.46057e+57
          1295.44900	         7.47566e+57
          1296.25530	         6.85364e+57
          1297.06160	         1.06358e+58
          1297.86790	         1.15374e+58
          1298.67420	         1.00971e+58
          1299.48050	         1.14628e+58
          1300.28680	         1.14928e+58
          1301.09310	         8.84035e+57
          1301.89940	         4.64213e+57
          1302.70570	         5.88140e+57
          1303.51200	         7.21803e+57
          1304.31830	         9.24116e+57
          1305.12460	         1.05614e+58
          1305.93090	         1.14800e+58
          1306.73720	         1.20001e+58
          1307.54350	         1.28644e+58
          1308.34980	         1.48577e+58
          1309.15610	         1.64857e+58
          1309.96240	         1.53047e+58
          1310.76870	         1.30634e+58
          1311.57500	         1.25063e+58
          1312.38130	         1.14349e+58
          1313.18760	         1.43730e+58
          1313.99390	         1.48105e+58
          1314.80020	         1.66762e+58
          1315.60650	         1.56224e+58
          1316.41280	         1.16104e+58
          1317.21910	         1.04837e+58
          1318.02540	         1.34018e+58
          1318.83170	         1.37425e+58
          1319.63800	         1.17111e+58
          1320.44430	         1.07779e+58
          1321.25060	         1.08134e+58
          1322.05690	         1.22838e+58
          1322.86320	         1.13738e+58
          1323.66950	         1.01408e+58
          1324.47580	         8.87941e+57
          1325.28210	         9.31224e+57
          1326.08840	         1.16198e+58
          1326.89470	         1.24148e+58
          1327.70100	         9.96119e+57
          1328.50730	         8.68443e+57
          1329.31360	         9.94143e+57
          1330.11990	         9.26568e+57
          1330.92620	         8.15302e+57
          1331.73250	         9.57676e+57
          1332.53880	         9.59621e+57
          1333.34510	         8.99013e+57
          1334.15140	         8.93283e+57
          1334.95770	         8.66539e+57
          1335.76400	         1.00802e+58
          1336.57030	         1.10184e+58
          1337.37660	         1.15362e+58
          1338.18290	         1.17604e+58
          1338.98920	         1.18215e+58
          1339.79550	         1.27017e+58
          1340.60180	         1.25663e+58
          1341.40810	         1.33551e+58
          1342.21440	         1.26725e+58
          1343.02070	         1.35402e+58
          1343.82700	         1.30679e+58
          1344.63330	         1.21018e+58
          1345.43960	         1.41127e+58
          1346.24590	         1.09752e+58
          1347.05220	         1.03973e+58
          1347.85850	         1.00296e+58
          1348.66480	         1.09612e+58
          1349.47110	         1.24066e+58
          1350.27740	         1.16937e+58
          1351.08370	         1.14931e+58
          1351.89000	         1.03057e+58
          1352.69630	         1.08923e+58
          1353.50260	         1.15350e+58
          1354.30890	         1.21942e+58
          1355.11520	         1.21371e+58
          1355.92150	         1.17070e+58
          1356.72780	         1.19661e+58
          1357.53410	         1.18666e+58
          1358.34040	         1.06197e+58
          1359.14670	         1.06554e+58
          1359.95300	         1.17720e+58
          1360.75930	         1.13236e+58
          1361.56560	         1.08254e+58
          1362.37190	         1.09908e+58
          1363.17820	         1.06820e+58
          1363.98450	         1.23802e+58
          1364.79080	         1.28015e+58
          1365.59710	         1.21831e+58
          1366.40340	         1.10756e+58
          1367.20970	         8.31578e+57
          1368.01600	         8.08449e+57
          1368.82230	         9.43204e+57
          1369.62860	         1.13399e+58
          1370.43490	         1.04051e+58
          1371.24120	         8.83467e+57
          1372.04750	         7.86954e+57
          1372.85380	         9.67459e+57
          1373.66010	         9.81864e+57
          1374.46640	         1.07636e+58
          1375.27270	         1.13273e+58
          1376.07900	         9.91707e+57
          1376.88530	         8.82967e+57
          1377.69160	         8.50156e+57
          1378.49790	         7.26154e+57
          1379.30420	         6.99227e+57
          1380.11050	         9.28594e+57
          1380.91680	         8.20118e+57
          1381.72310	         7.19062e+57
          1382.52940	         7.82404e+57
          1383.33570	         6.57160e+57
          1384.14200	         6.79385e+57
          1384.94830	         8.75892e+57
          1385.75460	         9.81159e+57
          1386.56090	         1.08722e+58
          1387.36720	         1.09040e+58
          1388.17350	         1.22935e+58
          1388.97980	         1.25292e+58
          1389.78610	         9.66472e+57
          1390.59240	         7.86005e+57
          1391.39870	         7.84347e+57
          1392.20500	         9.38763e+57
          1393.01130	         9.10827e+57
          1393.81760	         7.21350e+57
          1394.62390	         7.81495e+57
          1395.43020	         7.67388e+57
          1396.23650	         7.78022e+57
          1397.04280	         7.58557e+57
          1397.84910	         7.76465e+57
          1398.65540	         7.58744e+57
          1399.46170	         8.32522e+57
          1400.26800	         7.63352e+57
          1401.07430	         7.13813e+57
          1401.88060	         8.14628e+57
          1402.68690	         1.04563e+58
          1403.49320	         9.89525e+57
          1404.29950	         8.58042e+57
          1405.10580	         9.96969e+57
          1405.91210	         1.14066e+58
          1406.71840	         1.22355e+58
          1407.52470	         1.13373e+58
          1408.33100	         1.09568e+58
          1409.13730	         1.19574e+58
          1409.94360	         1.12541e+58
          1410.74990	         1.19250e+58
          1411.55620	         1.00649e+58
          1412.36250	         8.03863e+57
          1413.16880	         9.24254e+57
          1413.97510	         8.40897e+57
          1414.78140	         1.01861e+58
          1415.58770	         1.10294e+58
          1416.39400	         1.06251e+58
          1417.20030	         1.09129e+58
          1418.00660	         9.47100e+57
          1418.81290	         9.22375e+57
          1419.61920	         1.05007e+58
          1420.42550	         1.21959e+58
          1421.23180	         1.33149e+58
          1422.03810	         1.25380e+58
          1422.84440	         1.19818e+58
          1423.65070	         1.33671e+58
          1424.45700	         1.12878e+58
          1425.26330	         9.14883e+57
          1426.06960	         9.18757e+57
          1426.87590	         9.76690e+57
          1427.68220	         1.04020e+58
          1428.48850	         1.14504e+58
          1429.29480	         1.12923e+58
          1430.10110	         1.08466e+58
          1430.90740	         9.22846e+57
          1431.71370	         8.24611e+57
          1432.52000	         8.74479e+57
          1433.32630	         7.87954e+57
          1434.13260	         8.05888e+57
          1434.93890	         8.45990e+57
          1435.74520	         8.32743e+57
          1436.55150	         9.50519e+57
          1437.35780	         8.54861e+57
          1438.16410	         8.76637e+57
          1438.97040	         9.08215e+57
          1439.77670	         8.65668e+57
          1440.58300	         9.78727e+57
          1441.38930	         1.05378e+58
          1442.19560	         1.06034e+58
          1443.00190	         1.10206e+58
          1443.80820	         1.13160e+58
          1444.61450	         9.96131e+57
          1445.42080	         8.20182e+57
          1446.22710	         9.95580e+57
          1447.03340	         9.94498e+57
          1447.83970	         9.48091e+57
          1448.64600	         9.79393e+57
          1449.45230	         1.00223e+58
          1450.25860	         1.13746e+58
          1451.06490	         1.02578e+58
          1451.87120	         8.27229e+57
          1452.67750	         8.21345e+57
          1453.48380	         8.70600e+57
          1454.29010	         8.38057e+57
          1455.09640	         8.29253e+57
          1455.90270	         8.59751e+57
          1456.70900	         9.40199e+57
          1457.51530	         1.03835e+58
          1458.32160	         1.19611e+58
          1459.12790	         1.24156e+58
          1459.93420	         1.08095e+58
          1460.74050	         8.42655e+57
          1461.54680	         8.79682e+57
          1462.35310	         8.80677e+57
          1463.15940	         8.91706e+57
          1463.96570	         9.92647e+57
          1464.77200	         1.11727e+58
          1465.57830	         1.02006e+58
          1466.38460	         8.40933e+57
          1467.19090	         8.72535e+57
          1467.99720	         8.44143e+57
          1468.80350	         9.36349e+57
          1469.60980	         9.66184e+57
          1470.41610	         1.00923e+58
          1471.22240	         9.68145e+57
          1472.02870	         1.03151e+58
          1472.83500	         9.84293e+57
          1473.64130	         9.37336e+57
          1474.44760	         9.34002e+57
          1475.25390	         1.01295e+58
          1476.06020	         9.22925e+57
          1476.86650	         8.88038e+57
          1477.67280	         8.17612e+57
          1478.47910	         7.06290e+57
          1479.28540	         6.67542e+57
          1480.09170	         7.70311e+57
          1480.89800	         7.99486e+57
          1481.70430	         8.18170e+57
          1482.51060	         7.95137e+57
          1483.31690	         7.70051e+57
          1484.12320	         8.63170e+57
          1484.92950	         8.49573e+57
          1485.73580	         7.89715e+57
          1486.54210	         8.04479e+57
          1487.34840	         8.26906e+57
          1488.15470	         8.14931e+57
          1488.96100	         8.57298e+57
          1489.76730	         9.18546e+57
