#sample_318_stacked_spectrum_rest_UV-bands_median_H-alpha_noDC.txt
#median Lum: 1.71452e+42
#Rest-frame wavelength (A) | Luminosity (erg/s/A)
#
          1110.00000	         0.00000e+00
          1110.80630	         5.00022e+58
          1111.61260	         3.91014e+59
          1112.41890	         2.05313e+59
          1113.22520	         2.05677e+58
          1114.03150	        -8.65290e+58
          1114.83780	         6.39463e+58
          1115.64410	         2.01325e+59
          1116.45040	        -1.77027e+59
          1117.25670	         2.84271e+58
          1118.06300	         1.88865e+59
          1118.86930	         9.52481e+58
          1119.67560	         1.77025e+59
          1120.48190	        -1.40927e+58
          1121.28820	        -1.50861e+59
          1122.09450	         5.35382e+58
          1122.90080	         1.40326e+58
          1123.70710	         6.19867e+58
          1124.51340	         6.48919e+58
          1125.31970	        -2.37363e+58
          1126.12600	         1.00663e+58
          1126.93230	        -4.13829e+58
          1127.73860	        -2.74147e+58
          1128.54490	        -3.72433e+57
          1129.35120	        -5.69663e+57
          1130.15750	         1.77861e+58
          1130.96380	        -1.15179e+58
          1131.77010	         2.85764e+58
          1132.57640	         5.14672e+58
          1133.38270	         3.13615e+58
          1134.18900	        -2.96409e+57
          1134.99530	         1.85059e+58
          1135.80160	         1.32027e+58
          1136.60790	         3.26170e+57
          1137.41420	        -5.29234e+57
          1138.22050	         4.55795e+58
          1139.02680	         3.17896e+58
          1139.83310	         8.51167e+57
          1140.63940	         7.57618e+57
          1141.44570	        -3.41583e+58
          1142.25200	        -1.25403e+55
          1143.05830	         3.05711e+58
          1143.86460	         3.27612e+58
          1144.67090	         2.38801e+58
          1145.47720	         2.23202e+57
          1146.28350	         1.61628e+58
          1147.08980	         1.37129e+58
          1147.89610	         1.98040e+58
          1148.70240	         3.12359e+58
          1149.50870	         1.91492e+58
          1150.31500	         8.20207e+57
          1151.12130	        -8.18287e+57
          1151.92760	         3.37822e+57
          1152.73390	         2.24173e+56
          1153.54020	        -6.57949e+56
          1154.34650	         1.44559e+58
          1155.15280	         1.48165e+58
          1155.95910	         1.48083e+58
          1156.76540	        -3.47191e+57
          1157.57170	        -6.14398e+57
          1158.37800	         7.06014e+55
          1159.18430	         3.07510e+57
          1159.99060	         1.44883e+58
          1160.79690	        -8.73626e+56
          1161.60320	         8.98792e+56
          1162.40950	         9.81905e+57
          1163.21580	         2.01672e+58
          1164.02210	         1.87602e+58
          1164.82840	         6.61311e+57
          1165.63470	         1.67242e+58
          1166.44100	         2.82521e+58
          1167.24730	         2.27261e+58
          1168.05360	         7.25690e+57
          1168.85990	         8.41227e+57
          1169.66620	         1.33191e+58
          1170.47250	         1.73194e+58
          1171.27880	         1.46335e+58
          1172.08510	         1.28889e+58
          1172.89140	         3.17625e+57
          1173.69770	         1.65180e+57
          1174.50400	         6.65024e+57
          1175.31030	         1.71931e+58
          1176.11660	         1.80289e+58
          1176.92290	         1.72664e+58
          1177.72920	         1.36169e+58
          1178.53550	         8.00670e+57
          1179.34180	         7.57310e+57
          1180.14810	         9.79197e+57
          1180.95440	         6.66484e+57
          1181.76070	         5.52263e+57
          1182.56700	         8.34366e+57
          1183.37330	         9.78640e+57
          1184.17960	         1.06048e+58
          1184.98590	         1.10433e+58
          1185.79220	         1.14067e+58
          1186.59850	         1.23508e+58
          1187.40480	         1.15672e+58
          1188.21110	         1.74537e+58
          1189.01740	         8.49702e+57
          1189.82370	         8.40963e+57
          1190.63000	         1.15268e+58
          1191.43630	         1.13807e+58
          1192.24260	         8.83401e+57
          1193.04890	         1.26160e+58
          1193.85520	         6.56513e+57
          1194.66150	        -8.07989e+56
          1195.46780	         1.00836e+58
          1196.27410	         1.33191e+58
          1197.08040	         7.65811e+57
          1197.88670	         1.08717e+58
          1198.69300	         1.67169e+58
          1199.49930	         1.82341e+58
          1200.30560	         1.18419e+58
          1201.11190	         1.25889e+58
          1201.91820	         1.24744e+58
          1202.72450	         9.19018e+57
          1203.53080	         1.43366e+58
          1204.33710	         1.09837e+58
          1205.14340	         7.10209e+57
          1205.94970	         6.00278e+57
          1206.75600	         5.35044e+57
          1207.56230	         1.01460e+58
          1208.36860	         1.38788e+58
          1209.17490	         6.42879e+57
          1209.98120	         6.29678e+57
          1210.78750	         8.01172e+57
          1211.59380	         7.61563e+57
          1212.40010	         1.65791e+58
          1213.20640	         1.91895e+58
          1214.01270	         2.23785e+58
          1214.81900	         2.96640e+58
          1215.62530	         5.05669e+58
          1216.43160	         9.54352e+58
          1217.23790	         1.53355e+59
          1218.04420	         1.15944e+59
          1218.85050	         8.28330e+58
          1219.65680	         5.38825e+58
          1220.46310	         3.03740e+58
          1221.26940	         2.13070e+58
          1222.07570	         1.77817e+58
          1222.88200	         1.36952e+58
          1223.68830	         8.74031e+57
          1224.49460	         8.36957e+57
          1225.30090	         5.80314e+57
          1226.10720	         4.70639e+57
          1226.91350	         5.31226e+57
          1227.71980	         6.91061e+57
          1228.52610	         1.14120e+58
          1229.33240	         1.05443e+58
          1230.13870	         8.51433e+57
          1230.94500	         8.47649e+57
          1231.75130	         9.13881e+57
          1232.55760	         1.03846e+58
          1233.36390	         8.25386e+57
          1234.17020	         9.59695e+57
          1234.97650	         8.04250e+57
          1235.78280	         7.23029e+57
          1236.58910	         9.19066e+57
          1237.39540	         1.12095e+58
          1238.20170	         1.10994e+58
          1239.00800	         1.35738e+58
          1239.81430	         1.41607e+58
          1240.62060	         1.00298e+58
          1241.42690	         9.85929e+57
          1242.23320	         1.03344e+58
          1243.03950	         9.40266e+57
          1243.84580	         9.03214e+57
          1244.65210	         8.09371e+57
          1245.45840	         8.35666e+57
          1246.26470	         8.89622e+57
          1247.07100	         6.50760e+57
          1247.87730	         3.17478e+57
          1248.68360	         5.87355e+57
          1249.48990	         1.18836e+58
          1250.29620	         1.01588e+58
          1251.10250	         6.15453e+57
          1251.90880	         4.50868e+57
          1252.71510	         4.39682e+57
          1253.52140	         6.95642e+57
          1254.32770	         9.94577e+57
          1255.13400	         1.28928e+58
          1255.94030	         1.23704e+58
          1256.74660	         9.95949e+57
          1257.55290	         1.12791e+58
          1258.35920	         9.20353e+57
          1259.16550	         4.97467e+57
          1259.97180	         6.25842e+57
          1260.77810	         8.18093e+57
          1261.58440	         1.22069e+58
          1262.39070	         9.71096e+57
          1263.19700	         8.89611e+57
          1264.00330	         8.10821e+57
          1264.80960	         7.74601e+57
          1265.61590	         9.69072e+57
          1266.42220	         1.05298e+58
          1267.22850	         9.92259e+57
          1268.03480	         1.39377e+58
          1268.84110	         1.55486e+58
          1269.64740	         1.29070e+58
          1270.45370	         1.38372e+58
          1271.26000	         1.38865e+58
          1272.06630	         1.45319e+58
          1272.87260	         1.48019e+58
          1273.67890	         1.33061e+58
          1274.48520	         1.29240e+58
          1275.29150	         1.37130e+58
          1276.09780	         1.32996e+58
          1276.90410	         1.52959e+58
          1277.71040	         1.47370e+58
          1278.51670	         1.33703e+58
          1279.32300	         1.46871e+58
          1280.12930	         1.36160e+58
          1280.93560	         1.10007e+58
          1281.74190	         1.23896e+58
          1282.54820	         1.41501e+58
          1283.35450	         1.03021e+58
          1284.16080	         1.06601e+58
          1284.96710	         1.24427e+58
          1285.77340	         1.09505e+58
          1286.57970	         1.09918e+58
          1287.38600	         1.52696e+58
          1288.19230	         1.70775e+58
          1288.99860	         1.30920e+58
          1289.80490	         1.04166e+58
          1290.61120	         1.28953e+58
          1291.41750	         1.37447e+58
          1292.22380	         1.09155e+58
          1293.03010	         9.88243e+57
          1293.83640	         1.16844e+58
          1294.64270	         1.01756e+58
          1295.44900	         5.66075e+57
          1296.25530	         5.34480e+57
          1297.06160	         7.81010e+57
          1297.86790	         1.15740e+58
          1298.67420	         1.02607e+58
          1299.48050	         8.27996e+57
          1300.28680	         1.05523e+58
          1301.09310	         8.61711e+57
          1301.89940	         5.17890e+57
          1302.70570	         6.31748e+57
          1303.51200	         7.74653e+57
          1304.31830	         1.02998e+58
          1305.12460	         1.09166e+58
          1305.93090	         1.16491e+58
          1306.73720	         1.27530e+58
          1307.54350	         1.53033e+58
          1308.34980	         1.51583e+58
          1309.15610	         1.42422e+58
          1309.96240	         1.51971e+58
          1310.76870	         1.17373e+58
          1311.57500	         1.19545e+58
          1312.38130	         1.28366e+58
          1313.18760	         1.61357e+58
          1313.99390	         1.73945e+58
          1314.80020	         1.43570e+58
          1315.60650	         1.43130e+58
          1316.41280	         1.32993e+58
          1317.21910	         1.23600e+58
          1318.02540	         1.13228e+58
          1318.83170	         1.13161e+58
          1319.63800	         1.18183e+58
          1320.44430	         1.19433e+58
          1321.25060	         1.12227e+58
          1322.05690	         1.20200e+58
          1322.86320	         1.24839e+58
          1323.66950	         1.00143e+58
          1324.47580	         8.20010e+57
          1325.28210	         9.49537e+57
          1326.08840	         1.22307e+58
          1326.89470	         1.19827e+58
          1327.70100	         1.00528e+58
          1328.50730	         1.01956e+58
          1329.31360	         1.02136e+58
          1330.11990	         1.03606e+58
          1330.92620	         1.10855e+58
          1331.73250	         1.08851e+58
          1332.53880	         9.54527e+57
          1333.34510	         9.44360e+57
          1334.15140	         1.01552e+58
          1334.95770	         8.37042e+57
          1335.76400	         8.67847e+57
          1336.57030	         1.01568e+58
          1337.37660	         1.03847e+58
          1338.18290	         1.22931e+58
          1338.98920	         1.23285e+58
          1339.79550	         1.12187e+58
          1340.60180	         1.19107e+58
          1341.40810	         1.39859e+58
          1342.21440	         1.23384e+58
          1343.02070	         1.03902e+58
          1343.82700	         1.35013e+58
          1344.63330	         1.39369e+58
          1345.43960	         1.23482e+58
          1346.24590	         1.06347e+58
          1347.05220	         1.18366e+58
          1347.85850	         1.10239e+58
          1348.66480	         1.21500e+58
          1349.47110	         1.18762e+58
          1350.27740	         1.02971e+58
          1351.08370	         1.06020e+58
          1351.89000	         1.19602e+58
          1352.69630	         1.22102e+58
          1353.50260	         1.20024e+58
          1354.30890	         1.15455e+58
          1355.11520	         1.08617e+58
          1355.92150	         1.13072e+58
          1356.72780	         9.63854e+57
          1357.53410	         9.91848e+57
          1358.34040	         1.06277e+58
          1359.14670	         1.06864e+58
          1359.95300	         1.08992e+58
          1360.75930	         1.13572e+58
          1361.56560	         1.08720e+58
          1362.37190	         1.17306e+58
          1363.17820	         1.15477e+58
          1363.98450	         1.08309e+58
          1364.79080	         1.34328e+58
          1365.59710	         1.32530e+58
          1366.40340	         1.21989e+58
          1367.20970	         9.66466e+57
          1368.01600	         9.45165e+57
          1368.82230	         1.02489e+58
          1369.62860	         1.07285e+58
          1370.43490	         1.04674e+58
          1371.24120	         9.09533e+57
          1372.04750	         8.31425e+57
          1372.85380	         9.69811e+57
          1373.66010	         1.06905e+58
          1374.46640	         1.18585e+58
          1375.27270	         1.07007e+58
          1376.07900	         8.01587e+57
          1376.88530	         7.66210e+57
          1377.69160	         7.78815e+57
          1378.49790	         7.76657e+57
          1379.30420	         7.48183e+57
          1380.11050	         9.36209e+57
          1380.91680	         9.06899e+57
          1381.72310	         8.79897e+57
          1382.52940	         7.67191e+57
          1383.33570	         6.07455e+57
          1384.14200	         9.01807e+57
          1384.94830	         1.17892e+58
          1385.75460	         1.12930e+58
          1386.56090	         1.07890e+58
          1387.36720	         1.04877e+58
          1388.17350	         1.32433e+58
          1388.97980	         1.08435e+58
          1389.78610	         7.45683e+57
          1390.59240	         7.86615e+57
          1391.39870	         6.41776e+57
          1392.20500	         9.23366e+57
          1393.01130	         8.02943e+57
          1393.81760	         6.93991e+57
          1394.62390	         8.07181e+57
          1395.43020	         5.76434e+57
          1396.23650	         5.54066e+57
          1397.04280	         6.85434e+57
          1397.84910	         8.32934e+57
          1398.65540	         8.91902e+57
          1399.46170	         8.86108e+57
          1400.26800	         6.95569e+57
          1401.07430	         6.25493e+57
          1401.88060	         8.49613e+57
          1402.68690	         9.92451e+57
          1403.49320	         8.60965e+57
          1404.29950	         8.59500e+57
          1405.10580	         1.10162e+58
          1405.91210	         1.07701e+58
          1406.71840	         9.05580e+57
          1407.52470	         1.01040e+58
          1408.33100	         1.06609e+58
          1409.13730	         1.12078e+58
          1409.94360	         1.05804e+58
          1410.74990	         1.08023e+58
          1411.55620	         1.04679e+58
          1412.36250	         9.21793e+57
          1413.16880	         8.19565e+57
          1413.97510	         8.29688e+57
          1414.78140	         7.97403e+57
          1415.58770	         1.02859e+58
          1416.39400	         1.08662e+58
          1417.20030	         9.91262e+57
          1418.00660	         9.23579e+57
          1418.81290	         8.81700e+57
          1419.61920	         1.08332e+58
          1420.42550	         1.35597e+58
          1421.23180	         1.34476e+58
          1422.03810	         1.20644e+58
          1422.84440	         1.08104e+58
          1423.65070	         1.12575e+58
          1424.45700	         1.04217e+58
          1425.26330	         8.90664e+57
          1426.06960	         9.71687e+57
          1426.87590	         9.66922e+57
          1427.68220	         9.59806e+57
          1428.48850	         1.18582e+58
          1429.29480	         1.24220e+58
          1430.10110	         1.05607e+58
          1430.90740	         9.19218e+57
          1431.71370	         9.45598e+57
          1432.52000	         9.10741e+57
          1433.32630	         8.15919e+57
          1434.13260	         7.66554e+57
          1434.93890	         8.44019e+57
          1435.74520	         9.97590e+57
          1436.55150	         9.77889e+57
          1437.35780	         7.84096e+57
          1438.16410	         7.89091e+57
          1438.97040	         8.32742e+57
          1439.77670	         8.94729e+57
          1440.58300	         9.50466e+57
          1441.38930	         8.55247e+57
          1442.19560	         9.66658e+57
          1443.00190	         1.03035e+58
          1443.80820	         9.77047e+57
          1444.61450	         8.75918e+57
          1445.42080	         8.06325e+57
          1446.22710	         9.76827e+57
          1447.03340	         1.03465e+58
          1447.83970	         1.14145e+58
          1448.64600	         1.09660e+58
          1449.45230	         9.76741e+57
          1450.25860	         9.27011e+57
          1451.06490	         8.58679e+57
          1451.87120	         7.45026e+57
          1452.67750	         7.39064e+57
          1453.48380	         8.88314e+57
          1454.29010	         8.81953e+57
          1455.09640	         7.86010e+57
          1455.90270	         8.02911e+57
          1456.70900	         8.83510e+57
          1457.51530	         1.00496e+58
          1458.32160	         1.19497e+58
          1459.12790	         1.13084e+58
          1459.93420	         1.03103e+58
          1460.74050	         8.14801e+57
          1461.54680	         7.62610e+57
          1462.35310	         7.54739e+57
          1463.15940	         9.02211e+57
          1463.96570	         1.16316e+58
          1464.77200	         1.19270e+58
          1465.57830	         1.17414e+58
          1466.38460	         9.47514e+57
          1467.19090	         8.63464e+57
          1467.99720	         7.89296e+57
          1468.80350	         9.52546e+57
          1469.60980	         1.10118e+58
          1470.41610	         1.05616e+58
          1471.22240	         8.74464e+57
          1472.02870	         9.09760e+57
          1472.83500	         9.30686e+57
          1473.64130	         9.46926e+57
          1474.44760	         9.73320e+57
          1475.25390	         8.70595e+57
          1476.06020	         8.18395e+57
          1476.86650	         8.66579e+57
          1477.67280	         7.87229e+57
          1478.47910	         7.19820e+57
          1479.28540	         7.10751e+57
          1480.09170	         9.13461e+57
          1480.89800	         1.00188e+58
          1481.70430	         9.04096e+57
          1482.51060	         8.46683e+57
          1483.31690	         8.43863e+57
          1484.12320	         9.33821e+57
          1484.92950	         8.03172e+57
          1485.73580	         7.55326e+57
          1486.54210	         7.88187e+57
          1487.34840	         8.39032e+57
          1488.15470	         8.76115e+57
          1488.96100	         9.15740e+57
          1489.76730	         9.06753e+57
