#sample_48_stacked_spectrum_rest_UV-bands_median_H-alpha_noDC.txt
#median Lum: 1.67094e+42
#Rest-frame wavelength (A) | Luminosity (erg/s/A)
#
          1110.00000	         0.00000e+00
          1110.80630	         3.99269e+58
          1111.61260	        -3.88235e+58
          1112.41890	         7.12913e+57
          1113.22520	        -1.50724e+59
          1114.03150	        -1.36005e+59
          1114.83780	         2.74250e+59
          1115.64410	         2.00180e+59
          1116.45040	         7.01203e+58
          1117.25670	         9.26720e+58
          1118.06300	         2.63859e+59
          1118.86930	         4.85370e+58
          1119.67560	         1.18721e+59
          1120.48190	         4.58111e+58
          1121.28820	        -7.01703e+58
          1122.09450	        -1.46991e+58
          1122.90080	         1.36878e+58
          1123.70710	         9.95809e+58
          1124.51340	         7.05981e+58
          1125.31970	         1.21962e+58
          1126.12600	         3.29861e+58
          1126.93230	        -7.75712e+58
          1127.73860	        -8.92716e+58
          1128.54490	        -8.50831e+57
          1129.35120	         2.72887e+58
          1130.15750	         1.79101e+58
          1130.96380	        -2.84066e+58
          1131.77010	         7.11025e+58
          1132.57640	         6.01348e+58
          1133.38270	         2.85238e+58
          1134.18900	        -2.48755e+57
          1134.99530	         3.22247e+57
          1135.80160	        -1.66819e+58
          1136.60790	         1.79570e+58
          1137.41420	        -1.51488e+57
          1138.22050	         2.82579e+58
          1139.02680	         2.05133e+58
          1139.83310	         2.67048e+58
          1140.63940	         3.15658e+58
          1141.44570	        -3.23461e+58
          1142.25200	        -3.09381e+58
          1143.05830	        -1.23564e+57
          1143.86460	         1.52650e+58
          1144.67090	         1.01786e+58
          1145.47720	         7.24987e+57
          1146.28350	         1.87371e+58
          1147.08980	         5.65767e+57
          1147.89610	         7.87511e+57
          1148.70240	         2.33098e+58
          1149.50870	         3.06029e+58
          1150.31500	         1.39816e+58
          1151.12130	         1.50329e+58
          1151.92760	         1.66652e+58
          1152.73390	         1.65558e+58
          1153.54020	         1.43280e+58
          1154.34650	         2.56572e+58
          1155.15280	         1.87667e+58
          1155.95910	         3.99220e+56
          1156.76540	         4.92581e+57
          1157.57170	        -7.73387e+57
          1158.37800	        -1.30938e+57
          1159.18430	        -7.20920e+57
          1159.99060	         4.65198e+57
          1160.79690	         1.62697e+57
          1161.60320	         1.42885e+58
          1162.40950	         2.22475e+58
          1163.21580	         2.11390e+58
          1164.02210	         1.47039e+58
          1164.82840	         4.20408e+57
          1165.63470	         1.11213e+58
          1166.44100	         2.25048e+58
          1167.24730	         2.04158e+58
          1168.05360	         5.93509e+57
          1168.85990	         1.58888e+58
          1169.66620	         1.72116e+58
          1170.47250	         1.90286e+58
          1171.27880	         1.73895e+58
          1172.08510	         1.22925e+58
          1172.89140	         1.07090e+58
          1173.69770	         1.16228e+58
          1174.50400	         7.53622e+57
          1175.31030	         1.08784e+58
          1176.11660	         1.11699e+58
          1176.92290	         1.45975e+58
          1177.72920	         1.33906e+58
          1178.53550	         9.18829e+57
          1179.34180	         6.98534e+57
          1180.14810	         4.95115e+57
          1180.95440	         7.96379e+57
          1181.76070	         7.83912e+57
          1182.56700	         1.00657e+58
          1183.37330	         8.58537e+57
          1184.17960	         1.22763e+58
          1184.98590	         9.37480e+57
          1185.79220	         4.52467e+57
          1186.59850	         8.93822e+57
          1187.40480	         7.30401e+57
          1188.21110	         1.49653e+58
          1189.01740	         1.21323e+58
          1189.82370	         1.34638e+58
          1190.63000	         1.45996e+58
          1191.43630	         1.73251e+58
          1192.24260	         1.11733e+58
          1193.04890	         1.21855e+58
          1193.85520	         1.25015e+58
          1194.66150	         3.98728e+57
          1195.46780	         5.10153e+57
          1196.27410	         1.27217e+58
          1197.08040	         1.51898e+58
          1197.88670	         1.87363e+58
          1198.69300	         1.44317e+58
          1199.49930	         1.40233e+58
          1200.30560	         1.23796e+58
          1201.11190	         8.97790e+57
          1201.91820	         7.91472e+57
          1202.72450	         1.05154e+58
          1203.53080	         1.86665e+58
          1204.33710	         8.99179e+57
          1205.14340	         9.67162e+57
          1205.94970	         9.51405e+57
          1206.75600	         7.72392e+57
          1207.56230	         7.47768e+57
          1208.36860	         1.14929e+58
          1209.17490	         3.71686e+57
          1209.98120	         4.53691e+57
          1210.78750	         8.08898e+57
          1211.59380	         1.41898e+58
          1212.40010	         1.80012e+58
          1213.20640	         2.25652e+58
          1214.01270	         2.21501e+58
          1214.81900	         2.60294e+58
          1215.62530	         4.62467e+58
          1216.43160	         9.06048e+58
          1217.23790	         1.52602e+59
          1218.04420	         1.13852e+59
          1218.85050	         8.43514e+58
          1219.65680	         5.71478e+58
          1220.46310	         3.72035e+58
          1221.26940	         2.58089e+58
          1222.07570	         1.66724e+58
          1222.88200	         1.29558e+58
          1223.68830	         1.06838e+58
          1224.49460	         8.99521e+57
          1225.30090	         5.34607e+57
          1226.10720	         6.71990e+57
          1226.91350	         6.21577e+57
          1227.71980	         1.11843e+58
          1228.52610	         1.39909e+58
          1229.33240	         9.79451e+57
          1230.13870	         7.96654e+57
          1230.94500	         9.00150e+57
          1231.75130	         6.48042e+57
          1232.55760	         9.89378e+57
          1233.36390	         8.43708e+57
          1234.17020	         7.68452e+57
          1234.97650	         7.85667e+57
          1235.78280	         8.19772e+57
          1236.58910	         7.55863e+57
          1237.39540	         1.02481e+58
          1238.20170	         1.08190e+58
          1239.00800	         1.11814e+58
          1239.81430	         1.18854e+58
          1240.62060	         9.53096e+57
          1241.42690	         9.86843e+57
          1242.23320	         1.19279e+58
          1243.03950	         9.05668e+57
          1243.84580	         7.92264e+57
          1244.65210	         9.89963e+57
          1245.45840	         1.05697e+58
          1246.26470	         8.80256e+57
          1247.07100	         7.82198e+57
          1247.87730	         4.80955e+57
          1248.68360	         4.53551e+57
          1249.48990	         4.11213e+57
          1250.29620	         8.92244e+57
          1251.10250	         9.26381e+57
          1251.90880	         7.89727e+57
          1252.71510	         5.45230e+57
          1253.52140	         6.42389e+57
          1254.32770	         1.13347e+58
          1255.13400	         1.71646e+58
          1255.94030	         1.41484e+58
          1256.74660	         1.05712e+58
          1257.55290	         1.09960e+58
          1258.35920	         9.02738e+57
          1259.16550	         6.41689e+57
          1259.97180	         7.28002e+57
          1260.77810	         1.00979e+58
          1261.58440	         1.03565e+58
          1262.39070	         7.44155e+57
          1263.19700	         9.78201e+57
          1264.00330	         1.00709e+58
          1264.80960	         1.00907e+58
          1265.61590	         1.10358e+58
          1266.42220	         1.23602e+58
          1267.22850	         1.27099e+58
          1268.03480	         1.48635e+58
          1268.84110	         1.59040e+58
          1269.64740	         1.25353e+58
          1270.45370	         1.28755e+58
          1271.26000	         1.31832e+58
          1272.06630	         1.31252e+58
          1272.87260	         1.31239e+58
          1273.67890	         1.33267e+58
          1274.48520	         1.39543e+58
          1275.29150	         1.43475e+58
          1276.09780	         1.18323e+58
          1276.90410	         1.16185e+58
          1277.71040	         1.27023e+58
          1278.51670	         1.34217e+58
          1279.32300	         1.21265e+58
          1280.12930	         1.19071e+58
          1280.93560	         1.33686e+58
          1281.74190	         1.34255e+58
          1282.54820	         1.24744e+58
          1283.35450	         8.59098e+57
          1284.16080	         8.83035e+57
          1284.96710	         1.22981e+58
          1285.77340	         1.08513e+58
          1286.57970	         1.00226e+58
          1287.38600	         1.51936e+58
          1288.19230	         1.92051e+58
          1288.99860	         1.65765e+58
          1289.80490	         1.31452e+58
          1290.61120	         1.34003e+58
          1291.41750	         1.45789e+58
          1292.22380	         1.36213e+58
          1293.03010	         1.24273e+58
          1293.83640	         1.22706e+58
          1294.64270	         1.07350e+58
          1295.44900	         7.75486e+57
          1296.25530	         8.12735e+57
          1297.06160	         9.42429e+57
          1297.86790	         9.27046e+57
          1298.67420	         1.03411e+58
          1299.48050	         1.09302e+58
          1300.28680	         1.15114e+58
          1301.09310	         8.71621e+57
          1301.89940	         3.49387e+57
          1302.70570	         6.19607e+57
          1303.51200	         8.09200e+57
          1304.31830	         8.91751e+57
          1305.12460	         1.04083e+58
          1305.93090	         1.20241e+58
          1306.73720	         1.34750e+58
          1307.54350	         1.44759e+58
          1308.34980	         1.44609e+58
          1309.15610	         1.45663e+58
          1309.96240	         1.63897e+58
          1310.76870	         1.29600e+58
          1311.57500	         1.13338e+58
          1312.38130	         1.24256e+58
          1313.18760	         1.52079e+58
          1313.99390	         1.72883e+58
          1314.80020	         1.67815e+58
          1315.60650	         1.57916e+58
          1316.41280	         1.25428e+58
          1317.21910	         1.04200e+58
          1318.02540	         1.10324e+58
          1318.83170	         1.28675e+58
          1319.63800	         1.22511e+58
          1320.44430	         1.06710e+58
          1321.25060	         1.13429e+58
          1322.05690	         1.18864e+58
          1322.86320	         1.17175e+58
          1323.66950	         1.16522e+58
          1324.47580	         9.33469e+57
          1325.28210	         9.77096e+57
          1326.08840	         1.38638e+58
          1326.89470	         1.40729e+58
          1327.70100	         9.85480e+57
          1328.50730	         8.50230e+57
          1329.31360	         9.79006e+57
          1330.11990	         1.06937e+58
          1330.92620	         9.32711e+57
          1331.73250	         1.04895e+58
          1332.53880	         9.77356e+57
          1333.34510	         8.57403e+57
          1334.15140	         8.55977e+57
          1334.95770	         8.78731e+57
          1335.76400	         1.08130e+58
          1336.57030	         9.77512e+57
          1337.37660	         9.76312e+57
          1338.18290	         1.23155e+58
          1338.98920	         1.18794e+58
          1339.79550	         1.16180e+58
          1340.60180	         1.30542e+58
          1341.40810	         1.39897e+58
          1342.21440	         1.06158e+58
          1343.02070	         1.08892e+58
          1343.82700	         1.18264e+58
          1344.63330	         1.08460e+58
          1345.43960	         1.40243e+58
          1346.24590	         1.23406e+58
          1347.05220	         1.09244e+58
          1347.85850	         9.66545e+57
          1348.66480	         1.20948e+58
          1349.47110	         1.28250e+58
          1350.27740	         1.29375e+58
          1351.08370	         1.19019e+58
          1351.89000	         1.06663e+58
          1352.69630	         1.04876e+58
          1353.50260	         1.07811e+58
          1354.30890	         1.08552e+58
          1355.11520	         1.08765e+58
          1355.92150	         1.02423e+58
          1356.72780	         9.71029e+57
          1357.53410	         9.43585e+57
          1358.34040	         1.07722e+58
          1359.14670	         1.01830e+58
          1359.95300	         1.14078e+58
          1360.75930	         1.16673e+58
          1361.56560	         1.05849e+58
          1362.37190	         1.05758e+58
          1363.17820	         1.03664e+58
          1363.98450	         1.17750e+58
          1364.79080	         1.21855e+58
          1365.59710	         1.23231e+58
          1366.40340	         1.24406e+58
          1367.20970	         1.05233e+58
          1368.01600	         9.43932e+57
          1368.82230	         9.67347e+57
          1369.62860	         1.07561e+58
          1370.43490	         1.00252e+58
          1371.24120	         9.58330e+57
          1372.04750	         9.89569e+57
          1372.85380	         1.17950e+58
          1373.66010	         1.31946e+58
          1374.46640	         1.24920e+58
          1375.27270	         1.10852e+58
          1376.07900	         9.07289e+57
          1376.88530	         8.37025e+57
          1377.69160	         8.57646e+57
          1378.49790	         8.44085e+57
          1379.30420	         8.14176e+57
          1380.11050	         9.01071e+57
          1380.91680	         7.78680e+57
          1381.72310	         7.22287e+57
          1382.52940	         7.89594e+57
          1383.33570	         6.80869e+57
          1384.14200	         7.69410e+57
          1384.94830	         1.08732e+58
          1385.75460	         1.16088e+58
          1386.56090	         1.23285e+58
          1387.36720	         1.15850e+58
          1388.17350	         1.26958e+58
          1388.97980	         1.06940e+58
          1389.78610	         9.24877e+57
          1390.59240	         8.91115e+57
          1391.39870	         7.35763e+57
          1392.20500	         7.29795e+57
          1393.01130	         6.66353e+57
          1393.81760	         7.08822e+57
          1394.62390	         7.97847e+57
          1395.43020	         7.67688e+57
          1396.23650	         7.51699e+57
          1397.04280	         7.29539e+57
          1397.84910	         8.30394e+57
          1398.65540	         9.35672e+57
          1399.46170	         1.07639e+58
          1400.26800	         9.81013e+57
          1401.07430	         7.82381e+57
          1401.88060	         8.72088e+57
          1402.68690	         1.02911e+58
          1403.49320	         1.05769e+58
          1404.29950	         9.24324e+57
          1405.10580	         1.04938e+58
          1405.91210	         1.09336e+58
          1406.71840	         1.01481e+58
          1407.52470	         1.03339e+58
          1408.33100	         9.92623e+57
          1409.13730	         1.13623e+58
          1409.94360	         1.15846e+58
          1410.74990	         1.03510e+58
          1411.55620	         9.48340e+57
          1412.36250	         8.83703e+57
          1413.16880	         8.91488e+57
          1413.97510	         8.23665e+57
          1414.78140	         8.73990e+57
          1415.58770	         1.02461e+58
          1416.39400	         1.14592e+58
          1417.20030	         1.25583e+58
          1418.00660	         1.11341e+58
          1418.81290	         1.11308e+58
          1419.61920	         1.15581e+58
          1420.42550	         1.28165e+58
          1421.23180	         1.33198e+58
          1422.03810	         1.17479e+58
          1422.84440	         1.20993e+58
          1423.65070	         1.34107e+58
          1424.45700	         1.20914e+58
          1425.26330	         8.79312e+57
          1426.06960	         8.22035e+57
          1426.87590	         1.01991e+58
          1427.68220	         1.07765e+58
          1428.48850	         1.05829e+58
          1429.29480	         1.00876e+58
          1430.10110	         9.57642e+57
          1430.90740	         8.57398e+57
          1431.71370	         9.06762e+57
          1432.52000	         9.04875e+57
          1433.32630	         9.01129e+57
          1434.13260	         8.14449e+57
          1434.93890	         8.55962e+57
          1435.74520	         9.66434e+57
          1436.55150	         1.00063e+58
          1437.35780	         9.69032e+57
          1438.16410	         1.02724e+58
          1438.97040	         9.59969e+57
          1439.77670	         8.76732e+57
          1440.58300	         8.98133e+57
          1441.38930	         1.04963e+58
          1442.19560	         1.03593e+58
          1443.00190	         8.80619e+57
          1443.80820	         1.07271e+58
          1444.61450	         1.03721e+58
          1445.42080	         9.28722e+57
          1446.22710	         1.07942e+58
          1447.03340	         9.72491e+57
          1447.83970	         9.88348e+57
          1448.64600	         1.04812e+58
          1449.45230	         1.00259e+58
          1450.25860	         9.82548e+57
          1451.06490	         8.52104e+57
          1451.87120	         8.26340e+57
          1452.67750	         8.26936e+57
          1453.48380	         8.35061e+57
          1454.29010	         7.87550e+57
          1455.09640	         7.22445e+57
          1455.90270	         9.22901e+57
          1456.70900	         9.12639e+57
          1457.51530	         8.71467e+57
          1458.32160	         1.20289e+58
          1459.12790	         1.12496e+58
          1459.93420	         9.16610e+57
          1460.74050	         8.32203e+57
          1461.54680	         8.46365e+57
          1462.35310	         8.16001e+57
          1463.15940	         8.91558e+57
          1463.96570	         1.01308e+58
          1464.77200	         1.08274e+58
          1465.57830	         9.77554e+57
          1466.38460	         9.23782e+57
          1467.19090	         1.00438e+58
          1467.99720	         9.50337e+57
          1468.80350	         9.75581e+57
          1469.60980	         1.03393e+58
          1470.41610	         1.14153e+58
          1471.22240	         1.00662e+58
          1472.02870	         8.71546e+57
          1472.83500	         9.80600e+57
          1473.64130	         9.51752e+57
          1474.44760	         1.06256e+58
          1475.25390	         1.10922e+58
          1476.06020	         9.38650e+57
          1476.86650	         8.37071e+57
          1477.67280	         7.98282e+57
          1478.47910	         6.96955e+57
          1479.28540	         7.41184e+57
          1480.09170	         7.93265e+57
          1480.89800	         7.80616e+57
          1481.70430	         8.57661e+57
          1482.51060	         7.66529e+57
          1483.31690	         7.98493e+57
          1484.12320	         8.72748e+57
          1484.92950	         8.34845e+57
          1485.73580	         8.41269e+57
          1486.54210	         8.41748e+57
          1487.34840	         8.96727e+57
          1488.15470	         8.38571e+57
          1488.96100	         9.52563e+57
          1489.76730	         1.02063e+58
