#sample_297_stacked_spectrum_rest_UV-bands_median_H-alpha_noDC.txt
#median Lum: 1.69338e+42
#Rest-frame wavelength (A) | Luminosity (erg/s/A)
#
          1110.00000	         0.00000e+00
          1110.80630	        -1.80689e+58
          1111.61260	         3.82428e+59
          1112.41890	         2.62677e+59
          1113.22520	        -5.56366e+58
          1114.03150	        -2.56818e+58
          1114.83780	         2.84048e+59
          1115.64410	         7.72205e+58
          1116.45040	        -8.69202e+57
          1117.25670	        -8.28514e+58
          1118.06300	         2.31183e+58
          1118.86930	         2.48667e+58
          1119.67560	         1.02294e+59
          1120.48190	        -2.33812e+58
          1121.28820	        -5.53519e+58
          1122.09450	        -2.59307e+57
          1122.90080	        -2.03668e+58
          1123.70710	         6.31724e+58
          1124.51340	         7.49742e+58
          1125.31970	         2.60747e+58
          1126.12600	         1.26217e+58
          1126.93230	        -7.88652e+58
          1127.73860	        -8.11062e+58
          1128.54490	        -2.83484e+58
          1129.35120	        -3.89110e+58
          1130.15750	         2.94573e+58
          1130.96380	         4.70823e+57
          1131.77010	         6.42657e+58
          1132.57640	         7.35887e+58
          1133.38270	         2.11215e+58
          1134.18900	        -2.99858e+57
          1134.99530	         7.60459e+57
          1135.80160	         3.08888e+58
          1136.60790	         2.37518e+58
          1137.41420	        -3.96653e+57
          1138.22050	         2.18320e+58
          1139.02680	         4.13609e+58
          1139.83310	         1.64720e+58
          1140.63940	         1.64741e+58
          1141.44570	        -1.21097e+58
          1142.25200	        -6.23655e+57
          1143.05830	         1.67209e+58
          1143.86460	         2.50331e+58
          1144.67090	         2.95570e+58
          1145.47720	        -1.57316e+57
          1146.28350	         1.09114e+58
          1147.08980	         1.68602e+58
          1147.89610	         1.66448e+58
          1148.70240	         1.43009e+58
          1149.50870	         1.79753e+58
          1150.31500	         1.87221e+58
          1151.12130	         1.67411e+58
          1151.92760	         8.38781e+57
          1152.73390	         1.42756e+57
          1153.54020	         6.44644e+57
          1154.34650	         1.17425e+58
          1155.15280	         3.24640e+57
          1155.95910	         4.10896e+57
          1156.76540	        -3.39555e+56
          1157.57170	        -1.19275e+57
          1158.37800	        -2.83600e+57
          1159.18430	        -6.80392e+57
          1159.99060	         1.07670e+58
          1160.79690	         6.05231e+57
          1161.60320	         1.40619e+58
          1162.40950	         6.90963e+57
          1163.21580	         1.89849e+58
          1164.02210	         9.39445e+57
          1164.82840	         1.92417e+58
          1165.63470	         2.25620e+58
          1166.44100	         2.31796e+58
          1167.24730	         2.19577e+58
          1168.05360	         8.99056e+57
          1168.85990	         7.56146e+57
          1169.66620	         9.49189e+57
          1170.47250	         7.96600e+57
          1171.27880	         6.06226e+57
          1172.08510	         2.19844e+58
          1172.89140	         1.29737e+58
          1173.69770	         4.62376e+57
          1174.50400	         1.25071e+58
          1175.31030	         1.95101e+58
          1176.11660	         1.70959e+58
          1176.92290	         1.59263e+58
          1177.72920	         1.37854e+58
          1178.53550	         1.12670e+58
          1179.34180	         4.18466e+57
          1180.14810	         1.01615e+58
          1180.95440	         1.05101e+58
          1181.76070	         7.32644e+57
          1182.56700	         6.80112e+57
          1183.37330	         3.74494e+57
          1184.17960	         1.14838e+58
          1184.98590	         1.14405e+58
          1185.79220	         9.48068e+57
          1186.59850	         1.48348e+58
          1187.40480	         1.13545e+58
          1188.21110	         1.09212e+58
          1189.01740	         1.50674e+58
          1189.82370	         1.69344e+58
          1190.63000	         1.05178e+58
          1191.43630	         1.13505e+58
          1192.24260	         6.91249e+57
          1193.04890	         1.34125e+58
          1193.85520	         1.49498e+58
          1194.66150	         6.19876e+57
          1195.46780	         1.18171e+58
          1196.27410	         1.70684e+58
          1197.08040	         1.02177e+58
          1197.88670	         1.38750e+58
          1198.69300	         1.75293e+58
          1199.49930	         1.80682e+58
          1200.30560	         9.85662e+57
          1201.11190	         9.21416e+57
          1201.91820	         1.18239e+58
          1202.72450	         7.46822e+57
          1203.53080	         1.57965e+58
          1204.33710	         8.39914e+57
          1205.14340	         8.33678e+57
          1205.94970	         7.97357e+57
          1206.75600	         4.34236e+57
          1207.56230	         5.11864e+57
          1208.36860	         1.02853e+58
          1209.17490	         6.83768e+57
          1209.98120	         5.90658e+57
          1210.78750	         8.95640e+57
          1211.59380	         1.59714e+58
          1212.40010	         2.02578e+58
          1213.20640	         2.10501e+58
          1214.01270	         2.27332e+58
          1214.81900	         2.75736e+58
          1215.62530	         4.34951e+58
          1216.43160	         8.82281e+58
          1217.23790	         1.47911e+59
          1218.04420	         1.13031e+59
          1218.85050	         8.40066e+58
          1219.65680	         5.78249e+58
          1220.46310	         3.63015e+58
          1221.26940	         2.59487e+58
          1222.07570	         1.71432e+58
          1222.88200	         1.11324e+58
          1223.68830	         8.61726e+57
          1224.49460	         7.41494e+57
          1225.30090	         6.73979e+57
          1226.10720	         5.74997e+57
          1226.91350	         7.83620e+57
          1227.71980	         9.29414e+57
          1228.52610	         9.87392e+57
          1229.33240	         6.35293e+57
          1230.13870	         9.73391e+57
          1230.94500	         7.49525e+57
          1231.75130	         5.15738e+57
          1232.55760	         8.01796e+57
          1233.36390	         7.93490e+57
          1234.17020	         7.42041e+57
          1234.97650	         8.67962e+57
          1235.78280	         7.77481e+57
          1236.58910	         7.22317e+57
          1237.39540	         9.37836e+57
          1238.20170	         1.14359e+58
          1239.00800	         1.27146e+58
          1239.81430	         1.19080e+58
          1240.62060	         9.10806e+57
          1241.42690	         1.08874e+58
          1242.23320	         1.26108e+58
          1243.03950	         7.15236e+57
          1243.84580	         6.65882e+57
          1244.65210	         1.03157e+58
          1245.45840	         1.17301e+58
          1246.26470	         6.88882e+57
          1247.07100	         5.35251e+57
          1247.87730	         7.61753e+57
          1248.68360	         3.47829e+57
          1249.48990	         5.84208e+57
          1250.29620	         1.01084e+58
          1251.10250	         8.85861e+57
          1251.90880	         6.02956e+57
          1252.71510	         6.18591e+57
          1253.52140	         7.25106e+57
          1254.32770	         9.45884e+57
          1255.13400	         1.18042e+58
          1255.94030	         1.21829e+58
          1256.74660	         1.06815e+58
          1257.55290	         1.05748e+58
          1258.35920	         9.72338e+57
          1259.16550	         5.95605e+57
          1259.97180	         3.83991e+57
          1260.77810	         7.68070e+57
          1261.58440	         1.15434e+58
          1262.39070	         9.99756e+57
          1263.19700	         1.09451e+58
          1264.00330	         1.09670e+58
          1264.80960	         1.12024e+58
          1265.61590	         1.40916e+58
          1266.42220	         1.46673e+58
          1267.22850	         1.26803e+58
          1268.03480	         1.46710e+58
          1268.84110	         1.43310e+58
          1269.64740	         1.26474e+58
          1270.45370	         1.43390e+58
          1271.26000	         1.07585e+58
          1272.06630	         1.17764e+58
          1272.87260	         1.46102e+58
          1273.67890	         1.25810e+58
          1274.48520	         1.15787e+58
          1275.29150	         1.16909e+58
          1276.09780	         1.26694e+58
          1276.90410	         1.53221e+58
          1277.71040	         1.31712e+58
          1278.51670	         1.31983e+58
          1279.32300	         1.36452e+58
          1280.12930	         1.24889e+58
          1280.93560	         1.04139e+58
          1281.74190	         1.01289e+58
          1282.54820	         1.23244e+58
          1283.35450	         1.21227e+58
          1284.16080	         1.13070e+58
          1284.96710	         1.25295e+58
          1285.77340	         1.25314e+58
          1286.57970	         1.24094e+58
          1287.38600	         1.48513e+58
          1288.19230	         1.89311e+58
          1288.99860	         1.61886e+58
          1289.80490	         1.14817e+58
          1290.61120	         1.43549e+58
          1291.41750	         1.52471e+58
          1292.22380	         1.33390e+58
          1293.03010	         1.22230e+58
          1293.83640	         1.15673e+58
          1294.64270	         9.73519e+57
          1295.44900	         6.52486e+57
          1296.25530	         7.37442e+57
          1297.06160	         1.02318e+58
          1297.86790	         1.16071e+58
          1298.67420	         1.09138e+58
          1299.48050	         9.52270e+57
          1300.28680	         8.85605e+57
          1301.09310	         7.58142e+57
          1301.89940	         5.98607e+57
          1302.70570	         7.59674e+57
          1303.51200	         7.58108e+57
          1304.31830	         9.35615e+57
          1305.12460	         1.17984e+58
          1305.93090	         1.21162e+58
          1306.73720	         1.41839e+58
          1307.54350	         1.48538e+58
          1308.34980	         1.37875e+58
          1309.15610	         1.62142e+58
          1309.96240	         1.68865e+58
          1310.76870	         1.47791e+58
          1311.57500	         1.28459e+58
          1312.38130	         1.17442e+58
          1313.18760	         1.46149e+58
          1313.99390	         1.75842e+58
          1314.80020	         1.70247e+58
          1315.60650	         1.51293e+58
          1316.41280	         1.34604e+58
          1317.21910	         1.02882e+58
          1318.02540	         1.15723e+58
          1318.83170	         1.33766e+58
          1319.63800	         1.24969e+58
          1320.44430	         1.26770e+58
          1321.25060	         1.39340e+58
          1322.05690	         1.22207e+58
          1322.86320	         1.10484e+58
          1323.66950	         1.13222e+58
          1324.47580	         9.17898e+57
          1325.28210	         9.36261e+57
          1326.08840	         1.07590e+58
          1326.89470	         1.20724e+58
          1327.70100	         1.07860e+58
          1328.50730	         8.75035e+57
          1329.31360	         1.11095e+58
          1330.11990	         1.15501e+58
          1330.92620	         1.07245e+58
          1331.73250	         1.13558e+58
          1332.53880	         9.84636e+57
          1333.34510	         8.79011e+57
          1334.15140	         9.17318e+57
          1334.95770	         9.36874e+57
          1335.76400	         1.03741e+58
          1336.57030	         1.09174e+58
          1337.37660	         1.10747e+58
          1338.18290	         1.30370e+58
          1338.98920	         1.23770e+58
          1339.79550	         1.14338e+58
          1340.60180	         1.22750e+58
          1341.40810	         1.31723e+58
          1342.21440	         1.22681e+58
          1343.02070	         1.13585e+58
          1343.82700	         1.27278e+58
          1344.63330	         1.36934e+58
          1345.43960	         1.38577e+58
          1346.24590	         1.16096e+58
          1347.05220	         1.07292e+58
          1347.85850	         1.14054e+58
          1348.66480	         1.14297e+58
          1349.47110	         1.33084e+58
          1350.27740	         1.28791e+58
          1351.08370	         9.60400e+57
          1351.89000	         1.05911e+58
          1352.69630	         1.17901e+58
          1353.50260	         1.17574e+58
          1354.30890	         1.19557e+58
          1355.11520	         1.01827e+58
          1355.92150	         1.04306e+58
          1356.72780	         1.19747e+58
          1357.53410	         1.03534e+58
          1358.34040	         1.07958e+58
          1359.14670	         1.19967e+58
          1359.95300	         1.23379e+58
          1360.75930	         1.25271e+58
          1361.56560	         1.11921e+58
          1362.37190	         1.06004e+58
          1363.17820	         1.12253e+58
          1363.98450	         1.28519e+58
          1364.79080	         1.46636e+58
          1365.59710	         1.36130e+58
          1366.40340	         1.15865e+58
          1367.20970	         1.02522e+58
          1368.01600	         1.00724e+58
          1368.82230	         1.07431e+58
          1369.62860	         1.07395e+58
          1370.43490	         1.06115e+58
          1371.24120	         1.12965e+58
          1372.04750	         1.01774e+58
          1372.85380	         9.85106e+57
          1373.66010	         8.61328e+57
          1374.46640	         9.25790e+57
          1375.27270	         1.08467e+58
          1376.07900	         9.75619e+57
          1376.88530	         8.36126e+57
          1377.69160	         7.52891e+57
          1378.49790	         6.88614e+57
          1379.30420	         8.39917e+57
          1380.11050	         9.68332e+57
          1380.91680	         8.27567e+57
          1381.72310	         8.15711e+57
          1382.52940	         8.96765e+57
          1383.33570	         1.00066e+58
          1384.14200	         9.37631e+57
          1384.94830	         1.02161e+58
          1385.75460	         1.23446e+58
          1386.56090	         1.34240e+58
          1387.36720	         1.24412e+58
          1388.17350	         1.35997e+58
          1388.97980	         1.07975e+58
          1389.78610	         8.75377e+57
          1390.59240	         6.37594e+57
          1391.39870	         5.78333e+57
          1392.20500	         7.27200e+57
          1393.01130	         6.76523e+57
          1393.81760	         7.57613e+57
          1394.62390	         8.12432e+57
          1395.43020	         7.17752e+57
          1396.23650	         7.33419e+57
          1397.04280	         6.49177e+57
          1397.84910	         9.01926e+57
          1398.65540	         1.01594e+58
          1399.46170	         9.66295e+57
          1400.26800	         8.81905e+57
          1401.07430	         8.04991e+57
          1401.88060	         9.16777e+57
          1402.68690	         9.73369e+57
          1403.49320	         9.02077e+57
          1404.29950	         8.91370e+57
          1405.10580	         1.02573e+58
          1405.91210	         1.22399e+58
          1406.71840	         1.19147e+58
          1407.52470	         1.06967e+58
          1408.33100	         1.10013e+58
          1409.13730	         1.23742e+58
          1409.94360	         1.22359e+58
          1410.74990	         1.17256e+58
          1411.55620	         9.63294e+57
          1412.36250	         8.98105e+57
          1413.16880	         8.60844e+57
          1413.97510	         8.49719e+57
          1414.78140	         1.00289e+58
          1415.58770	         1.00368e+58
          1416.39400	         1.08784e+58
          1417.20030	         1.05201e+58
          1418.00660	         1.02662e+58
          1418.81290	         1.12219e+58
          1419.61920	         1.11613e+58
          1420.42550	         1.26642e+58
          1421.23180	         1.31630e+58
          1422.03810	         1.34171e+58
          1422.84440	         1.17875e+58
          1423.65070	         1.21675e+58
          1424.45700	         1.15573e+58
          1425.26330	         1.00020e+58
          1426.06960	         9.03248e+57
          1426.87590	         1.00587e+58
          1427.68220	         1.17404e+58
          1428.48850	         1.21063e+58
          1429.29480	         1.13618e+58
          1430.10110	         9.93122e+57
          1430.90740	         8.16278e+57
          1431.71370	         8.94818e+57
          1432.52000	         9.29994e+57
          1433.32630	         8.58635e+57
          1434.13260	         7.96160e+57
          1434.93890	         8.91255e+57
          1435.74520	         9.90704e+57
          1436.55150	         9.71736e+57
          1437.35780	         9.24905e+57
          1438.16410	         9.75307e+57
          1438.97040	         9.69547e+57
          1439.77670	         8.62089e+57
          1440.58300	         8.96980e+57
          1441.38930	         9.90172e+57
          1442.19560	         9.83434e+57
          1443.00190	         9.47735e+57
          1443.80820	         1.08305e+58
          1444.61450	         1.05745e+58
          1445.42080	         9.14566e+57
          1446.22710	         1.08252e+58
          1447.03340	         1.07209e+58
          1447.83970	         1.04601e+58
          1448.64600	         1.13349e+58
          1449.45230	         1.01624e+58
          1450.25860	         1.08589e+58
          1451.06490	         1.00080e+58
          1451.87120	         7.56628e+57
          1452.67750	         7.66243e+57
          1453.48380	         9.19000e+57
          1454.29010	         7.84741e+57
          1455.09640	         7.74204e+57
          1455.90270	         9.39780e+57
          1456.70900	         8.69604e+57
          1457.51530	         9.26324e+57
          1458.32160	         1.23724e+58
          1459.12790	         1.20024e+58
          1459.93420	         9.81161e+57
          1460.74050	         7.79779e+57
          1461.54680	         8.51501e+57
          1462.35310	         7.67881e+57
          1463.15940	         9.16778e+57
          1463.96570	         1.07043e+58
          1464.77200	         1.06815e+58
          1465.57830	         9.35677e+57
          1466.38460	         9.29723e+57
          1467.19090	         1.00950e+58
          1467.99720	         8.99981e+57
          1468.80350	         9.20799e+57
          1469.60980	         9.60775e+57
          1470.41610	         9.72330e+57
          1471.22240	         8.72638e+57
          1472.02870	         9.48991e+57
          1472.83500	         9.62759e+57
          1473.64130	         9.23423e+57
          1474.44760	         8.98954e+57
          1475.25390	         9.40042e+57
          1476.06020	         9.94114e+57
          1476.86650	         9.82449e+57
          1477.67280	         8.72114e+57
          1478.47910	         7.79548e+57
          1479.28540	         7.29647e+57
          1480.09170	         9.27468e+57
          1480.89800	         8.72398e+57
          1481.70430	         8.80036e+57
          1482.51060	         8.77461e+57
          1483.31690	         7.89693e+57
          1484.12320	         8.69323e+57
          1484.92950	         8.53504e+57
          1485.73580	         9.27806e+57
          1486.54210	         8.95141e+57
          1487.34840	         7.75673e+57
          1488.15470	         7.31695e+57
          1488.96100	         8.05820e+57
          1489.76730	         9.17822e+57
