#sample_391_stacked_spectrum_rest_UV-bands_median_H-alpha_noDC.txt
#median Lum: 1.70752e+42
#Rest-frame wavelength (A) | Luminosity (erg/s/A)
#
          1110.00000	         0.00000e+00
          1110.80630	         1.89871e+59
          1111.61260	        -1.33576e+58
          1112.41890	         2.01743e+59
          1113.22520	         8.01134e+57
          1114.03150	        -1.35133e+59
          1114.83780	         3.68000e+56
          1115.64410	        -6.79950e+58
          1116.45040	         1.97266e+59
          1117.25670	         6.95270e+58
          1118.06300	         5.30082e+58
          1118.86930	        -2.13475e+57
          1119.67560	         1.35414e+59
          1120.48190	        -4.50149e+58
          1121.28820	        -8.51712e+58
          1122.09450	         3.61091e+58
          1122.90080	        -1.07942e+58
          1123.70710	         6.20637e+58
          1124.51340	         8.78778e+58
          1125.31970	         1.95824e+58
          1126.12600	         2.80556e+58
          1126.93230	        -3.37745e+58
          1127.73860	        -4.26616e+58
          1128.54490	        -2.22727e+58
          1129.35120	         1.61660e+58
          1130.15750	         8.95795e+57
          1130.96380	         2.82387e+58
          1131.77010	         6.80382e+58
          1132.57640	         3.80922e+58
          1133.38270	         9.73833e+57
          1134.18900	         3.41097e+58
          1134.99530	         4.08297e+58
          1135.80160	         5.54470e+58
          1136.60790	         1.89950e+58
          1137.41420	         1.91149e+56
          1138.22050	         3.23534e+58
          1139.02680	         4.01987e+58
          1139.83310	         2.32882e+58
          1140.63940	         8.26008e+57
          1141.44570	        -1.20111e+58
          1142.25200	         5.60389e+57
          1143.05830	         1.49953e+58
          1143.86460	         2.69640e+58
          1144.67090	         3.45284e+58
          1145.47720	         1.93531e+58
          1146.28350	         1.04224e+58
          1147.08980	         4.74826e+57
          1147.89610	         1.83570e+58
          1148.70240	         2.64285e+58
          1149.50870	         2.12255e+58
          1150.31500	         1.73876e+58
          1151.12130	         7.23994e+57
          1151.92760	         2.94422e+57
          1152.73390	         4.51847e+57
          1153.54020	         8.50608e+56
          1154.34650	         1.38399e+58
          1155.15280	         2.02455e+58
          1155.95910	         5.48361e+57
          1156.76540	         1.14491e+58
          1157.57170	         3.44309e+57
          1158.37800	        -2.05696e+57
          1159.18430	        -3.22390e+57
          1159.99060	         4.49855e+57
          1160.79690	         5.59676e+57
          1161.60320	         1.62291e+58
          1162.40950	         9.34957e+57
          1163.21580	         1.26388e+58
          1164.02210	         1.76791e+58
          1164.82840	         8.45801e+57
          1165.63470	         1.68559e+58
          1166.44100	         3.34651e+58
          1167.24730	         1.89071e+58
          1168.05360	         3.19923e+57
          1168.85990	         9.97207e+57
          1169.66620	         1.06753e+58
          1170.47250	         2.37670e+57
          1171.27880	         6.53859e+57
          1172.08510	         2.20219e+58
          1172.89140	         1.74772e+58
          1173.69770	         1.79216e+57
          1174.50400	         1.08589e+58
          1175.31030	         1.51617e+58
          1176.11660	         1.79335e+58
          1176.92290	         1.45280e+58
          1177.72920	         1.08997e+58
          1178.53550	         8.08928e+57
          1179.34180	         5.39250e+56
          1180.14810	         7.30056e+57
          1180.95440	         1.35865e+58
          1181.76070	         8.75340e+57
          1182.56700	         1.08134e+58
          1183.37330	         7.69295e+57
          1184.17960	         8.55102e+57
          1184.98590	         8.10072e+57
          1185.79220	         9.82810e+57
          1186.59850	         1.15598e+58
          1187.40480	         9.28152e+57
          1188.21110	         1.78675e+58
          1189.01740	         9.70453e+57
          1189.82370	         1.34734e+58
          1190.63000	         1.43049e+58
          1191.43630	         1.49972e+58
          1192.24260	         8.51245e+57
          1193.04890	         1.20410e+58
          1193.85520	         1.12955e+58
          1194.66150	         6.91563e+57
          1195.46780	         7.89001e+57
          1196.27410	         1.51070e+58
          1197.08040	         1.20292e+58
          1197.88670	         1.22682e+58
          1198.69300	         1.50852e+58
          1199.49930	         1.47049e+58
          1200.30560	         1.14105e+58
          1201.11190	         1.20631e+58
          1201.91820	         1.36035e+58
          1202.72450	         8.57515e+57
          1203.53080	         1.51274e+58
          1204.33710	         1.10475e+58
          1205.14340	         9.77069e+57
          1205.94970	         8.38181e+57
          1206.75600	         9.54092e+57
          1207.56230	         5.63748e+57
          1208.36860	         1.17034e+58
          1209.17490	         4.28345e+57
          1209.98120	         5.54913e+57
          1210.78750	         6.05064e+57
          1211.59380	         1.32415e+58
          1212.40010	         1.89918e+58
          1213.20640	         2.07853e+58
          1214.01270	         2.32644e+58
          1214.81900	         2.73136e+58
          1215.62530	         4.42230e+58
          1216.43160	         9.00633e+58
          1217.23790	         1.50359e+59
          1218.04420	         1.07424e+59
          1218.85050	         8.49428e+58
          1219.65680	         5.65249e+58
          1220.46310	         3.07312e+58
          1221.26940	         2.31435e+58
          1222.07570	         1.59894e+58
          1222.88200	         1.47785e+58
          1223.68830	         1.11229e+58
          1224.49460	         7.38542e+57
          1225.30090	         7.53907e+57
          1226.10720	         9.51972e+57
          1226.91350	         7.22708e+57
          1227.71980	         7.26780e+57
          1228.52610	         1.13271e+58
          1229.33240	         9.80987e+57
          1230.13870	         7.38202e+57
          1230.94500	         6.17271e+57
          1231.75130	         6.65007e+57
          1232.55760	         9.09190e+57
          1233.36390	         1.09685e+58
          1234.17020	         8.35161e+57
          1234.97650	         6.95153e+57
          1235.78280	         7.68055e+57
          1236.58910	         7.40752e+57
          1237.39540	         8.53039e+57
          1238.20170	         8.96843e+57
          1239.00800	         1.15461e+58
          1239.81430	         1.25559e+58
          1240.62060	         9.29988e+57
          1241.42690	         7.00072e+57
          1242.23320	         9.50008e+57
          1243.03950	         8.55082e+57
          1243.84580	         7.34575e+57
          1244.65210	         9.47603e+57
          1245.45840	         9.98967e+57
          1246.26470	         8.48960e+57
          1247.07100	         6.50314e+57
          1247.87730	         5.23166e+57
          1248.68360	         4.85098e+57
          1249.48990	         6.42111e+57
          1250.29620	         9.42857e+57
          1251.10250	         7.65628e+57
          1251.90880	         6.31855e+57
          1252.71510	         7.73745e+57
          1253.52140	         7.23680e+57
          1254.32770	         1.17100e+58
          1255.13400	         1.54124e+58
          1255.94030	         1.14879e+58
          1256.74660	         9.05346e+57
          1257.55290	         1.02164e+58
          1258.35920	         9.48418e+57
          1259.16550	         6.19903e+57
          1259.97180	         3.49867e+57
          1260.77810	         6.55006e+57
          1261.58440	         1.07410e+58
          1262.39070	         9.18817e+57
          1263.19700	         9.73773e+57
          1264.00330	         9.64215e+57
          1264.80960	         8.80090e+57
          1265.61590	         1.20863e+58
          1266.42220	         1.36908e+58
          1267.22850	         1.05903e+58
          1268.03480	         1.28820e+58
          1268.84110	         1.47734e+58
          1269.64740	         1.48547e+58
          1270.45370	         1.46305e+58
          1271.26000	         1.16889e+58
          1272.06630	         1.19068e+58
          1272.87260	         1.29266e+58
          1273.67890	         1.21251e+58
          1274.48520	         1.14556e+58
          1275.29150	         1.29368e+58
          1276.09780	         1.11304e+58
          1276.90410	         1.30219e+58
          1277.71040	         1.28660e+58
          1278.51670	         1.16380e+58
          1279.32300	         1.43835e+58
          1280.12930	         1.32081e+58
          1280.93560	         1.20951e+58
          1281.74190	         1.27737e+58
          1282.54820	         1.28764e+58
          1283.35450	         1.00893e+58
          1284.16080	         9.15301e+57
          1284.96710	         1.26300e+58
          1285.77340	         1.14874e+58
          1286.57970	         1.05996e+58
          1287.38600	         1.32050e+58
          1288.19230	         1.61412e+58
          1288.99860	         1.43800e+58
          1289.80490	         9.60290e+57
          1290.61120	         1.24673e+58
          1291.41750	         1.42442e+58
          1292.22380	         1.05897e+58
          1293.03010	         9.34343e+57
          1293.83640	         1.22019e+58
          1294.64270	         1.05015e+58
          1295.44900	         6.44584e+57
          1296.25530	         7.70664e+57
          1297.06160	         9.18695e+57
          1297.86790	         1.00892e+58
          1298.67420	         1.06278e+58
          1299.48050	         9.38075e+57
          1300.28680	         9.59759e+57
          1301.09310	         8.41974e+57
          1301.89940	         5.09867e+57
          1302.70570	         6.06983e+57
          1303.51200	         6.87518e+57
          1304.31830	         9.36462e+57
          1305.12460	         1.19026e+58
          1305.93090	         1.15465e+58
          1306.73720	         1.25866e+58
          1307.54350	         1.38722e+58
          1308.34980	         1.34465e+58
          1309.15610	         1.36240e+58
          1309.96240	         1.33236e+58
          1310.76870	         1.49425e+58
          1311.57500	         1.12756e+58
          1312.38130	         1.11244e+58
          1313.18760	         1.45168e+58
          1313.99390	         1.52608e+58
          1314.80020	         1.44985e+58
          1315.60650	         1.28458e+58
          1316.41280	         1.34253e+58
          1317.21910	         1.27962e+58
          1318.02540	         1.15128e+58
          1318.83170	         1.23375e+58
          1319.63800	         1.18827e+58
          1320.44430	         1.10227e+58
          1321.25060	         1.09346e+58
          1322.05690	         1.00842e+58
          1322.86320	         1.21113e+58
          1323.66950	         1.25713e+58
          1324.47580	         1.05183e+58
          1325.28210	         9.96946e+57
          1326.08840	         1.17978e+58
          1326.89470	         1.39475e+58
          1327.70100	         1.17624e+58
          1328.50730	         8.65528e+57
          1329.31360	         9.94653e+57
          1330.11990	         1.00316e+58
          1330.92620	         9.55605e+57
          1331.73250	         1.00452e+58
          1332.53880	         9.28601e+57
          1333.34510	         9.36478e+57
          1334.15140	         8.18958e+57
          1334.95770	         7.93993e+57
          1335.76400	         1.03423e+58
          1336.57030	         1.10861e+58
          1337.37660	         9.67792e+57
          1338.18290	         9.95793e+57
          1338.98920	         1.19450e+58
          1339.79550	         1.00656e+58
          1340.60180	         1.10202e+58
          1341.40810	         1.35560e+58
          1342.21440	         1.24983e+58
          1343.02070	         1.15578e+58
          1343.82700	         1.35325e+58
          1344.63330	         1.30883e+58
          1345.43960	         1.23551e+58
          1346.24590	         1.10807e+58
          1347.05220	         1.11154e+58
          1347.85850	         1.04686e+58
          1348.66480	         1.27139e+58
          1349.47110	         1.21216e+58
          1350.27740	         1.08925e+58
          1351.08370	         1.08245e+58
          1351.89000	         1.16888e+58
          1352.69630	         1.10578e+58
          1353.50260	         1.01367e+58
          1354.30890	         1.09643e+58
          1355.11520	         1.09172e+58
          1355.92150	         1.03529e+58
          1356.72780	         1.01753e+58
          1357.53410	         9.47459e+57
          1358.34040	         1.06259e+58
          1359.14670	         1.10004e+58
          1359.95300	         1.03031e+58
          1360.75930	         1.11895e+58
          1361.56560	         1.06728e+58
          1362.37190	         1.05449e+58
          1363.17820	         1.00393e+58
          1363.98450	         1.20257e+58
          1364.79080	         1.34231e+58
          1365.59710	         1.22100e+58
          1366.40340	         1.10442e+58
          1367.20970	         9.86093e+57
          1368.01600	         9.77423e+57
          1368.82230	         1.04801e+58
          1369.62860	         1.04892e+58
          1370.43490	         8.54583e+57
          1371.24120	         9.47729e+57
          1372.04750	         9.70152e+57
          1372.85380	         1.09627e+58
          1373.66010	         1.12742e+58
          1374.46640	         1.02091e+58
          1375.27270	         9.16710e+57
          1376.07900	         7.83125e+57
          1376.88530	         7.69203e+57
          1377.69160	         7.66644e+57
          1378.49790	         6.08762e+57
          1379.30420	         6.87763e+57
          1380.11050	         8.74645e+57
          1380.91680	         8.89318e+57
          1381.72310	         7.18675e+57
          1382.52940	         6.85944e+57
          1383.33570	         8.79303e+57
          1384.14200	         9.71258e+57
          1384.94830	         9.61526e+57
          1385.75460	         9.64440e+57
          1386.56090	         9.91662e+57
          1387.36720	         1.10005e+58
          1388.17350	         1.25028e+58
          1388.97980	         9.81614e+57
          1389.78610	         8.23997e+57
          1390.59240	         8.31175e+57
          1391.39870	         7.37534e+57
          1392.20500	         9.30287e+57
          1393.01130	         8.83827e+57
          1393.81760	         7.92382e+57
          1394.62390	         8.53257e+57
          1395.43020	         7.06136e+57
          1396.23650	         6.84149e+57
          1397.04280	         7.37292e+57
          1397.84910	         8.31795e+57
          1398.65540	         8.37743e+57
          1399.46170	         9.48494e+57
          1400.26800	         8.87067e+57
          1401.07430	         7.22934e+57
          1401.88060	         6.72179e+57
          1402.68690	         9.03786e+57
          1403.49320	         9.88784e+57
          1404.29950	         8.57444e+57
          1405.10580	         1.02666e+58
          1405.91210	         1.19934e+58
          1406.71840	         1.06236e+58
          1407.52470	         1.00627e+58
          1408.33100	         1.04125e+58
          1409.13730	         1.07308e+58
          1409.94360	         1.12139e+58
          1410.74990	         1.12981e+58
          1411.55620	         9.90338e+57
          1412.36250	         9.58640e+57
          1413.16880	         9.33363e+57
          1413.97510	         8.50278e+57
          1414.78140	         8.07383e+57
          1415.58770	         9.97114e+57
          1416.39400	         1.03536e+58
          1417.20030	         1.02184e+58
          1418.00660	         1.01507e+58
          1418.81290	         9.02274e+57
          1419.61920	         9.58137e+57
          1420.42550	         1.35975e+58
          1421.23180	         1.42379e+58
          1422.03810	         1.18544e+58
          1422.84440	         9.68046e+57
          1423.65070	         1.13421e+58
          1424.45700	         1.21216e+58
          1425.26330	         8.74872e+57
          1426.06960	         9.41986e+57
          1426.87590	         1.15405e+58
          1427.68220	         1.04613e+58
          1428.48850	         9.93616e+57
          1429.29480	         9.94018e+57
          1430.10110	         9.68822e+57
          1430.90740	         8.58020e+57
          1431.71370	         8.39445e+57
          1432.52000	         8.82935e+57
          1433.32630	         7.52728e+57
          1434.13260	         8.13227e+57
          1434.93890	         8.49697e+57
          1435.74520	         8.57396e+57
          1436.55150	         9.24983e+57
          1437.35780	         8.71263e+57
          1438.16410	         9.03267e+57
          1438.97040	         8.61643e+57
          1439.77670	         8.06735e+57
          1440.58300	         8.19604e+57
          1441.38930	         8.81775e+57
          1442.19560	         8.46591e+57
          1443.00190	         8.82994e+57
          1443.80820	         1.00188e+58
          1444.61450	         9.77792e+57
          1445.42080	         8.68716e+57
          1446.22710	         1.02575e+58
          1447.03340	         1.11383e+58
          1447.83970	         1.14843e+58
          1448.64600	         1.09330e+58
          1449.45230	         9.69068e+57
          1450.25860	         9.14293e+57
          1451.06490	         9.00535e+57
          1451.87120	         8.47695e+57
          1452.67750	         7.73350e+57
          1453.48380	         9.12892e+57
          1454.29010	         8.78950e+57
          1455.09640	         6.99074e+57
          1455.90270	         8.34237e+57
          1456.70900	         9.07868e+57
          1457.51530	         1.02292e+58
          1458.32160	         1.20976e+58
          1459.12790	         1.12446e+58
          1459.93420	         1.01789e+58
          1460.74050	         9.06115e+57
          1461.54680	         8.12602e+57
          1462.35310	         7.64948e+57
          1463.15940	         8.54119e+57
          1463.96570	         1.08483e+58
          1464.77200	         1.16446e+58
          1465.57830	         9.47069e+57
          1466.38460	         9.24390e+57
          1467.19090	         8.79026e+57
          1467.99720	         7.98772e+57
          1468.80350	         8.83966e+57
          1469.60980	         9.61157e+57
          1470.41610	         1.10119e+58
          1471.22240	         9.71627e+57
          1472.02870	         7.52904e+57
          1472.83500	         8.95105e+57
          1473.64130	         9.72114e+57
          1474.44760	         8.98233e+57
          1475.25390	         8.73891e+57
          1476.06020	         7.19519e+57
          1476.86650	         7.81653e+57
          1477.67280	         8.24843e+57
          1478.47910	         6.94152e+57
          1479.28540	         7.57168e+57
          1480.09170	         8.91474e+57
          1480.89800	         8.59483e+57
          1481.70430	         8.02521e+57
          1482.51060	         7.70549e+57
          1483.31690	         7.71314e+57
          1484.12320	         7.24505e+57
          1484.92950	         7.43599e+57
          1485.73580	         7.75705e+57
          1486.54210	         8.04801e+57
          1487.34840	         8.50819e+57
          1488.15470	         8.12112e+57
          1488.96100	         7.92093e+57
          1489.76730	         8.58991e+57
