#sample_55_stacked_spectrum_rest_UV-bands_median_H-alpha_noDC.txt
#median Lum: 1.72471e+42
#Rest-frame wavelength (A) | Luminosity (erg/s/A)
#
          1110.00000	         0.00000e+00
          1110.80630	         1.78425e+59
          1111.61260	         9.89391e+58
          1112.41890	         2.53237e+59
          1113.22520	         1.82531e+59
          1114.03150	        -1.44396e+58
          1114.83780	         2.55923e+59
          1115.64410	         3.14488e+59
          1116.45040	         5.94325e+56
          1117.25670	        -1.20641e+59
          1118.06300	         5.69915e+58
          1118.86930	         1.60146e+58
          1119.67560	         5.21777e+58
          1120.48190	        -1.07225e+59
          1121.28820	        -1.86321e+59
          1122.09450	         5.06943e+58
          1122.90080	         9.33150e+58
          1123.70710	         1.29394e+59
          1124.51340	         9.95932e+58
          1125.31970	         8.04358e+58
          1126.12600	        -8.76464e+57
          1126.93230	        -5.53039e+58
          1127.73860	        -3.53888e+58
          1128.54490	         3.55713e+57
          1129.35120	         2.14536e+58
          1130.15750	        -4.12522e+58
          1130.96380	        -7.77626e+57
          1131.77010	         4.74947e+58
          1132.57640	         8.10174e+58
          1133.38270	         5.33786e+58
          1134.18900	         3.81988e+58
          1134.99530	        -1.08246e+57
          1135.80160	         3.80092e+57
          1136.60790	         3.15671e+58
          1137.41420	         3.08710e+58
          1138.22050	         4.22686e+58
          1139.02680	         2.97737e+58
          1139.83310	         2.75464e+57
          1140.63940	         2.09031e+58
          1141.44570	         6.26787e+57
          1142.25200	        -5.63478e+56
          1143.05830	         1.15672e+58
          1143.86460	         2.10699e+58
          1144.67090	         3.88485e+58
          1145.47720	         1.47407e+57
          1146.28350	         2.35275e+57
          1147.08980	         1.41836e+58
          1147.89610	         2.87117e+58
          1148.70240	         2.18918e+58
          1149.50870	         2.06823e+58
          1150.31500	         2.20785e+58
          1151.12130	         8.27333e+57
          1151.92760	         2.87925e+57
          1152.73390	         6.33765e+57
          1153.54020	         5.20422e+57
          1154.34650	         1.84874e+58
          1155.15280	         1.97208e+58
          1155.95910	         1.28287e+58
          1156.76540	         8.40539e+57
          1157.57170	         1.56366e+57
          1158.37800	         1.54204e+57
          1159.18430	        -2.78491e+57
          1159.99060	         1.01494e+58
          1160.79690	         6.60859e+57
          1161.60320	         1.25885e+58
          1162.40950	         1.79245e+58
          1163.21580	         1.57735e+58
          1164.02210	         1.08914e+58
          1164.82840	         3.43881e+57
          1165.63470	         2.06288e+58
          1166.44100	         2.51650e+58
          1167.24730	         2.02163e+58
          1168.05360	         7.70295e+57
          1168.85990	         8.47524e+57
          1169.66620	         1.10257e+58
          1170.47250	         1.52403e+58
          1171.27880	         4.69754e+57
          1172.08510	         3.70948e+57
          1172.89140	         1.25990e+58
          1173.69770	         1.25814e+58
          1174.50400	         1.12667e+58
          1175.31030	         1.19125e+58
          1176.11660	         2.13847e+58
          1176.92290	         1.63435e+58
          1177.72920	         1.23053e+58
          1178.53550	         8.76379e+57
          1179.34180	         3.60354e+57
          1180.14810	         5.92044e+57
          1180.95440	         9.46585e+57
          1181.76070	         7.15088e+57
          1182.56700	         8.00017e+57
          1183.37330	         4.22236e+57
          1184.17960	         5.25692e+57
          1184.98590	         7.04966e+57
          1185.79220	         4.80193e+57
          1186.59850	         1.14606e+58
          1187.40480	         1.24511e+58
          1188.21110	         1.37396e+58
          1189.01740	         3.00085e+57
          1189.82370	         8.02136e+57
          1190.63000	         1.38494e+58
          1191.43630	         1.50339e+58
          1192.24260	         8.81631e+57
          1193.04890	         1.38572e+58
          1193.85520	         1.51220e+58
          1194.66150	         1.43656e+58
          1195.46780	         1.85206e+58
          1196.27410	         1.51966e+58
          1197.08040	         1.05640e+58
          1197.88670	         1.66147e+58
          1198.69300	         1.57121e+58
          1199.49930	         1.45126e+58
          1200.30560	         1.18779e+58
          1201.11190	         9.15951e+57
          1201.91820	         7.85749e+57
          1202.72450	         4.93304e+57
          1203.53080	         1.27339e+58
          1204.33710	         9.05767e+57
          1205.14340	         1.01986e+58
          1205.94970	         8.52016e+57
          1206.75600	         5.00706e+57
          1207.56230	         6.20786e+57
          1208.36860	         7.83267e+57
          1209.17490	         8.17833e+57
          1209.98120	         8.29849e+57
          1210.78750	         7.60417e+57
          1211.59380	         1.19357e+58
          1212.40010	         1.68895e+58
          1213.20640	         1.77581e+58
          1214.01270	         1.79853e+58
          1214.81900	         2.52620e+58
          1215.62530	         4.43409e+58
          1216.43160	         9.04597e+58
          1217.23790	         1.52582e+59
          1218.04420	         1.11920e+59
          1218.85050	         8.76781e+58
          1219.65680	         5.86455e+58
          1220.46310	         3.31378e+58
          1221.26940	         2.73505e+58
          1222.07570	         1.23109e+58
          1222.88200	         5.05504e+57
          1223.68830	         9.65937e+57
          1224.49460	         1.04224e+58
          1225.30090	         7.62283e+57
          1226.10720	         7.15083e+57
          1226.91350	         6.61438e+57
          1227.71980	         1.14137e+58
          1228.52610	         1.39930e+58
          1229.33240	         1.05944e+58
          1230.13870	         9.90772e+57
          1230.94500	         7.49195e+57
          1231.75130	         7.86795e+57
          1232.55760	         9.61365e+57
          1233.36390	         1.01806e+58
          1234.17020	         1.11052e+58
          1234.97650	         9.50892e+57
          1235.78280	         7.85390e+57
          1236.58910	         7.99444e+57
          1237.39540	         1.06497e+58
          1238.20170	         1.17188e+58
          1239.00800	         1.22168e+58
          1239.81430	         1.24963e+58
          1240.62060	         9.96913e+57
          1241.42690	         9.27198e+57
          1242.23320	         1.09123e+58
          1243.03950	         9.62730e+57
          1243.84580	         8.49078e+57
          1244.65210	         9.53590e+57
          1245.45840	         1.12667e+58
          1246.26470	         9.64779e+57
          1247.07100	         9.06162e+57
          1247.87730	         5.73537e+57
          1248.68360	         3.79715e+57
          1249.48990	         8.52269e+57
          1250.29620	         1.17389e+58
          1251.10250	         7.50874e+57
          1251.90880	         3.03840e+57
          1252.71510	         6.02622e+57
          1253.52140	         7.13509e+57
          1254.32770	         1.04793e+58
          1255.13400	         1.41643e+58
          1255.94030	         1.32504e+58
          1256.74660	         1.28051e+58
          1257.55290	         9.79948e+57
          1258.35920	         5.32582e+57
          1259.16550	         4.47645e+57
          1259.97180	         8.36020e+57
          1260.77810	         9.50890e+57
          1261.58440	         9.09757e+57
          1262.39070	         7.66332e+57
          1263.19700	         9.17290e+57
          1264.00330	         1.17250e+58
          1264.80960	         1.19476e+58
          1265.61590	         1.33682e+58
          1266.42220	         1.22080e+58
          1267.22850	         1.06071e+58
          1268.03480	         1.36635e+58
          1268.84110	         1.74864e+58
          1269.64740	         1.52742e+58
          1270.45370	         1.21973e+58
          1271.26000	         1.18771e+58
          1272.06630	         1.27167e+58
          1272.87260	         1.40843e+58
          1273.67890	         1.39812e+58
          1274.48520	         1.32848e+58
          1275.29150	         1.38563e+58
          1276.09780	         1.16811e+58
          1276.90410	         1.36288e+58
          1277.71040	         1.23375e+58
          1278.51670	         1.01559e+58
          1279.32300	         1.30099e+58
          1280.12930	         1.30695e+58
          1280.93560	         1.25644e+58
          1281.74190	         1.26334e+58
          1282.54820	         1.11422e+58
          1283.35450	         1.05579e+58
          1284.16080	         1.33852e+58
          1284.96710	         1.43987e+58
          1285.77340	         1.21902e+58
          1286.57970	         1.22609e+58
          1287.38600	         1.32802e+58
          1288.19230	         1.59414e+58
          1288.99860	         1.56725e+58
          1289.80490	         1.00823e+58
          1290.61120	         1.21895e+58
          1291.41750	         1.42402e+58
          1292.22380	         1.14263e+58
          1293.03010	         9.27149e+57
          1293.83640	         1.06250e+58
          1294.64270	         9.04247e+57
          1295.44900	         6.25023e+57
          1296.25530	         8.36159e+57
          1297.06160	         9.14709e+57
          1297.86790	         9.23119e+57
          1298.67420	         8.96242e+57
          1299.48050	         9.30511e+57
          1300.28680	         9.59625e+57
          1301.09310	         6.41150e+57
          1301.89940	         4.40556e+57
          1302.70570	         7.06438e+57
          1303.51200	         8.47052e+57
          1304.31830	         1.01184e+58
          1305.12460	         1.03308e+58
          1305.93090	         1.08533e+58
          1306.73720	         1.15785e+58
          1307.54350	         1.38606e+58
          1308.34980	         1.33017e+58
          1309.15610	         1.30865e+58
          1309.96240	         1.43999e+58
          1310.76870	         1.35352e+58
          1311.57500	         1.12083e+58
          1312.38130	         1.07509e+58
          1313.18760	         1.24989e+58
          1313.99390	         1.54931e+58
          1314.80020	         1.71459e+58
          1315.60650	         1.25266e+58
          1316.41280	         9.64543e+57
          1317.21910	         9.60917e+57
          1318.02540	         1.15655e+58
          1318.83170	         1.39377e+58
          1319.63800	         1.26673e+58
          1320.44430	         1.19257e+58
          1321.25060	         1.33549e+58
          1322.05690	         1.36305e+58
          1322.86320	         1.17369e+58
          1323.66950	         1.04307e+58
          1324.47580	         9.37523e+57
          1325.28210	         9.71264e+57
          1326.08840	         1.20641e+58
          1326.89470	         1.36409e+58
          1327.70100	         9.72616e+57
          1328.50730	         8.75390e+57
          1329.31360	         1.02669e+58
          1330.11990	         1.05647e+58
          1330.92620	         9.29772e+57
          1331.73250	         1.17942e+58
          1332.53880	         1.16709e+58
          1333.34510	         9.81612e+57
          1334.15140	         9.49681e+57
          1334.95770	         8.77608e+57
          1335.76400	         1.01615e+58
          1336.57030	         1.18731e+58
          1337.37660	         1.23345e+58
          1338.18290	         1.17050e+58
          1338.98920	         1.11328e+58
          1339.79550	         9.69824e+57
          1340.60180	         9.96741e+57
          1341.40810	         1.22981e+58
          1342.21440	         1.04939e+58
          1343.02070	         1.08717e+58
          1343.82700	         1.54997e+58
          1344.63330	         1.45177e+58
          1345.43960	         1.30134e+58
          1346.24590	         1.08263e+58
          1347.05220	         1.23386e+58
          1347.85850	         1.13219e+58
          1348.66480	         1.13952e+58
          1349.47110	         1.31261e+58
          1350.27740	         1.20297e+58
          1351.08370	         1.10966e+58
          1351.89000	         1.10797e+58
          1352.69630	         1.03998e+58
          1353.50260	         1.13604e+58
          1354.30890	         1.29307e+58
          1355.11520	         1.23940e+58
          1355.92150	         1.05118e+58
          1356.72780	         9.52466e+57
          1357.53410	         8.93738e+57
          1358.34040	         1.02822e+58
          1359.14670	         1.11808e+58
          1359.95300	         1.12297e+58
          1360.75930	         1.11739e+58
          1361.56560	         1.08553e+58
          1362.37190	         1.23974e+58
          1363.17820	         1.16947e+58
          1363.98450	         1.15829e+58
          1364.79080	         1.20273e+58
          1365.59710	         1.18807e+58
          1366.40340	         1.15208e+58
          1367.20970	         1.04419e+58
          1368.01600	         1.05388e+58
          1368.82230	         1.14317e+58
          1369.62860	         1.14829e+58
          1370.43490	         9.69572e+57
          1371.24120	         8.57259e+57
          1372.04750	         8.22993e+57
          1372.85380	         1.05448e+58
          1373.66010	         1.14025e+58
          1374.46640	         1.12329e+58
          1375.27270	         1.13735e+58
          1376.07900	         1.00151e+58
          1376.88530	         8.68572e+57
          1377.69160	         8.69193e+57
          1378.49790	         7.34907e+57
          1379.30420	         7.54062e+57
          1380.11050	         8.92244e+57
          1380.91680	         7.93115e+57
          1381.72310	         8.09032e+57
          1382.52940	         8.80441e+57
          1383.33570	         8.35490e+57
          1384.14200	         9.97256e+57
          1384.94830	         1.02957e+58
          1385.75460	         9.52656e+57
          1386.56090	         1.10307e+58
          1387.36720	         1.12269e+58
          1388.17350	         1.26052e+58
          1388.97980	         1.17692e+58
          1389.78610	         8.48246e+57
          1390.59240	         7.36317e+57
          1391.39870	         7.19637e+57
          1392.20500	         7.91422e+57
          1393.01130	         8.22993e+57
          1393.81760	         8.60343e+57
          1394.62390	         8.89007e+57
          1395.43020	         8.05144e+57
          1396.23650	         7.36821e+57
          1397.04280	         8.14062e+57
          1397.84910	         9.54229e+57
          1398.65540	         8.56815e+57
          1399.46170	         1.00755e+58
          1400.26800	         9.44830e+57
          1401.07430	         7.51711e+57
          1401.88060	         8.00479e+57
          1402.68690	         9.18306e+57
          1403.49320	         9.89529e+57
          1404.29950	         9.70986e+57
          1405.10580	         1.03884e+58
          1405.91210	         1.10976e+58
          1406.71840	         1.10054e+58
          1407.52470	         1.04042e+58
          1408.33100	         9.58513e+57
          1409.13730	         1.01503e+58
          1409.94360	         1.04647e+58
          1410.74990	         1.14293e+58
          1411.55620	         1.14952e+58
          1412.36250	         1.06500e+58
          1413.16880	         1.03722e+58
          1413.97510	         8.97372e+57
          1414.78140	         8.71496e+57
          1415.58770	         1.08269e+58
          1416.39400	         1.05560e+58
          1417.20030	         1.03618e+58
          1418.00660	         8.79920e+57
          1418.81290	         9.48969e+57
          1419.61920	         1.03479e+58
          1420.42550	         1.21769e+58
          1421.23180	         1.36065e+58
          1422.03810	         1.26059e+58
          1422.84440	         1.16398e+58
          1423.65070	         1.23574e+58
          1424.45700	         9.82528e+57
          1425.26330	         8.23131e+57
          1426.06960	         8.48211e+57
          1426.87590	         1.03147e+58
          1427.68220	         1.11291e+58
          1428.48850	         1.15801e+58
          1429.29480	         1.20559e+58
          1430.10110	         1.00073e+58
          1430.90740	         8.61254e+57
          1431.71370	         9.97086e+57
          1432.52000	         9.88001e+57
          1433.32630	         8.78552e+57
          1434.13260	         7.99927e+57
          1434.93890	         7.83654e+57
          1435.74520	         9.46771e+57
          1436.55150	         1.04686e+58
          1437.35780	         9.21656e+57
          1438.16410	         8.96562e+57
          1438.97040	         9.46758e+57
          1439.77670	         8.35062e+57
          1440.58300	         8.06522e+57
          1441.38930	         8.96221e+57
          1442.19560	         9.36763e+57
          1443.00190	         9.98127e+57
          1443.80820	         1.08845e+58
          1444.61450	         9.06260e+57
          1445.42080	         7.53845e+57
          1446.22710	         8.85913e+57
          1447.03340	         8.88513e+57
          1447.83970	         1.01817e+58
          1448.64600	         1.05623e+58
          1449.45230	         9.61246e+57
          1450.25860	         8.93382e+57
          1451.06490	         8.28965e+57
          1451.87120	         7.54348e+57
          1452.67750	         7.34043e+57
          1453.48380	         8.13516e+57
          1454.29010	         7.82938e+57
          1455.09640	         7.45136e+57
          1455.90270	         8.06786e+57
          1456.70900	         8.31615e+57
          1457.51530	         9.44471e+57
          1458.32160	         1.15093e+58
          1459.12790	         1.17070e+58
          1459.93420	         1.01690e+58
          1460.74050	         8.38947e+57
          1461.54680	         7.96928e+57
          1462.35310	         7.28287e+57
          1463.15940	         1.00339e+58
          1463.96570	         1.18832e+58
          1464.77200	         1.25489e+58
          1465.57830	         1.13258e+58
          1466.38460	         8.99753e+57
          1467.19090	         8.29411e+57
          1467.99720	         8.35337e+57
          1468.80350	         9.58111e+57
          1469.60980	         1.09115e+58
          1470.41610	         1.07885e+58
          1471.22240	         9.99640e+57
          1472.02870	         1.03421e+58
          1472.83500	         9.94038e+57
          1473.64130	         1.00348e+58
          1474.44760	         9.82882e+57
          1475.25390	         9.08591e+57
          1476.06020	         8.66455e+57
          1476.86650	         8.19505e+57
          1477.67280	         7.33213e+57
          1478.47910	         7.44728e+57
          1479.28540	         8.94888e+57
          1480.09170	         8.07637e+57
          1480.89800	         8.15564e+57
          1481.70430	         8.08539e+57
          1482.51060	         8.57612e+57
          1483.31690	         8.47952e+57
          1484.12320	         7.90605e+57
          1484.92950	         8.13436e+57
          1485.73580	         8.19364e+57
          1486.54210	         8.98737e+57
          1487.34840	         8.91180e+57
          1488.15470	         8.47222e+57
          1488.96100	         9.26486e+57
          1489.76730	         9.71458e+57
