#sample_101_stacked_spectrum_rest_UV-bands_median_H-alpha_noDC.txt
#median Lum: 1.69268e+42
#Rest-frame wavelength (A) | Luminosity (erg/s/A)
#
          1110.00000	         0.00000e+00
          1110.80630	         2.21643e+59
          1111.61260	        -1.11147e+59
          1112.41890	        -2.32931e+59
          1113.22520	        -1.19989e+59
          1114.03150	        -4.63741e+58
          1114.83780	         2.72208e+59
          1115.64410	         9.42637e+58
          1116.45040	        -2.36139e+59
          1117.25670	        -1.20779e+59
          1118.06300	         1.61152e+59
          1118.86930	         1.81960e+58
          1119.67560	         1.28433e+59
          1120.48190	         1.93887e+58
          1121.28820	        -3.40076e+58
          1122.09450	         1.18074e+58
          1122.90080	        -5.35329e+58
          1123.70710	         1.10021e+58
          1124.51340	         6.82598e+58
          1125.31970	         8.53951e+57
          1126.12600	         4.71538e+58
          1126.93230	        -3.87651e+58
          1127.73860	        -8.87122e+58
          1128.54490	         4.50566e+57
          1129.35120	        -9.06601e+57
          1130.15750	        -2.27227e+58
          1130.96380	        -2.66992e+58
          1131.77010	         4.27272e+58
          1132.57640	        -5.80300e+57
          1133.38270	         4.83864e+57
          1134.18900	         2.91064e+57
          1134.99530	        -1.05516e+57
          1135.80160	         3.36709e+58
          1136.60790	         1.68266e+58
          1137.41420	         4.08204e+57
          1138.22050	         4.04114e+58
          1139.02680	         3.69067e+58
          1139.83310	         2.36682e+58
          1140.63940	         8.81433e+57
          1141.44570	        -2.63372e+58
          1142.25200	         1.29041e+58
          1143.05830	         2.34376e+58
          1143.86460	         3.95398e+58
          1144.67090	         2.23001e+58
          1145.47720	         1.95506e+58
          1146.28350	         1.04526e+58
          1147.08980	         4.20683e+57
          1147.89610	         1.74645e+58
          1148.70240	         1.18548e+58
          1149.50870	         2.94629e+58
          1150.31500	         8.13867e+57
          1151.12130	         5.32994e+56
          1151.92760	        -1.12975e+57
          1152.73390	         5.10269e+57
          1153.54020	         4.85459e+57
          1154.34650	         2.35637e+58
          1155.15280	         1.50146e+58
          1155.95910	         1.45641e+58
          1156.76540	         8.26712e+57
          1157.57170	        -6.43424e+57
          1158.37800	        -3.00285e+57
          1159.18430	         1.29245e+56
          1159.99060	         5.48333e+57
          1160.79690	         6.58277e+57
          1161.60320	         1.56028e+58
          1162.40950	         1.24374e+58
          1163.21580	         2.73197e+58
          1164.02210	         1.72663e+58
          1164.82840	         2.08854e+58
          1165.63470	         2.58902e+58
          1166.44100	         2.96933e+58
          1167.24730	         2.72425e+58
          1168.05360	         1.48166e+58
          1168.85990	         8.33693e+57
          1169.66620	         1.53918e+58
          1170.47250	         1.07737e+58
          1171.27880	         1.51096e+58
          1172.08510	         1.83817e+58
          1172.89140	         7.46034e+57
          1173.69770	         1.24646e+58
          1174.50400	         2.08669e+58
          1175.31030	         1.89460e+58
          1176.11660	         1.56152e+58
          1176.92290	         1.52262e+58
          1177.72920	         1.24480e+58
          1178.53550	         2.41795e+57
          1179.34180	        -9.05689e+56
          1180.14810	        -1.97924e+57
          1180.95440	         4.54804e+57
          1181.76070	         7.04873e+57
          1182.56700	         9.58499e+57
          1183.37330	         7.50454e+57
          1184.17960	         1.28789e+58
          1184.98590	         1.39103e+58
          1185.79220	         7.02350e+57
          1186.59850	         9.67457e+57
          1187.40480	         9.19306e+57
          1188.21110	         1.36430e+58
          1189.01740	         1.58577e+58
          1189.82370	         1.25325e+58
          1190.63000	         1.27590e+58
          1191.43630	         1.42283e+58
          1192.24260	         9.95010e+57
          1193.04890	         1.53475e+58
          1193.85520	         1.31810e+58
          1194.66150	         7.69026e+57
          1195.46780	         1.21729e+58
          1196.27410	         1.67445e+58
          1197.08040	         1.07569e+58
          1197.88670	         9.29265e+57
          1198.69300	         1.32825e+58
          1199.49930	         1.73859e+58
          1200.30560	         1.09269e+58
          1201.11190	         6.63526e+57
          1201.91820	         7.13965e+57
          1202.72450	         7.86036e+57
          1203.53080	         1.42341e+58
          1204.33710	         1.10076e+58
          1205.14340	         5.75454e+57
          1205.94970	         6.79494e+57
          1206.75600	         8.57442e+57
          1207.56230	         6.29105e+57
          1208.36860	         9.40466e+57
          1209.17490	         8.01620e+57
          1209.98120	         8.11754e+57
          1210.78750	         3.39538e+57
          1211.59380	         9.73835e+57
          1212.40010	         1.70612e+58
          1213.20640	         2.05857e+58
          1214.01270	         1.88734e+58
          1214.81900	         2.10699e+58
          1215.62530	         4.28764e+58
          1216.43160	         8.93298e+58
          1217.23790	         1.48347e+59
          1218.04420	         1.14281e+59
          1218.85050	         8.70106e+58
          1219.65680	         5.57772e+58
          1220.46310	         3.38964e+58
          1221.26940	         2.42900e+58
          1222.07570	         1.29807e+58
          1222.88200	         1.03391e+58
          1223.68830	         1.10703e+58
          1224.49460	         8.61451e+57
          1225.30090	         8.58119e+57
          1226.10720	         8.28051e+57
          1226.91350	         8.16001e+57
          1227.71980	         9.16837e+57
          1228.52610	         1.21252e+58
          1229.33240	         6.00877e+57
          1230.13870	         1.01901e+58
          1230.94500	         8.16510e+57
          1231.75130	         5.33441e+57
          1232.55760	         9.73299e+57
          1233.36390	         8.81630e+57
          1234.17020	         6.80490e+57
          1234.97650	         5.54901e+57
          1235.78280	         9.11267e+57
          1236.58910	         1.15046e+58
          1237.39540	         1.02305e+58
          1238.20170	         5.19622e+57
          1239.00800	         9.72362e+57
          1239.81430	         1.51257e+58
          1240.62060	         1.20085e+58
          1241.42690	         9.44212e+57
          1242.23320	         1.00253e+58
          1243.03950	         8.31065e+57
          1243.84580	         8.31851e+57
          1244.65210	         8.68953e+57
          1245.45840	         9.99860e+57
          1246.26470	         9.33779e+57
          1247.07100	         6.42779e+57
          1247.87730	         6.12140e+57
          1248.68360	         4.82835e+57
          1249.48990	         7.61643e+57
          1250.29620	         7.86422e+57
          1251.10250	         7.13663e+57
          1251.90880	         7.93121e+57
          1252.71510	         5.39625e+57
          1253.52140	         6.23416e+57
          1254.32770	         9.36317e+57
          1255.13400	         1.41002e+58
          1255.94030	         1.29675e+58
          1256.74660	         1.18322e+58
          1257.55290	         9.76231e+57
          1258.35920	         7.58023e+57
          1259.16550	         5.96447e+57
          1259.97180	         3.85886e+57
          1260.77810	         7.93749e+57
          1261.58440	         9.26006e+57
          1262.39070	         7.46664e+57
          1263.19700	         8.27555e+57
          1264.00330	         9.69320e+57
          1264.80960	         1.08217e+58
          1265.61590	         1.12102e+58
          1266.42220	         1.26055e+58
          1267.22850	         1.03620e+58
          1268.03480	         1.36306e+58
          1268.84110	         1.44154e+58
          1269.64740	         1.25197e+58
          1270.45370	         1.35533e+58
          1271.26000	         1.32143e+58
          1272.06630	         1.25560e+58
          1272.87260	         1.24341e+58
          1273.67890	         1.27444e+58
          1274.48520	         1.21884e+58
          1275.29150	         1.27998e+58
          1276.09780	         1.11491e+58
          1276.90410	         1.30695e+58
          1277.71040	         1.19778e+58
          1278.51670	         1.13982e+58
          1279.32300	         1.31990e+58
          1280.12930	         1.16391e+58
          1280.93560	         9.97036e+57
          1281.74190	         1.25477e+58
          1282.54820	         1.47945e+58
          1283.35450	         1.09864e+58
          1284.16080	         1.18372e+58
          1284.96710	         1.48887e+58
          1285.77340	         1.11689e+58
          1286.57970	         1.13455e+58
          1287.38600	         1.65941e+58
          1288.19230	         1.86671e+58
          1288.99860	         1.54833e+58
          1289.80490	         1.12477e+58
          1290.61120	         1.39337e+58
          1291.41750	         1.39973e+58
          1292.22380	         1.18706e+58
          1293.03010	         1.09596e+58
          1293.83640	         1.12975e+58
          1294.64270	         1.00049e+58
          1295.44900	         7.98365e+57
          1296.25530	         8.41616e+57
          1297.06160	         9.93044e+57
          1297.86790	         9.81469e+57
          1298.67420	         1.00034e+58
          1299.48050	         1.05714e+58
          1300.28680	         1.03739e+58
          1301.09310	         8.64421e+57
          1301.89940	         4.23099e+57
          1302.70570	         6.49627e+57
          1303.51200	         7.78901e+57
          1304.31830	         9.29538e+57
          1305.12460	         1.08983e+58
          1305.93090	         1.21444e+58
          1306.73720	         1.19657e+58
          1307.54350	         1.36089e+58
          1308.34980	         1.53179e+58
          1309.15610	         1.62907e+58
          1309.96240	         1.59602e+58
          1310.76870	         1.38034e+58
          1311.57500	         1.01870e+58
          1312.38130	         1.08521e+58
          1313.18760	         1.35680e+58
          1313.99390	         1.58911e+58
          1314.80020	         1.75829e+58
          1315.60650	         1.50139e+58
          1316.41280	         1.40947e+58
          1317.21910	         1.21518e+58
          1318.02540	         1.25903e+58
          1318.83170	         1.42161e+58
          1319.63800	         1.24179e+58
          1320.44430	         1.06557e+58
          1321.25060	         1.12528e+58
          1322.05690	         1.26485e+58
          1322.86320	         1.14970e+58
          1323.66950	         1.08239e+58
          1324.47580	         1.00877e+58
          1325.28210	         1.01805e+58
          1326.08840	         1.22897e+58
          1326.89470	         1.34067e+58
          1327.70100	         1.20996e+58
          1328.50730	         1.00592e+58
          1329.31360	         9.40161e+57
          1330.11990	         9.67478e+57
          1330.92620	         1.04096e+58
          1331.73250	         1.22235e+58
          1332.53880	         1.03194e+58
          1333.34510	         8.49589e+57
          1334.15140	         8.44387e+57
          1334.95770	         8.84207e+57
          1335.76400	         1.06905e+58
          1336.57030	         1.18371e+58
          1337.37660	         1.11644e+58
          1338.18290	         1.08221e+58
          1338.98920	         1.12263e+58
          1339.79550	         1.19691e+58
          1340.60180	         1.16973e+58
          1341.40810	         1.29831e+58
          1342.21440	         1.08027e+58
          1343.02070	         1.11597e+58
          1343.82700	         1.39185e+58
          1344.63330	         1.44612e+58
          1345.43960	         1.50771e+58
          1346.24590	         1.11893e+58
          1347.05220	         1.12299e+58
          1347.85850	         1.15931e+58
          1348.66480	         1.26721e+58
          1349.47110	         1.23861e+58
          1350.27740	         1.07607e+58
          1351.08370	         1.04801e+58
          1351.89000	         1.12002e+58
          1352.69630	         1.14228e+58
          1353.50260	         1.07034e+58
          1354.30890	         1.04735e+58
          1355.11520	         1.17743e+58
          1355.92150	         1.33517e+58
          1356.72780	         1.14291e+58
          1357.53410	         1.05288e+58
          1358.34040	         1.13737e+58
          1359.14670	         1.10824e+58
          1359.95300	         1.21604e+58
          1360.75930	         1.21083e+58
          1361.56560	         1.01831e+58
          1362.37190	         9.84825e+57
          1363.17820	         1.09142e+58
          1363.98450	         1.11821e+58
          1364.79080	         1.25697e+58
          1365.59710	         1.31405e+58
          1366.40340	         1.23401e+58
          1367.20970	         1.12109e+58
          1368.01600	         1.02993e+58
          1368.82230	         1.07614e+58
          1369.62860	         1.24334e+58
          1370.43490	         1.09551e+58
          1371.24120	         1.06821e+58
          1372.04750	         1.08252e+58
          1372.85380	         1.27150e+58
          1373.66010	         1.20074e+58
          1374.46640	         1.12576e+58
          1375.27270	         1.08459e+58
          1376.07900	         8.91418e+57
          1376.88530	         8.72500e+57
          1377.69160	         9.67277e+57
          1378.49790	         7.22373e+57
          1379.30420	         6.86610e+57
          1380.11050	         8.84394e+57
          1380.91680	         8.35431e+57
          1381.72310	         8.19328e+57
          1382.52940	         9.42465e+57
          1383.33570	         9.46319e+57
          1384.14200	         9.66660e+57
          1384.94830	         1.03272e+58
          1385.75460	         1.13864e+58
          1386.56090	         1.17711e+58
          1387.36720	         1.00664e+58
          1388.17350	         1.09642e+58
          1388.97980	         1.15570e+58
          1389.78610	         1.03437e+58
          1390.59240	         8.80020e+57
          1391.39870	         7.81983e+57
          1392.20500	         8.36715e+57
          1393.01130	         8.15330e+57
          1393.81760	         7.62579e+57
          1394.62390	         6.31255e+57
          1395.43020	         6.63825e+57
          1396.23650	         6.88648e+57
          1397.04280	         6.12604e+57
          1397.84910	         7.96250e+57
          1398.65540	         8.93728e+57
          1399.46170	         1.02477e+58
          1400.26800	         8.95538e+57
          1401.07430	         7.91709e+57
          1401.88060	         8.00219e+57
          1402.68690	         8.96590e+57
          1403.49320	         9.12815e+57
          1404.29950	         1.03243e+58
          1405.10580	         1.10710e+58
          1405.91210	         1.18437e+58
          1406.71840	         1.14229e+58
          1407.52470	         1.02476e+58
          1408.33100	         9.53701e+57
          1409.13730	         1.03696e+58
          1409.94360	         1.05316e+58
          1410.74990	         1.11107e+58
          1411.55620	         1.03162e+58
          1412.36250	         9.01068e+57
          1413.16880	         9.31449e+57
          1413.97510	         8.47967e+57
          1414.78140	         8.25287e+57
          1415.58770	         9.63608e+57
          1416.39400	         1.06414e+58
          1417.20030	         1.06820e+58
          1418.00660	         9.27696e+57
          1418.81290	         1.08247e+58
          1419.61920	         1.24130e+58
          1420.42550	         1.30820e+58
          1421.23180	         1.35498e+58
          1422.03810	         1.25543e+58
          1422.84440	         1.20289e+58
          1423.65070	         1.23133e+58
          1424.45700	         1.08814e+58
          1425.26330	         9.18212e+57
          1426.06960	         8.64796e+57
          1426.87590	         1.10062e+58
          1427.68220	         1.09238e+58
          1428.48850	         1.07808e+58
          1429.29480	         1.00644e+58
          1430.10110	         9.73725e+57
          1430.90740	         8.29258e+57
          1431.71370	         8.59314e+57
          1432.52000	         8.96079e+57
          1433.32630	         8.16280e+57
          1434.13260	         8.09133e+57
          1434.93890	         8.38325e+57
          1435.74520	         9.35149e+57
          1436.55150	         1.01624e+58
          1437.35780	         9.09027e+57
          1438.16410	         9.50266e+57
          1438.97040	         9.06983e+57
          1439.77670	         8.37566e+57
          1440.58300	         9.45344e+57
          1441.38930	         1.00068e+58
          1442.19560	         1.00570e+58
          1443.00190	         9.49560e+57
          1443.80820	         1.02953e+58
          1444.61450	         1.04592e+58
          1445.42080	         9.54838e+57
          1446.22710	         1.14521e+58
          1447.03340	         1.09194e+58
          1447.83970	         1.04471e+58
          1448.64600	         1.02710e+58
          1449.45230	         9.82204e+57
          1450.25860	         1.10180e+58
          1451.06490	         9.57474e+57
          1451.87120	         7.98303e+57
          1452.67750	         7.35902e+57
          1453.48380	         8.58348e+57
          1454.29010	         8.66361e+57
          1455.09640	         7.93934e+57
          1455.90270	         8.12819e+57
          1456.70900	         8.09007e+57
          1457.51530	         1.02725e+58
          1458.32160	         1.27137e+58
          1459.12790	         1.18389e+58
          1459.93420	         1.07296e+58
          1460.74050	         8.53104e+57
          1461.54680	         8.37813e+57
          1462.35310	         8.98796e+57
          1463.15940	         9.92268e+57
          1463.96570	         1.16198e+58
          1464.77200	         1.24959e+58
          1465.57830	         1.08049e+58
          1466.38460	         9.23488e+57
          1467.19090	         8.13021e+57
          1467.99720	         8.72688e+57
          1468.80350	         9.85325e+57
          1469.60980	         1.09214e+58
          1470.41610	         1.11590e+58
          1471.22240	         9.17719e+57
          1472.02870	         9.47337e+57
          1472.83500	         1.03673e+58
          1473.64130	         9.72899e+57
          1474.44760	         1.03435e+58
          1475.25390	         1.00581e+58
          1476.06020	         8.70545e+57
          1476.86650	         9.29634e+57
          1477.67280	         9.12119e+57
          1478.47910	         7.64475e+57
          1479.28540	         6.61209e+57
          1480.09170	         7.76681e+57
          1480.89800	         8.66276e+57
          1481.70430	         7.73815e+57
          1482.51060	         7.42185e+57
          1483.31690	         7.41608e+57
          1484.12320	         7.01862e+57
          1484.92950	         7.63348e+57
          1485.73580	         8.88568e+57
          1486.54210	         9.61959e+57
          1487.34840	         9.31156e+57
          1488.15470	         8.59804e+57
          1488.96100	         8.81664e+57
          1489.76730	         8.39040e+57
