#sample_485_stacked_spectrum_rest_UV-bands_median_H-alpha_noDC.txt
#median Lum: 1.71048e+42
#Rest-frame wavelength (A) | Luminosity (erg/s/A)
#
          1110.00000	         0.00000e+00
          1110.80630	         2.96687e+59
          1111.61260	         3.26982e+59
          1112.41890	         2.12223e+59
          1113.22520	         2.69114e+59
          1114.03150	        -1.04745e+59
          1114.83780	         1.81874e+59
          1115.64410	         1.29037e+59
          1116.45040	         2.29891e+59
          1117.25670	        -2.66329e+57
          1118.06300	         1.57900e+59
          1118.86930	        -1.19107e+59
          1119.67560	         3.69889e+58
          1120.48190	        -3.00591e+58
          1121.28820	        -1.53767e+59
          1122.09450	         7.04085e+56
          1122.90080	        -1.35524e+58
          1123.70710	         5.62326e+58
          1124.51340	         6.00581e+58
          1125.31970	         5.30932e+58
          1126.12600	        -2.75749e+57
          1126.93230	        -5.25424e+58
          1127.73860	        -9.34633e+58
          1128.54490	        -4.36894e+58
          1129.35120	         4.43894e+58
          1130.15750	         1.40662e+58
          1130.96380	        -5.14210e+58
          1131.77010	         3.20902e+58
          1132.57640	         3.04167e+58
          1133.38270	         3.35508e+57
          1134.18900	         3.36766e+58
          1134.99530	         1.23875e+58
          1135.80160	        -7.11869e+56
          1136.60790	         6.33530e+57
          1137.41420	        -1.08008e+58
          1138.22050	         5.75602e+58
          1139.02680	         3.63853e+58
          1139.83310	         2.27305e+58
          1140.63940	         9.86465e+57
          1141.44570	        -7.67378e+57
          1142.25200	         2.61893e+57
          1143.05830	         2.85390e+58
          1143.86460	         2.17640e+58
          1144.67090	         1.18197e+58
          1145.47720	        -5.94811e+57
          1146.28350	         6.91446e+57
          1147.08980	         2.24646e+58
          1147.89610	         1.82258e+58
          1148.70240	         2.27595e+58
          1149.50870	         2.05149e+58
          1150.31500	         1.72503e+58
          1151.12130	         1.17333e+58
          1151.92760	         8.99160e+57
          1152.73390	         1.02746e+58
          1153.54020	         1.08626e+58
          1154.34650	         2.52093e+58
          1155.15280	         1.74994e+58
          1155.95910	         1.58094e+58
          1156.76540	         1.10089e+58
          1157.57170	         4.19344e+57
          1158.37800	         3.06076e+57
          1159.18430	        -3.16962e+57
          1159.99060	         1.72820e+57
          1160.79690	        -2.58621e+56
          1161.60320	         8.08845e+57
          1162.40950	         1.15417e+58
          1163.21580	         1.64022e+58
          1164.02210	         1.65580e+58
          1164.82840	         2.31344e+58
          1165.63470	         2.57392e+58
          1166.44100	         3.26698e+58
          1167.24730	         2.34381e+58
          1168.05360	         1.29285e+58
          1168.85990	         4.11383e+57
          1169.66620	         1.81443e+57
          1170.47250	         7.96118e+57
          1171.27880	         1.39544e+58
          1172.08510	         1.92100e+58
          1172.89140	         1.39375e+58
          1173.69770	         1.43979e+57
          1174.50400	         1.26510e+58
          1175.31030	         1.84428e+58
          1176.11660	         2.03649e+58
          1176.92290	         1.59209e+58
          1177.72920	         1.30232e+58
          1178.53550	         7.59089e+57
          1179.34180	         2.94238e+57
          1180.14810	         8.87026e+57
          1180.95440	         1.47769e+58
          1181.76070	         5.52658e+57
          1182.56700	         6.71583e+57
          1183.37330	         4.12534e+57
          1184.17960	         8.06186e+57
          1184.98590	         1.32563e+58
          1185.79220	         8.66877e+57
          1186.59850	         1.32811e+58
          1187.40480	         1.12982e+58
          1188.21110	         1.53635e+58
          1189.01740	         1.21254e+58
          1189.82370	         1.19306e+58
          1190.63000	         1.39918e+58
          1191.43630	         1.56837e+58
          1192.24260	         1.22862e+58
          1193.04890	         1.65578e+58
          1193.85520	         1.39502e+58
          1194.66150	         1.09246e+58
          1195.46780	         1.78077e+58
          1196.27410	         1.46975e+58
          1197.08040	         7.92631e+57
          1197.88670	         1.44376e+58
          1198.69300	         1.41304e+58
          1199.49930	         1.33499e+58
          1200.30560	         1.28777e+58
          1201.11190	         1.20920e+58
          1201.91820	         7.82885e+57
          1202.72450	         6.06226e+57
          1203.53080	         1.34492e+58
          1204.33710	         7.20551e+57
          1205.14340	         5.45689e+57
          1205.94970	         4.93070e+57
          1206.75600	         7.48070e+57
          1207.56230	         4.81940e+57
          1208.36860	         9.64969e+57
          1209.17490	         3.66281e+57
          1209.98120	         2.96134e+57
          1210.78750	         4.34267e+57
          1211.59380	         9.52846e+57
          1212.40010	         1.78232e+58
          1213.20640	         1.84285e+58
          1214.01270	         2.05791e+58
          1214.81900	         2.28955e+58
          1215.62530	         4.44311e+58
          1216.43160	         9.28581e+58
          1217.23790	         1.54205e+59
          1218.04420	         1.16487e+59
          1218.85050	         8.78675e+58
          1219.65680	         6.18556e+58
          1220.46310	         3.59899e+58
          1221.26940	         2.39054e+58
          1222.07570	         1.55166e+58
          1222.88200	         1.48931e+58
          1223.68830	         1.22354e+58
          1224.49460	         7.89131e+57
          1225.30090	         7.55188e+57
          1226.10720	         7.59899e+57
          1226.91350	         6.29290e+57
          1227.71980	         7.48969e+57
          1228.52610	         9.66342e+57
          1229.33240	         8.85504e+57
          1230.13870	         1.26881e+58
          1230.94500	         1.00211e+58
          1231.75130	         9.16126e+57
          1232.55760	         1.03844e+58
          1233.36390	         8.52288e+57
          1234.17020	         7.56737e+57
          1234.97650	         6.20513e+57
          1235.78280	         8.72460e+57
          1236.58910	         1.03392e+58
          1237.39540	         1.17499e+58
          1238.20170	         1.06655e+58
          1239.00800	         1.16007e+58
          1239.81430	         1.57465e+58
          1240.62060	         1.17163e+58
          1241.42690	         1.10745e+58
          1242.23320	         1.15165e+58
          1243.03950	         8.35827e+57
          1243.84580	         8.86021e+57
          1244.65210	         9.30096e+57
          1245.45840	         8.72345e+57
          1246.26470	         9.01508e+57
          1247.07100	         6.34284e+57
          1247.87730	         7.81620e+57
          1248.68360	         5.13896e+57
          1249.48990	         1.05367e+58
          1250.29620	         1.04338e+58
          1251.10250	         6.82566e+57
          1251.90880	         7.61902e+57
          1252.71510	         7.12744e+57
          1253.52140	         6.91618e+57
          1254.32770	         9.87867e+57
          1255.13400	         1.35490e+58
          1255.94030	         1.25206e+58
          1256.74660	         1.11761e+58
          1257.55290	         1.08706e+58
          1258.35920	         6.09241e+57
          1259.16550	         3.66875e+57
          1259.97180	         5.23106e+57
          1260.77810	         1.05315e+58
          1261.58440	         1.20780e+58
          1262.39070	         1.01338e+58
          1263.19700	         9.25768e+57
          1264.00330	         8.79873e+57
          1264.80960	         9.84460e+57
          1265.61590	         1.36573e+58
          1266.42220	         1.24360e+58
          1267.22850	         1.11524e+58
          1268.03480	         1.44637e+58
          1268.84110	         1.55341e+58
          1269.64740	         1.20326e+58
          1270.45370	         1.12434e+58
          1271.26000	         1.35834e+58
          1272.06630	         1.39561e+58
          1272.87260	         1.24874e+58
          1273.67890	         1.27546e+58
          1274.48520	         1.35506e+58
          1275.29150	         1.42887e+58
          1276.09780	         1.18275e+58
          1276.90410	         1.35917e+58
          1277.71040	         1.13831e+58
          1278.51670	         1.03208e+58
          1279.32300	         1.25154e+58
          1280.12930	         1.18033e+58
          1280.93560	         9.98536e+57
          1281.74190	         9.84570e+57
          1282.54820	         1.30839e+58
          1283.35450	         1.34456e+58
          1284.16080	         1.30850e+58
          1284.96710	         1.39039e+58
          1285.77340	         1.40022e+58
          1286.57970	         1.34262e+58
          1287.38600	         1.37563e+58
          1288.19230	         1.48208e+58
          1288.99860	         1.34810e+58
          1289.80490	         1.05458e+58
          1290.61120	         1.29560e+58
          1291.41750	         1.40104e+58
          1292.22380	         1.17215e+58
          1293.03010	         1.00757e+58
          1293.83640	         1.14649e+58
          1294.64270	         1.06394e+58
          1295.44900	         5.55056e+57
          1296.25530	         5.36834e+57
          1297.06160	         1.02116e+58
          1297.86790	         1.20022e+58
          1298.67420	         8.68199e+57
          1299.48050	         7.07356e+57
          1300.28680	         9.00150e+57
          1301.09310	         8.37124e+57
          1301.89940	         4.42520e+57
          1302.70570	         6.99830e+57
          1303.51200	         8.59876e+57
          1304.31830	         1.05015e+58
          1305.12460	         1.08756e+58
          1305.93090	         1.09252e+58
          1306.73720	         1.37188e+58
          1307.54350	         1.55450e+58
          1308.34980	         1.55027e+58
          1309.15610	         1.59155e+58
          1309.96240	         1.65470e+58
          1310.76870	         1.56725e+58
          1311.57500	         1.24010e+58
          1312.38130	         8.95073e+57
          1313.18760	         8.94395e+57
          1313.99390	         1.50199e+58
          1314.80020	         1.86606e+58
          1315.60650	         1.76120e+58
          1316.41280	         1.42283e+58
          1317.21910	         1.23477e+58
          1318.02540	         1.37841e+58
          1318.83170	         1.42488e+58
          1319.63800	         1.25984e+58
          1320.44430	         1.24188e+58
          1321.25060	         1.35682e+58
          1322.05690	         1.46090e+58
          1322.86320	         1.36123e+58
          1323.66950	         1.12183e+58
          1324.47580	         8.92427e+57
          1325.28210	         1.00290e+58
          1326.08840	         1.29290e+58
          1326.89470	         1.34106e+58
          1327.70100	         9.74613e+57
          1328.50730	         8.77658e+57
          1329.31360	         9.92815e+57
          1330.11990	         1.20641e+58
          1330.92620	         9.37969e+57
          1331.73250	         9.38407e+57
          1332.53880	         9.05453e+57
          1333.34510	         7.23252e+57
          1334.15140	         6.50418e+57
          1334.95770	         8.49474e+57
          1335.76400	         1.15290e+58
          1336.57030	         1.03033e+58
          1337.37660	         8.24753e+57
          1338.18290	         8.91530e+57
          1338.98920	         9.84996e+57
          1339.79550	         1.00221e+58
          1340.60180	         1.15277e+58
          1341.40810	         1.31924e+58
          1342.21440	         1.08917e+58
          1343.02070	         1.21727e+58
          1343.82700	         1.68328e+58
          1344.63330	         1.45963e+58
          1345.43960	         1.26200e+58
          1346.24590	         1.08087e+58
          1347.05220	         1.09575e+58
          1347.85850	         1.09529e+58
          1348.66480	         1.15304e+58
          1349.47110	         1.32689e+58
          1350.27740	         1.37059e+58
          1351.08370	         1.15495e+58
          1351.89000	         1.14569e+58
          1352.69630	         1.08300e+58
          1353.50260	         1.12251e+58
          1354.30890	         1.28069e+58
          1355.11520	         1.18037e+58
          1355.92150	         1.04687e+58
          1356.72780	         9.65704e+57
          1357.53410	         9.56608e+57
          1358.34040	         1.04439e+58
          1359.14670	         1.20334e+58
          1359.95300	         1.24167e+58
          1360.75930	         1.20219e+58
          1361.56560	         1.13369e+58
          1362.37190	         1.23112e+58
          1363.17820	         1.15276e+58
          1363.98450	         1.11772e+58
          1364.79080	         1.23346e+58
          1365.59710	         1.25089e+58
          1366.40340	         1.11479e+58
          1367.20970	         1.00263e+58
          1368.01600	         1.08349e+58
          1368.82230	         1.02850e+58
          1369.62860	         1.07321e+58
          1370.43490	         9.70336e+57
          1371.24120	         8.44454e+57
          1372.04750	         8.58368e+57
          1372.85380	         1.00803e+58
          1373.66010	         1.07783e+58
          1374.46640	         1.03662e+58
          1375.27270	         1.14491e+58
          1376.07900	         1.16922e+58
          1376.88530	         9.35643e+57
          1377.69160	         8.99845e+57
          1378.49790	         8.03619e+57
          1379.30420	         7.86726e+57
          1380.11050	         9.47766e+57
          1380.91680	         9.00997e+57
          1381.72310	         9.15088e+57
          1382.52940	         8.99420e+57
          1383.33570	         8.49115e+57
          1384.14200	         9.86759e+57
          1384.94830	         1.07974e+58
          1385.75460	         1.09515e+58
          1386.56090	         1.23483e+58
          1387.36720	         1.13387e+58
          1388.17350	         1.17644e+58
          1388.97980	         1.09944e+58
          1389.78610	         1.09646e+58
          1390.59240	         8.50581e+57
          1391.39870	         7.17865e+57
          1392.20500	         8.77006e+57
          1393.01130	         9.21394e+57
          1393.81760	         8.54658e+57
          1394.62390	         8.29577e+57
          1395.43020	         7.95322e+57
          1396.23650	         6.44704e+57
          1397.04280	         7.85071e+57
          1397.84910	         9.70315e+57
          1398.65540	         8.61783e+57
          1399.46170	         9.61473e+57
          1400.26800	         9.12547e+57
          1401.07430	         7.69099e+57
          1401.88060	         7.66215e+57
          1402.68690	         8.55154e+57
          1403.49320	         1.02856e+58
          1404.29950	         1.13549e+58
          1405.10580	         1.11242e+58
          1405.91210	         1.04240e+58
          1406.71840	         1.02338e+58
          1407.52470	         9.80753e+57
          1408.33100	         9.74320e+57
          1409.13730	         1.14498e+58
          1409.94360	         1.19932e+58
          1410.74990	         1.11819e+58
          1411.55620	         8.85177e+57
          1412.36250	         7.98202e+57
          1413.16880	         8.34802e+57
          1413.97510	         7.75699e+57
          1414.78140	         8.30019e+57
          1415.58770	         1.08039e+58
          1416.39400	         1.21431e+58
          1417.20030	         1.09513e+58
          1418.00660	         9.96176e+57
          1418.81290	         1.07237e+58
          1419.61920	         1.14899e+58
          1420.42550	         1.18471e+58
          1421.23180	         1.26238e+58
          1422.03810	         1.16135e+58
          1422.84440	         1.02916e+58
          1423.65070	         1.31134e+58
          1424.45700	         1.17278e+58
          1425.26330	         8.66981e+57
          1426.06960	         8.30913e+57
          1426.87590	         1.07909e+58
          1427.68220	         9.84572e+57
          1428.48850	         1.05533e+58
          1429.29480	         9.90814e+57
          1430.10110	         1.03770e+58
          1430.90740	         9.13277e+57
          1431.71370	         8.61194e+57
          1432.52000	         9.07137e+57
          1433.32630	         8.46587e+57
          1434.13260	         7.96638e+57
          1434.93890	         7.75431e+57
          1435.74520	         9.01317e+57
          1436.55150	         1.04758e+58
          1437.35780	         9.72506e+57
          1438.16410	         9.12005e+57
          1438.97040	         8.68105e+57
          1439.77670	         8.32481e+57
          1440.58300	         8.65632e+57
          1441.38930	         9.05412e+57
          1442.19560	         9.54795e+57
          1443.00190	         9.79112e+57
          1443.80820	         1.04182e+58
          1444.61450	         9.78356e+57
          1445.42080	         8.57643e+57
          1446.22710	         1.02731e+58
          1447.03340	         1.03197e+58
          1447.83970	         9.81232e+57
          1448.64600	         1.04379e+58
          1449.45230	         1.05394e+58
          1450.25860	         9.70764e+57
          1451.06490	         9.20426e+57
          1451.87120	         8.91400e+57
          1452.67750	         7.53729e+57
          1453.48380	         8.22615e+57
          1454.29010	         7.75509e+57
          1455.09640	         7.26268e+57
          1455.90270	         8.76809e+57
          1456.70900	         9.28647e+57
          1457.51530	         1.00450e+58
          1458.32160	         1.21435e+58
          1459.12790	         1.21607e+58
          1459.93420	         8.85338e+57
          1460.74050	         6.76159e+57
          1461.54680	         9.10390e+57
          1462.35310	         8.74586e+57
          1463.15940	         9.19955e+57
          1463.96570	         1.11401e+58
          1464.77200	         1.16401e+58
          1465.57830	         1.13058e+58
          1466.38460	         9.98880e+57
          1467.19090	         8.58899e+57
          1467.99720	         8.56514e+57
          1468.80350	         8.94768e+57
          1469.60980	         9.97114e+57
          1470.41610	         1.10750e+58
          1471.22240	         1.02489e+58
          1472.02870	         9.25937e+57
          1472.83500	         1.00216e+58
          1473.64130	         1.05832e+58
          1474.44760	         1.03567e+58
          1475.25390	         9.82443e+57
          1476.06020	         9.07423e+57
          1476.86650	         7.80383e+57
          1477.67280	         8.02291e+57
          1478.47910	         7.77209e+57
          1479.28540	         7.69958e+57
          1480.09170	         7.86768e+57
          1480.89800	         7.98568e+57
          1481.70430	         8.62181e+57
          1482.51060	         7.62281e+57
          1483.31690	         7.55911e+57
          1484.12320	         7.45611e+57
          1484.92950	         7.63392e+57
          1485.73580	         8.51613e+57
          1486.54210	         8.12625e+57
          1487.34840	         8.57962e+57
          1488.15470	         8.00976e+57
          1488.96100	         8.65594e+57
          1489.76730	         9.80444e+57
