#sample_256_stacked_spectrum_rest_UV-bands_median_H-alpha_noDC.txt
#median Lum: 1.70317e+42
#Rest-frame wavelength (A) | Luminosity (erg/s/A)
#
          1110.00000	         0.00000e+00
          1110.80630	        -2.31821e+59
          1111.61260	        -3.59675e+58
          1112.41890	         1.30175e+59
          1113.22520	         4.32741e+58
          1114.03150	         4.65633e+58
          1114.83780	         1.61181e+59
          1115.64410	         3.04971e+58
          1116.45040	         8.26075e+58
          1117.25670	        -1.16735e+59
          1118.06300	         1.65371e+59
          1118.86930	         1.23771e+59
          1119.67560	        -1.65135e+58
          1120.48190	        -1.42826e+58
          1121.28820	        -6.69797e+58
          1122.09450	        -2.49236e+58
          1122.90080	        -1.27316e+58
          1123.70710	         1.15038e+59
          1124.51340	         8.41426e+58
          1125.31970	        -2.87590e+58
          1126.12600	        -4.30599e+58
          1126.93230	        -5.62047e+58
          1127.73860	        -4.40875e+58
          1128.54490	         3.62965e+57
          1129.35120	         1.42345e+57
          1130.15750	        -2.26844e+58
          1130.96380	        -7.67877e+57
          1131.77010	         2.67255e+58
          1132.57640	         3.25825e+58
          1133.38270	         2.20219e+58
          1134.18900	         1.21786e+58
          1134.99530	         6.55585e+58
          1135.80160	         2.07018e+58
          1136.60790	        -2.30532e+57
          1137.41420	         7.50964e+57
          1138.22050	         5.05881e+58
          1139.02680	         3.91439e+58
          1139.83310	         4.23165e+57
          1140.63940	         2.16886e+58
          1141.44570	         9.66956e+57
          1142.25200	        -5.54956e+57
          1143.05830	         2.46022e+58
          1143.86460	         3.33936e+58
          1144.67090	         1.40412e+58
          1145.47720	         3.22493e+58
          1146.28350	         8.29212e+57
          1147.08980	        -3.62293e+57
          1147.89610	         1.18105e+58
          1148.70240	         2.53827e+58
          1149.50870	         2.13656e+58
          1150.31500	         1.64334e+58
          1151.12130	         2.30905e+56
          1151.92760	        -2.40175e+57
          1152.73390	         8.07222e+57
          1153.54020	         7.74234e+57
          1154.34650	         1.88769e+58
          1155.15280	         2.52849e+58
          1155.95910	         1.14114e+58
          1156.76540	         1.19743e+58
          1157.57170	        -7.14838e+57
          1158.37800	        -5.08809e+57
          1159.18430	        -7.45060e+57
          1159.99060	         4.22684e+56
          1160.79690	         9.00495e+57
          1161.60320	         1.14028e+58
          1162.40950	         9.99180e+57
          1163.21580	         1.02638e+58
          1164.02210	         1.35279e+58
          1164.82840	         7.65458e+57
          1165.63470	         1.37368e+58
          1166.44100	         2.72840e+58
          1167.24730	         1.96270e+58
          1168.05360	         9.04407e+57
          1168.85990	         6.40731e+57
          1169.66620	        -1.61463e+57
          1170.47250	        -3.68450e+56
          1171.27880	         1.68656e+58
          1172.08510	         2.41696e+58
          1172.89140	         1.26611e+58
          1173.69770	         7.35551e+57
          1174.50400	         1.00461e+58
          1175.31030	         1.28871e+58
          1176.11660	         1.73904e+58
          1176.92290	         1.57933e+58
          1177.72920	         1.48905e+58
          1178.53550	         7.25933e+57
          1179.34180	         2.34328e+57
          1180.14810	         6.11820e+57
          1180.95440	         5.15512e+57
          1181.76070	         7.08670e+57
          1182.56700	         9.18292e+57
          1183.37330	         6.13218e+57
          1184.17960	         1.35623e+58
          1184.98590	         1.47661e+58
          1185.79220	         1.09795e+58
          1186.59850	         1.46900e+58
          1187.40480	         8.66317e+57
          1188.21110	         9.36531e+57
          1189.01740	         6.75751e+57
          1189.82370	         1.17377e+58
          1190.63000	         1.04900e+58
          1191.43630	         8.03996e+57
          1192.24260	         7.56361e+57
          1193.04890	         1.03266e+58
          1193.85520	         3.87541e+57
          1194.66150	         5.46508e+56
          1195.46780	         9.74311e+57
          1196.27410	         1.20972e+58
          1197.08040	         7.11054e+57
          1197.88670	         1.04041e+58
          1198.69300	         1.38710e+58
          1199.49930	         1.68590e+58
          1200.30560	         1.38269e+58
          1201.11190	         1.42025e+58
          1201.91820	         1.37974e+58
          1202.72450	         9.34648e+57
          1203.53080	         1.28411e+58
          1204.33710	         1.06645e+58
          1205.14340	         5.62831e+57
          1205.94970	         4.21529e+57
          1206.75600	         6.74373e+57
          1207.56230	         5.29795e+57
          1208.36860	         9.65699e+57
          1209.17490	         5.99768e+57
          1209.98120	         7.54766e+57
          1210.78750	         9.27357e+57
          1211.59380	         1.35353e+58
          1212.40010	         1.94954e+58
          1213.20640	         2.43296e+58
          1214.01270	         2.05531e+58
          1214.81900	         2.22798e+58
          1215.62530	         4.16843e+58
          1216.43160	         9.12978e+58
          1217.23790	         1.49900e+59
          1218.04420	         1.20303e+59
          1218.85050	         8.77490e+58
          1219.65680	         5.69077e+58
          1220.46310	         3.35557e+58
          1221.26940	         2.70086e+58
          1222.07570	         1.73196e+58
          1222.88200	         1.22155e+58
          1223.68830	         9.07960e+57
          1224.49460	         5.63192e+57
          1225.30090	         3.28677e+57
          1226.10720	         4.86847e+57
          1226.91350	         7.74373e+57
          1227.71980	         6.84731e+57
          1228.52610	         1.13896e+58
          1229.33240	         1.26702e+58
          1230.13870	         1.05369e+58
          1230.94500	         9.24702e+57
          1231.75130	         7.82716e+57
          1232.55760	         6.95432e+57
          1233.36390	         6.60403e+57
          1234.17020	         7.47763e+57
          1234.97650	         6.20767e+57
          1235.78280	         6.34773e+57
          1236.58910	         8.25288e+57
          1237.39540	         8.52460e+57
          1238.20170	         1.20774e+58
          1239.00800	         1.49203e+58
          1239.81430	         1.56294e+58
          1240.62060	         1.14246e+58
          1241.42690	         1.19178e+58
          1242.23320	         1.12251e+58
          1243.03950	         7.57766e+57
          1243.84580	         6.48712e+57
          1244.65210	         8.70798e+57
          1245.45840	         1.07685e+58
          1246.26470	         7.23281e+57
          1247.07100	         3.01067e+57
          1247.87730	         6.13938e+57
          1248.68360	         5.31444e+57
          1249.48990	         7.95722e+57
          1250.29620	         1.24743e+58
          1251.10250	         8.43875e+57
          1251.90880	         5.68431e+57
          1252.71510	         4.26936e+57
          1253.52140	         4.37092e+57
          1254.32770	         8.68106e+57
          1255.13400	         1.18865e+58
          1255.94030	         1.07770e+58
          1256.74660	         1.05552e+58
          1257.55290	         1.17813e+58
          1258.35920	         8.21806e+57
          1259.16550	         5.20620e+57
          1259.97180	         5.37854e+57
          1260.77810	         9.08930e+57
          1261.58440	         1.21571e+58
          1262.39070	         8.65978e+57
          1263.19700	         8.94507e+57
          1264.00330	         8.98447e+57
          1264.80960	         1.01298e+58
          1265.61590	         1.44013e+58
          1266.42220	         1.30339e+58
          1267.22850	         9.71987e+57
          1268.03480	         1.38230e+58
          1268.84110	         1.49366e+58
          1269.64740	         1.16811e+58
          1270.45370	         1.12462e+58
          1271.26000	         1.02652e+58
          1272.06630	         1.18020e+58
          1272.87260	         1.32953e+58
          1273.67890	         1.37758e+58
          1274.48520	         1.27454e+58
          1275.29150	         1.22347e+58
          1276.09780	         1.26457e+58
          1276.90410	         1.68388e+58
          1277.71040	         1.57724e+58
          1278.51670	         1.35310e+58
          1279.32300	         1.56393e+58
          1280.12930	         1.54669e+58
          1280.93560	         1.19184e+58
          1281.74190	         1.20199e+58
          1282.54820	         1.38934e+58
          1283.35450	         1.27496e+58
          1284.16080	         1.31304e+58
          1284.96710	         1.38095e+58
          1285.77340	         1.04368e+58
          1286.57970	         9.57503e+57
          1287.38600	         1.36968e+58
          1288.19230	         1.66681e+58
          1288.99860	         1.58677e+58
          1289.80490	         1.18647e+58
          1290.61120	         1.49998e+58
          1291.41750	         1.50849e+58
          1292.22380	         1.08745e+58
          1293.03010	         1.17403e+58
          1293.83640	         1.19047e+58
          1294.64270	         1.03316e+58
          1295.44900	         7.23508e+57
          1296.25530	         6.50194e+57
          1297.06160	         9.94458e+57
          1297.86790	         1.14813e+58
          1298.67420	         9.10524e+57
          1299.48050	         1.06426e+58
          1300.28680	         1.08070e+58
          1301.09310	         7.00502e+57
          1301.89940	         4.42765e+57
          1302.70570	         6.12179e+57
          1303.51200	         7.73696e+57
          1304.31830	         8.26276e+57
          1305.12460	         1.01279e+58
          1305.93090	         1.04656e+58
          1306.73720	         1.15826e+58
          1307.54350	         1.45895e+58
          1308.34980	         1.38843e+58
          1309.15610	         1.51252e+58
          1309.96240	         1.70193e+58
          1310.76870	         1.30987e+58
          1311.57500	         1.11896e+58
          1312.38130	         1.20766e+58
          1313.18760	         1.63463e+58
          1313.99390	         1.69083e+58
          1314.80020	         1.54173e+58
          1315.60650	         1.47333e+58
          1316.41280	         1.24555e+58
          1317.21910	         1.10052e+58
          1318.02540	         1.14555e+58
          1318.83170	         1.28560e+58
          1319.63800	         1.30144e+58
          1320.44430	         1.29076e+58
          1321.25060	         1.24867e+58
          1322.05690	         1.26924e+58
          1322.86320	         1.29275e+58
          1323.66950	         1.18247e+58
          1324.47580	         9.59682e+57
          1325.28210	         9.45803e+57
          1326.08840	         1.12858e+58
          1326.89470	         1.38353e+58
          1327.70100	         1.08847e+58
          1328.50730	         8.48187e+57
          1329.31360	         9.68708e+57
          1330.11990	         9.53190e+57
          1330.92620	         9.95212e+57
          1331.73250	         1.25174e+58
          1332.53880	         1.13317e+58
          1333.34510	         9.66074e+57
          1334.15140	         9.75520e+57
          1334.95770	         9.33434e+57
          1335.76400	         9.61705e+57
          1336.57030	         9.99805e+57
          1337.37660	         1.16679e+58
          1338.18290	         1.07610e+58
          1338.98920	         1.09601e+58
          1339.79550	         1.22415e+58
          1340.60180	         1.29896e+58
          1341.40810	         1.46626e+58
          1342.21440	         1.23799e+58
          1343.02070	         1.19994e+58
          1343.82700	         1.41808e+58
          1344.63330	         1.33149e+58
          1345.43960	         1.44735e+58
          1346.24590	         1.27164e+58
          1347.05220	         1.18269e+58
          1347.85850	         9.98162e+57
          1348.66480	         1.19781e+58
          1349.47110	         1.26518e+58
          1350.27740	         1.14835e+58
          1351.08370	         1.13790e+58
          1351.89000	         1.18932e+58
          1352.69630	         1.06116e+58
          1353.50260	         1.12703e+58
          1354.30890	         1.24772e+58
          1355.11520	         1.14246e+58
          1355.92150	         1.10049e+58
          1356.72780	         1.00425e+58
          1357.53410	         9.18856e+57
          1358.34040	         1.10747e+58
          1359.14670	         1.10590e+58
          1359.95300	         1.14016e+58
          1360.75930	         1.21413e+58
          1361.56560	         1.14087e+58
          1362.37190	         1.32787e+58
          1363.17820	         1.31662e+58
          1363.98450	         1.28590e+58
          1364.79080	         1.26733e+58
          1365.59710	         1.26597e+58
          1366.40340	         1.14185e+58
          1367.20970	         1.05371e+58
          1368.01600	         1.02744e+58
          1368.82230	         9.78496e+57
          1369.62860	         9.14443e+57
          1370.43490	         6.86293e+57
          1371.24120	         8.39869e+57
          1372.04750	         9.08590e+57
          1372.85380	         1.07803e+58
          1373.66010	         1.22398e+58
          1374.46640	         1.05983e+58
          1375.27270	         1.02176e+58
          1376.07900	         8.94315e+57
          1376.88530	         7.87816e+57
          1377.69160	         8.57737e+57
          1378.49790	         7.83040e+57
          1379.30420	         7.74124e+57
          1380.11050	         9.47877e+57
          1380.91680	         8.78930e+57
          1381.72310	         7.41136e+57
          1382.52940	         8.26601e+57
          1383.33570	         8.40236e+57
          1384.14200	         1.01577e+58
          1384.94830	         1.11730e+58
          1385.75460	         1.06387e+58
          1386.56090	         1.00457e+58
          1387.36720	         1.05751e+58
          1388.17350	         1.21194e+58
          1388.97980	         1.18555e+58
          1389.78610	         9.91538e+57
          1390.59240	         7.99224e+57
          1391.39870	         8.29192e+57
          1392.20500	         8.64370e+57
          1393.01130	         6.80371e+57
          1393.81760	         6.79948e+57
          1394.62390	         7.36852e+57
          1395.43020	         6.99306e+57
          1396.23650	         7.06888e+57
          1397.04280	         7.25867e+57
          1397.84910	         7.71102e+57
          1398.65540	         8.00556e+57
          1399.46170	         8.38159e+57
          1400.26800	         6.78655e+57
          1401.07430	         6.63389e+57
          1401.88060	         7.85920e+57
          1402.68690	         9.02690e+57
          1403.49320	         9.67167e+57
          1404.29950	         9.08563e+57
          1405.10580	         9.74824e+57
          1405.91210	         1.02083e+58
          1406.71840	         9.75241e+57
          1407.52470	         9.49471e+57
          1408.33100	         9.74512e+57
          1409.13730	         1.08750e+58
          1409.94360	         1.20522e+58
          1410.74990	         1.18764e+58
          1411.55620	         1.08499e+58
          1412.36250	         9.48971e+57
          1413.16880	         9.47634e+57
          1413.97510	         7.83854e+57
          1414.78140	         8.51070e+57
          1415.58770	         1.14339e+58
          1416.39400	         1.22351e+58
          1417.20030	         1.03375e+58
          1418.00660	         8.53813e+57
          1418.81290	         1.04400e+58
          1419.61920	         1.18056e+58
          1420.42550	         1.23592e+58
          1421.23180	         1.31590e+58
          1422.03810	         1.13694e+58
          1422.84440	         1.08285e+58
          1423.65070	         1.31777e+58
          1424.45700	         1.22116e+58
          1425.26330	         9.56141e+57
          1426.06960	         9.09907e+57
          1426.87590	         1.01411e+58
          1427.68220	         1.06166e+58
          1428.48850	         1.14628e+58
          1429.29480	         1.05677e+58
          1430.10110	         9.70552e+57
          1430.90740	         8.91576e+57
          1431.71370	         8.55252e+57
          1432.52000	         8.73986e+57
          1433.32630	         8.29960e+57
          1434.13260	         8.38104e+57
          1434.93890	         8.74852e+57
          1435.74520	         8.97484e+57
          1436.55150	         9.09926e+57
          1437.35780	         8.53972e+57
          1438.16410	         9.27882e+57
          1438.97040	         9.72472e+57
          1439.77670	         8.90420e+57
          1440.58300	         9.01757e+57
          1441.38930	         9.70275e+57
          1442.19560	         9.76882e+57
          1443.00190	         9.04501e+57
          1443.80820	         1.11024e+58
          1444.61450	         1.04583e+58
          1445.42080	         7.29902e+57
          1446.22710	         9.39963e+57
          1447.03340	         9.87325e+57
          1447.83970	         9.96145e+57
          1448.64600	         1.04276e+58
          1449.45230	         1.00972e+58
          1450.25860	         1.01884e+58
          1451.06490	         8.78858e+57
          1451.87120	         7.27225e+57
          1452.67750	         7.66803e+57
          1453.48380	         9.06753e+57
          1454.29010	         7.87934e+57
          1455.09640	         8.05238e+57
          1455.90270	         8.12348e+57
          1456.70900	         8.03219e+57
          1457.51530	         9.67462e+57
          1458.32160	         1.15124e+58
          1459.12790	         1.07897e+58
          1459.93420	         9.16873e+57
          1460.74050	         8.11685e+57
          1461.54680	         8.00159e+57
          1462.35310	         7.04049e+57
          1463.15940	         9.65799e+57
          1463.96570	         1.16049e+58
          1464.77200	         1.05065e+58
          1465.57830	         1.03907e+58
          1466.38460	         8.84767e+57
          1467.19090	         8.59531e+57
          1467.99720	         7.79129e+57
          1468.80350	         8.71776e+57
          1469.60980	         1.08379e+58
          1470.41610	         1.13961e+58
          1471.22240	         9.00089e+57
          1472.02870	         8.70968e+57
          1472.83500	         1.03491e+58
          1473.64130	         1.12967e+58
          1474.44760	         1.05034e+58
          1475.25390	         9.87691e+57
          1476.06020	         9.58703e+57
          1476.86650	         9.19447e+57
          1477.67280	         8.20978e+57
          1478.47910	         6.41859e+57
          1479.28540	         5.85909e+57
          1480.09170	         8.69645e+57
          1480.89800	         9.12202e+57
          1481.70430	         8.49604e+57
          1482.51060	         7.60242e+57
          1483.31690	         8.22501e+57
          1484.12320	         8.71423e+57
          1484.92950	         8.24702e+57
          1485.73580	         8.36590e+57
          1486.54210	         9.26563e+57
          1487.34840	         9.38522e+57
          1488.15470	         9.24189e+57
          1488.96100	         9.79048e+57
          1489.76730	         1.00347e+58
