#sample_51_stacked_spectrum_rest_UV-bands_median_H-alpha_noDC.txt
#median Lum: 1.69800e+42
#Rest-frame wavelength (A) | Luminosity (erg/s/A)
#
          1110.00000	         0.00000e+00
          1110.80630	        -2.84920e+59
          1111.61260	         1.86815e+58
          1112.41890	        -1.50718e+59
          1113.22520	        -2.42196e+56
          1114.03150	        -1.85198e+58
          1114.83780	         1.01341e+59
          1115.64410	         2.84460e+58
          1116.45040	         1.07803e+59
          1117.25670	        -1.40147e+58
          1118.06300	         1.97506e+59
          1118.86930	         1.97615e+58
          1119.67560	         1.52314e+59
          1120.48190	        -8.62453e+57
          1121.28820	        -1.15533e+59
          1122.09450	        -4.25504e+58
          1122.90080	         1.31821e+58
          1123.70710	         1.30124e+59
          1124.51340	         6.41483e+58
          1125.31970	        -3.71846e+58
          1126.12600	        -1.45918e+58
          1126.93230	        -4.41755e+58
          1127.73860	        -4.74853e+58
          1128.54490	         3.41346e+57
          1129.35120	        -1.31639e+58
          1130.15750	        -3.13383e+58
          1130.96380	        -1.17792e+58
          1131.77010	         5.88620e+58
          1132.57640	         3.85066e+58
          1133.38270	         3.11411e+58
          1134.18900	         2.93964e+58
          1134.99530	         4.28376e+58
          1135.80160	         1.91994e+58
          1136.60790	        -3.80611e+57
          1137.41420	         2.22585e+58
          1138.22050	         4.63009e+58
          1139.02680	         3.42149e+58
          1139.83310	         2.86389e+58
          1140.63940	         7.15412e+57
          1141.44570	        -1.06462e+58
          1142.25200	         1.67899e+58
          1143.05830	         3.25317e+58
          1143.86460	         2.89007e+58
          1144.67090	         1.97721e+58
          1145.47720	         6.24128e+57
          1146.28350	         3.28435e+57
          1147.08980	         4.81442e+57
          1147.89610	         2.11182e+58
          1148.70240	         2.88344e+58
          1149.50870	         2.81871e+58
          1150.31500	         1.20715e+58
          1151.12130	         4.80652e+57
          1151.92760	        -7.99587e+56
          1152.73390	        -8.10917e+56
          1153.54020	         9.78352e+57
          1154.34650	         2.60792e+58
          1155.15280	         2.42150e+58
          1155.95910	         1.54770e+58
          1156.76540	         1.35705e+58
          1157.57170	         1.37709e+57
          1158.37800	         1.03312e+57
          1159.18430	        -3.29123e+57
          1159.99060	        -3.79867e+57
          1160.79690	         6.01177e+57
          1161.60320	         1.07364e+58
          1162.40950	         1.81811e+58
          1163.21580	         1.87809e+58
          1164.02210	         1.48561e+58
          1164.82840	         3.04774e+56
          1165.63470	         1.84917e+58
          1166.44100	         3.42037e+58
          1167.24730	         2.28091e+58
          1168.05360	         9.10461e+57
          1168.85990	         1.39867e+58
          1169.66620	         1.43225e+58
          1170.47250	         1.11323e+58
          1171.27880	         9.08207e+57
          1172.08510	         2.15427e+58
          1172.89140	         1.93478e+58
          1173.69770	         3.61557e+57
          1174.50400	         6.92122e+57
          1175.31030	         1.89603e+58
          1176.11660	         1.84480e+58
          1176.92290	         1.42654e+58
          1177.72920	         1.34897e+58
          1178.53550	         1.23989e+58
          1179.34180	         6.17242e+57
          1180.14810	         7.40910e+57
          1180.95440	         8.92582e+57
          1181.76070	         7.95284e+57
          1182.56700	         7.44010e+57
          1183.37330	         6.66360e+57
          1184.17960	         8.35745e+57
          1184.98590	         8.19405e+57
          1185.79220	         5.07098e+57
          1186.59850	         1.15633e+58
          1187.40480	         1.13978e+58
          1188.21110	         1.54626e+58
          1189.01740	         7.06019e+57
          1189.82370	         6.73816e+57
          1190.63000	         1.33082e+58
          1191.43630	         1.48093e+58
          1192.24260	         9.46710e+57
          1193.04890	         1.10708e+58
          1193.85520	         7.12225e+57
          1194.66150	         3.28065e+57
          1195.46780	         8.23204e+57
          1196.27410	         1.88765e+58
          1197.08040	         1.32794e+58
          1197.88670	         1.48642e+58
          1198.69300	         1.38263e+58
          1199.49930	         1.59199e+58
          1200.30560	         1.57563e+58
          1201.11190	         8.51825e+57
          1201.91820	         6.54552e+57
          1202.72450	         4.79131e+57
          1203.53080	         1.78221e+58
          1204.33710	         1.44487e+58
          1205.14340	         8.93161e+57
          1205.94970	         1.08871e+58
          1206.75600	         9.70116e+57
          1207.56230	         5.43740e+57
          1208.36860	         4.86401e+57
          1209.17490	         3.74025e+57
          1209.98120	         6.33429e+57
          1210.78750	         7.83573e+57
          1211.59380	         1.47454e+58
          1212.40010	         2.02118e+58
          1213.20640	         2.12465e+58
          1214.01270	         2.32736e+58
          1214.81900	         2.68070e+58
          1215.62530	         4.50969e+58
          1216.43160	         8.95298e+58
          1217.23790	         1.53821e+59
          1218.04420	         1.16931e+59
          1218.85050	         8.74499e+58
          1219.65680	         5.70028e+58
          1220.46310	         3.64091e+58
          1221.26940	         2.65261e+58
          1222.07570	         1.47094e+58
          1222.88200	         9.64987e+57
          1223.68830	         9.19157e+57
          1224.49460	         7.81838e+57
          1225.30090	         5.62656e+57
          1226.10720	         4.51039e+57
          1226.91350	         9.47698e+57
          1227.71980	         1.28680e+58
          1228.52610	         1.10383e+58
          1229.33240	         9.83231e+57
          1230.13870	         1.09543e+58
          1230.94500	         9.85116e+57
          1231.75130	         5.34243e+57
          1232.55760	         7.54089e+57
          1233.36390	         9.35194e+57
          1234.17020	         8.32161e+57
          1234.97650	         8.72258e+57
          1235.78280	         9.29324e+57
          1236.58910	         7.66990e+57
          1237.39540	         1.04093e+58
          1238.20170	         1.13715e+58
          1239.00800	         9.49368e+57
          1239.81430	         1.23842e+58
          1240.62060	         1.22823e+58
          1241.42690	         1.02156e+58
          1242.23320	         1.07254e+58
          1243.03950	         7.30664e+57
          1243.84580	         8.22585e+57
          1244.65210	         1.02245e+58
          1245.45840	         8.88317e+57
          1246.26470	         8.75256e+57
          1247.07100	         8.78099e+57
          1247.87730	         5.67172e+57
          1248.68360	         2.76594e+57
          1249.48990	         8.16076e+57
          1250.29620	         1.03518e+58
          1251.10250	         4.25049e+57
          1251.90880	         6.13796e+57
          1252.71510	         7.02714e+57
          1253.52140	         5.81772e+57
          1254.32770	         9.28377e+57
          1255.13400	         1.37044e+58
          1255.94030	         1.23178e+58
          1256.74660	         9.92428e+57
          1257.55290	         9.76901e+57
          1258.35920	         8.33655e+57
          1259.16550	         5.60379e+57
          1259.97180	         5.40190e+57
          1260.77810	         8.16013e+57
          1261.58440	         9.52664e+57
          1262.39070	         1.01142e+58
          1263.19700	         1.15126e+58
          1264.00330	         1.00600e+58
          1264.80960	         9.29461e+57
          1265.61590	         1.09071e+58
          1266.42220	         1.19486e+58
          1267.22850	         9.96068e+57
          1268.03480	         1.34150e+58
          1268.84110	         1.40980e+58
          1269.64740	         1.13882e+58
          1270.45370	         1.06875e+58
          1271.26000	         9.36497e+57
          1272.06630	         9.32529e+57
          1272.87260	         1.08562e+58
          1273.67890	         1.34482e+58
          1274.48520	         1.41927e+58
          1275.29150	         1.48902e+58
          1276.09780	         1.36441e+58
          1276.90410	         1.48002e+58
          1277.71040	         1.28691e+58
          1278.51670	         1.13069e+58
          1279.32300	         1.29479e+58
          1280.12930	         1.41358e+58
          1280.93560	         1.03760e+58
          1281.74190	         1.04344e+58
          1282.54820	         1.29626e+58
          1283.35450	         1.09464e+58
          1284.16080	         1.10729e+58
          1284.96710	         1.37513e+58
          1285.77340	         1.19253e+58
          1286.57970	         9.46910e+57
          1287.38600	         1.49026e+58
          1288.19230	         1.84094e+58
          1288.99860	         1.42361e+58
          1289.80490	         1.04749e+58
          1290.61120	         1.32431e+58
          1291.41750	         1.33595e+58
          1292.22380	         1.24405e+58
          1293.03010	         1.16355e+58
          1293.83640	         1.29317e+58
          1294.64270	         1.00222e+58
          1295.44900	         5.92554e+57
          1296.25530	         7.99372e+57
          1297.06160	         9.99360e+57
          1297.86790	         9.84474e+57
          1298.67420	         9.17116e+57
          1299.48050	         1.10574e+58
          1300.28680	         1.02117e+58
          1301.09310	         5.58462e+57
          1301.89940	         2.98455e+57
          1302.70570	         4.28780e+57
          1303.51200	         7.19083e+57
          1304.31830	         1.03730e+58
          1305.12460	         1.16243e+58
          1305.93090	         1.19044e+58
          1306.73720	         1.22142e+58
          1307.54350	         1.31420e+58
          1308.34980	         1.48524e+58
          1309.15610	         1.38518e+58
          1309.96240	         1.31835e+58
          1310.76870	         1.25663e+58
          1311.57500	         1.10823e+58
          1312.38130	         1.26965e+58
          1313.18760	         1.49181e+58
          1313.99390	         1.58592e+58
          1314.80020	         1.51493e+58
          1315.60650	         1.48655e+58
          1316.41280	         1.25007e+58
          1317.21910	         9.55151e+57
          1318.02540	         1.10148e+58
          1318.83170	         1.10241e+58
          1319.63800	         1.07051e+58
          1320.44430	         1.08469e+58
          1321.25060	         1.19706e+58
          1322.05690	         1.21476e+58
          1322.86320	         1.07834e+58
          1323.66950	         1.06857e+58
          1324.47580	         1.06160e+58
          1325.28210	         1.06644e+58
          1326.08840	         1.12673e+58
          1326.89470	         1.23050e+58
          1327.70100	         9.46112e+57
          1328.50730	         7.91728e+57
          1329.31360	         8.15632e+57
          1330.11990	         8.30797e+57
          1330.92620	         7.13741e+57
          1331.73250	         9.44683e+57
          1332.53880	         1.04141e+58
          1333.34510	         9.22349e+57
          1334.15140	         9.36189e+57
          1334.95770	         9.22910e+57
          1335.76400	         9.98691e+57
          1336.57030	         9.65385e+57
          1337.37660	         1.05982e+58
          1338.18290	         1.14395e+58
          1338.98920	         1.18241e+58
          1339.79550	         1.24708e+58
          1340.60180	         1.23284e+58
          1341.40810	         1.29432e+58
          1342.21440	         1.23249e+58
          1343.02070	         1.08563e+58
          1343.82700	         1.25497e+58
          1344.63330	         1.46697e+58
          1345.43960	         1.41537e+58
          1346.24590	         1.28610e+58
          1347.05220	         1.20154e+58
          1347.85850	         9.37740e+57
          1348.66480	         1.15446e+58
          1349.47110	         1.29782e+58
          1350.27740	         1.25964e+58
          1351.08370	         1.28869e+58
          1351.89000	         1.23787e+58
          1352.69630	         1.24500e+58
          1353.50260	         1.14569e+58
          1354.30890	         1.22552e+58
          1355.11520	         1.19759e+58
          1355.92150	         9.48234e+57
          1356.72780	         8.68121e+57
          1357.53410	         9.78957e+57
          1358.34040	         1.13177e+58
          1359.14670	         1.06692e+58
          1359.95300	         1.01727e+58
          1360.75930	         1.07516e+58
          1361.56560	         1.13389e+58
          1362.37190	         1.22136e+58
          1363.17820	         1.11872e+58
          1363.98450	         1.17112e+58
          1364.79080	         1.36990e+58
          1365.59710	         1.30627e+58
          1366.40340	         1.11188e+58
          1367.20970	         1.02014e+58
          1368.01600	         1.08702e+58
          1368.82230	         1.03161e+58
          1369.62860	         9.79665e+57
          1370.43490	         8.80964e+57
          1371.24120	         9.22713e+57
          1372.04750	         1.01858e+58
          1372.85380	         1.32234e+58
          1373.66010	         1.24381e+58
          1374.46640	         1.06929e+58
          1375.27270	         1.17714e+58
          1376.07900	         9.81812e+57
          1376.88530	         8.61055e+57
          1377.69160	         9.75046e+57
          1378.49790	         9.26231e+57
          1379.30420	         7.75810e+57
          1380.11050	         9.72803e+57
          1380.91680	         9.46124e+57
          1381.72310	         9.02742e+57
          1382.52940	         8.54779e+57
          1383.33570	         7.97016e+57
          1384.14200	         8.53603e+57
          1384.94830	         1.00539e+58
          1385.75460	         1.18109e+58
          1386.56090	         1.19645e+58
          1387.36720	         1.21682e+58
          1388.17350	         1.26875e+58
          1388.97980	         1.13577e+58
          1389.78610	         1.21018e+58
          1390.59240	         1.00645e+58
          1391.39870	         8.44307e+57
          1392.20500	         9.18362e+57
          1393.01130	         7.73151e+57
          1393.81760	         8.66773e+57
          1394.62390	         8.91906e+57
          1395.43020	         7.54774e+57
          1396.23650	         6.49948e+57
          1397.04280	         6.96122e+57
          1397.84910	         6.65039e+57
          1398.65540	         7.31730e+57
          1399.46170	         9.96394e+57
          1400.26800	         9.09716e+57
          1401.07430	         7.16072e+57
          1401.88060	         7.27126e+57
          1402.68690	         8.68743e+57
          1403.49320	         9.41101e+57
          1404.29950	         9.98610e+57
          1405.10580	         1.07603e+58
          1405.91210	         1.17894e+58
          1406.71840	         1.09656e+58
          1407.52470	         1.01718e+58
          1408.33100	         1.01061e+58
          1409.13730	         1.13081e+58
          1409.94360	         1.14631e+58
          1410.74990	         1.05053e+58
          1411.55620	         9.29472e+57
          1412.36250	         8.92454e+57
          1413.16880	         8.35230e+57
          1413.97510	         7.92289e+57
          1414.78140	         8.74522e+57
          1415.58770	         1.06843e+58
          1416.39400	         1.18792e+58
          1417.20030	         1.16694e+58
          1418.00660	         9.18193e+57
          1418.81290	         1.09920e+58
          1419.61920	         1.14987e+58
          1420.42550	         1.20161e+58
          1421.23180	         1.30467e+58
          1422.03810	         1.03489e+58
          1422.84440	         9.22344e+57
          1423.65070	         1.26268e+58
          1424.45700	         1.23671e+58
          1425.26330	         9.34512e+57
          1426.06960	         7.68368e+57
          1426.87590	         9.69365e+57
          1427.68220	         1.08769e+58
          1428.48850	         1.09537e+58
          1429.29480	         1.02184e+58
          1430.10110	         1.01591e+58
          1430.90740	         8.00604e+57
          1431.71370	         7.89018e+57
          1432.52000	         9.25532e+57
          1433.32630	         8.22764e+57
          1434.13260	         7.85357e+57
          1434.93890	         8.82198e+57
          1435.74520	         8.75366e+57
          1436.55150	         9.35207e+57
          1437.35780	         9.34207e+57
          1438.16410	         9.91861e+57
          1438.97040	         9.40485e+57
          1439.77670	         8.89285e+57
          1440.58300	         9.11946e+57
          1441.38930	         9.32369e+57
          1442.19560	         9.05751e+57
          1443.00190	         8.61382e+57
          1443.80820	         1.04149e+58
          1444.61450	         1.00267e+58
          1445.42080	         8.57138e+57
          1446.22710	         1.00322e+58
          1447.03340	         9.67375e+57
          1447.83970	         1.06940e+58
          1448.64600	         1.15314e+58
          1449.45230	         9.73939e+57
          1450.25860	         9.69675e+57
          1451.06490	         9.34868e+57
          1451.87120	         8.08266e+57
          1452.67750	         7.55767e+57
          1453.48380	         7.99487e+57
          1454.29010	         7.32451e+57
          1455.09640	         7.86639e+57
          1455.90270	         9.06196e+57
          1456.70900	         8.87906e+57
          1457.51530	         9.79418e+57
          1458.32160	         1.19025e+58
          1459.12790	         1.22223e+58
          1459.93420	         1.03798e+58
          1460.74050	         8.55398e+57
          1461.54680	         8.06896e+57
          1462.35310	         8.51816e+57
          1463.15940	         9.06265e+57
          1463.96570	         1.09345e+58
          1464.77200	         1.15405e+58
          1465.57830	         1.01525e+58
          1466.38460	         9.38237e+57
          1467.19090	         7.79342e+57
          1467.99720	         8.37838e+57
          1468.80350	         9.08251e+57
          1469.60980	         9.09680e+57
          1470.41610	         1.03801e+58
          1471.22240	         9.69223e+57
          1472.02870	         9.36703e+57
          1472.83500	         8.67330e+57
          1473.64130	         8.96051e+57
          1474.44760	         8.98341e+57
          1475.25390	         7.97265e+57
          1476.06020	         8.27475e+57
          1476.86650	         8.49738e+57
          1477.67280	         7.84935e+57
          1478.47910	         6.82411e+57
          1479.28540	         6.47828e+57
          1480.09170	         7.91125e+57
          1480.89800	         8.34882e+57
          1481.70430	         8.51859e+57
          1482.51060	         8.59071e+57
          1483.31690	         7.91258e+57
          1484.12320	         7.63893e+57
          1484.92950	         8.16868e+57
          1485.73580	         8.00985e+57
          1486.54210	         7.91362e+57
          1487.34840	         7.44483e+57
          1488.15470	         7.35236e+57
          1488.96100	         8.13904e+57
          1489.76730	         8.90086e+57
