#sample_313_stacked_spectrum_rest_UV-bands_median_H-alpha_noDC.txt
#median Lum: 1.72151e+42
#Rest-frame wavelength (A) | Luminosity (erg/s/A)
#
          1110.00000	         0.00000e+00
          1110.80630	         3.94930e+59
          1111.61260	         2.43455e+59
          1112.41890	         2.82250e+59
          1113.22520	         8.51182e+58
          1114.03150	        -3.23740e+58
          1114.83780	         1.96157e+59
          1115.64410	         1.96601e+59
          1116.45040	         2.36346e+59
          1117.25670	        -5.01671e+58
          1118.06300	         4.09485e+58
          1118.86930	        -4.99462e+58
          1119.67560	         4.63338e+58
          1120.48190	        -3.06955e+57
          1121.28820	        -6.70254e+58
          1122.09450	        -1.38702e+58
          1122.90080	         1.16493e+58
          1123.70710	         7.50356e+58
          1124.51340	         1.04908e+59
          1125.31970	         4.01815e+58
          1126.12600	         1.47836e+58
          1126.93230	        -5.82362e+58
          1127.73860	        -6.15896e+58
          1128.54490	        -4.12749e+57
          1129.35120	         4.58173e+58
          1130.15750	        -1.46890e+58
          1130.96380	        -2.41047e+58
          1131.77010	         1.27009e+58
          1132.57640	         3.52843e+58
          1133.38270	         3.17254e+58
          1134.18900	         2.66367e+58
          1134.99530	        -1.14637e+58
          1135.80160	         8.25924e+57
          1136.60790	         1.75666e+58
          1137.41420	         1.60188e+58
          1138.22050	         5.25731e+58
          1139.02680	         4.34362e+58
          1139.83310	         9.94362e+57
          1140.63940	         3.94947e+57
          1141.44570	        -1.39995e+58
          1142.25200	        -8.87621e+57
          1143.05830	         1.55831e+58
          1143.86460	         1.29375e+58
          1144.67090	         8.21238e+57
          1145.47720	        -2.02343e+57
          1146.28350	         9.21201e+57
          1147.08980	         1.73705e+58
          1147.89610	        -8.27942e+56
          1148.70240	         1.40603e+58
          1149.50870	         2.67544e+58
          1150.31500	        -2.07337e+57
          1151.12130	        -1.76468e+57
          1151.92760	         1.77417e+57
          1152.73390	         7.53843e+57
          1153.54020	         6.32627e+57
          1154.34650	         2.23672e+58
          1155.15280	         2.67748e+58
          1155.95910	         1.59993e+58
          1156.76540	         1.67527e+58
          1157.57170	         7.94909e+57
          1158.37800	         6.78212e+57
          1159.18430	         5.32428e+57
          1159.99060	         1.39740e+58
          1160.79690	         7.63365e+57
          1161.60320	         1.05544e+58
          1162.40950	         7.48999e+57
          1163.21580	         1.63611e+58
          1164.02210	         1.11360e+58
          1164.82840	         1.52820e+58
          1165.63470	         2.02932e+58
          1166.44100	         2.65833e+58
          1167.24730	         1.67803e+58
          1168.05360	         9.15416e+57
          1168.85990	         4.57314e+57
          1169.66620	         1.38042e+58
          1170.47250	         1.84269e+58
          1171.27880	         1.46627e+58
          1172.08510	         2.01608e+58
          1172.89140	         1.47271e+58
          1173.69770	         2.34117e+57
          1174.50400	         9.67559e+57
          1175.31030	         1.85494e+58
          1176.11660	         1.57434e+58
          1176.92290	         1.36516e+58
          1177.72920	         1.18228e+58
          1178.53550	         7.03700e+57
          1179.34180	         6.17119e+57
          1180.14810	         7.18894e+57
          1180.95440	         1.00129e+58
          1181.76070	         9.66958e+57
          1182.56700	         8.70151e+57
          1183.37330	         5.06336e+57
          1184.17960	         1.25501e+58
          1184.98590	         1.31710e+58
          1185.79220	         9.16817e+57
          1186.59850	         1.33292e+58
          1187.40480	         7.44654e+57
          1188.21110	         1.20273e+58
          1189.01740	         7.51215e+57
          1189.82370	         3.92518e+57
          1190.63000	         7.32628e+57
          1191.43630	         1.34059e+58
          1192.24260	         1.15918e+58
          1193.04890	         1.17900e+58
          1193.85520	         1.34673e+58
          1194.66150	         9.66236e+57
          1195.46780	         1.35237e+58
          1196.27410	         1.32287e+58
          1197.08040	         6.22216e+57
          1197.88670	         1.44395e+58
          1198.69300	         1.78902e+58
          1199.49930	         1.45275e+58
          1200.30560	         1.22613e+58
          1201.11190	         1.38527e+58
          1201.91820	         1.01503e+58
          1202.72450	         9.56487e+57
          1203.53080	         1.36053e+58
          1204.33710	         1.03072e+58
          1205.14340	         9.66913e+57
          1205.94970	         1.17829e+58
          1206.75600	         7.04438e+57
          1207.56230	         4.88329e+57
          1208.36860	         8.36474e+57
          1209.17490	         6.10022e+57
          1209.98120	         3.20336e+57
          1210.78750	         9.44241e+57
          1211.59380	         9.30590e+57
          1212.40010	         1.71641e+58
          1213.20640	         1.81606e+58
          1214.01270	         1.88629e+58
          1214.81900	         2.83067e+58
          1215.62530	         4.69885e+58
          1216.43160	         8.88920e+58
          1217.23790	         1.51041e+59
          1218.04420	         1.15155e+59
          1218.85050	         8.66508e+58
          1219.65680	         5.69421e+58
          1220.46310	         3.47278e+58
          1221.26940	         2.32678e+58
          1222.07570	         1.19184e+58
          1222.88200	         1.05783e+58
          1223.68830	         1.41887e+58
          1224.49460	         7.83495e+57
          1225.30090	         6.62885e+57
          1226.10720	         5.27847e+57
          1226.91350	         5.79463e+57
          1227.71980	         8.28860e+57
          1228.52610	         1.16811e+58
          1229.33240	         9.02348e+57
          1230.13870	         6.85261e+57
          1230.94500	         7.53530e+57
          1231.75130	         9.24994e+57
          1232.55760	         8.26009e+57
          1233.36390	         7.28210e+57
          1234.17020	         9.26713e+57
          1234.97650	         9.78030e+57
          1235.78280	         6.59284e+57
          1236.58910	         8.92158e+57
          1237.39540	         1.12709e+58
          1238.20170	         1.08089e+58
          1239.00800	         1.13349e+58
          1239.81430	         1.03912e+58
          1240.62060	         9.25811e+57
          1241.42690	         1.09399e+58
          1242.23320	         1.38695e+58
          1243.03950	         1.14539e+58
          1243.84580	         9.03427e+57
          1244.65210	         9.90746e+57
          1245.45840	         9.50227e+57
          1246.26470	         8.66562e+57
          1247.07100	         8.05985e+57
          1247.87730	         8.21000e+57
          1248.68360	         3.79519e+57
          1249.48990	         7.99824e+57
          1250.29620	         7.80141e+57
          1251.10250	         6.67643e+57
          1251.90880	         9.31608e+57
          1252.71510	         7.14871e+57
          1253.52140	         6.22862e+57
          1254.32770	         9.65274e+57
          1255.13400	         1.26682e+58
          1255.94030	         9.87745e+57
          1256.74660	         1.03763e+58
          1257.55290	         1.12506e+58
          1258.35920	         8.81899e+57
          1259.16550	         5.67518e+57
          1259.97180	         5.45659e+57
          1260.77810	         7.70909e+57
          1261.58440	         1.00160e+58
          1262.39070	         7.61222e+57
          1263.19700	         8.42963e+57
          1264.00330	         8.22335e+57
          1264.80960	         1.07277e+58
          1265.61590	         1.29729e+58
          1266.42220	         1.15815e+58
          1267.22850	         9.65687e+57
          1268.03480	         1.31422e+58
          1268.84110	         1.48858e+58
          1269.64740	         1.32751e+58
          1270.45370	         1.12059e+58
          1271.26000	         9.42599e+57
          1272.06630	         1.27219e+58
          1272.87260	         1.31508e+58
          1273.67890	         1.18585e+58
          1274.48520	         1.23208e+58
          1275.29150	         1.29196e+58
          1276.09780	         1.30726e+58
          1276.90410	         1.48475e+58
          1277.71040	         1.41801e+58
          1278.51670	         1.18598e+58
          1279.32300	         1.19674e+58
          1280.12930	         1.24057e+58
          1280.93560	         1.24442e+58
          1281.74190	         1.29158e+58
          1282.54820	         1.32142e+58
          1283.35450	         8.01390e+57
          1284.16080	         8.93607e+57
          1284.96710	         1.40909e+58
          1285.77340	         1.15452e+58
          1286.57970	         9.50877e+57
          1287.38600	         1.37055e+58
          1288.19230	         1.80403e+58
          1288.99860	         1.45665e+58
          1289.80490	         1.00497e+58
          1290.61120	         1.28412e+58
          1291.41750	         1.44248e+58
          1292.22380	         1.32821e+58
          1293.03010	         1.06663e+58
          1293.83640	         1.02475e+58
          1294.64270	         9.61691e+57
          1295.44900	         7.78148e+57
          1296.25530	         8.44946e+57
          1297.06160	         8.94036e+57
          1297.86790	         9.00031e+57
          1298.67420	         9.04505e+57
          1299.48050	         8.82608e+57
          1300.28680	         1.05561e+58
          1301.09310	         9.06150e+57
          1301.89940	         4.76726e+57
          1302.70570	         4.76144e+57
          1303.51200	         6.98645e+57
          1304.31830	         1.07395e+58
          1305.12460	         1.17661e+58
          1305.93090	         1.08087e+58
          1306.73720	         1.25857e+58
          1307.54350	         1.45398e+58
          1308.34980	         1.38600e+58
          1309.15610	         1.43426e+58
          1309.96240	         1.47293e+58
          1310.76870	         1.42139e+58
          1311.57500	         1.14192e+58
          1312.38130	         1.00311e+58
          1313.18760	         1.48933e+58
          1313.99390	         1.85553e+58
          1314.80020	         1.74351e+58
          1315.60650	         1.62292e+58
          1316.41280	         1.44321e+58
          1317.21910	         1.27504e+58
          1318.02540	         1.17683e+58
          1318.83170	         1.24433e+58
          1319.63800	         1.11118e+58
          1320.44430	         1.11293e+58
          1321.25060	         1.21154e+58
          1322.05690	         1.39731e+58
          1322.86320	         1.34922e+58
          1323.66950	         1.11094e+58
          1324.47580	         9.60504e+57
          1325.28210	         1.01082e+58
          1326.08840	         1.06595e+58
          1326.89470	         1.25311e+58
          1327.70100	         9.63894e+57
          1328.50730	         5.93231e+57
          1329.31360	         7.82116e+57
          1330.11990	         9.18665e+57
          1330.92620	         9.35986e+57
          1331.73250	         1.11728e+58
          1332.53880	         1.09700e+58
          1333.34510	         1.03318e+58
          1334.15140	         9.16321e+57
          1334.95770	         8.94964e+57
          1335.76400	         1.04306e+58
          1336.57030	         1.12578e+58
          1337.37660	         1.12717e+58
          1338.18290	         1.08550e+58
          1338.98920	         1.07381e+58
          1339.79550	         1.19668e+58
          1340.60180	         1.32081e+58
          1341.40810	         1.35911e+58
          1342.21440	         1.15920e+58
          1343.02070	         1.27622e+58
          1343.82700	         1.25478e+58
          1344.63330	         1.17598e+58
          1345.43960	         1.16195e+58
          1346.24590	         9.73427e+57
          1347.05220	         1.28400e+58
          1347.85850	         1.39304e+58
          1348.66480	         1.13467e+58
          1349.47110	         1.22089e+58
          1350.27740	         1.12278e+58
          1351.08370	         1.10687e+58
          1351.89000	         1.21497e+58
          1352.69630	         1.21368e+58
          1353.50260	         1.12797e+58
          1354.30890	         1.17171e+58
          1355.11520	         1.17845e+58
          1355.92150	         1.10800e+58
          1356.72780	         1.08058e+58
          1357.53410	         1.09242e+58
          1358.34040	         1.05656e+58
          1359.14670	         1.03093e+58
          1359.95300	         1.10762e+58
          1360.75930	         1.07667e+58
          1361.56560	         9.97968e+57
          1362.37190	         1.21455e+58
          1363.17820	         1.15469e+58
          1363.98450	         1.16805e+58
          1364.79080	         1.34168e+58
          1365.59710	         1.19057e+58
          1366.40340	         1.15752e+58
          1367.20970	         1.04087e+58
          1368.01600	         9.00876e+57
          1368.82230	         9.29146e+57
          1369.62860	         1.02134e+58
          1370.43490	         1.05162e+58
          1371.24120	         1.02337e+58
          1372.04750	         9.86139e+57
          1372.85380	         1.15313e+58
          1373.66010	         1.10366e+58
          1374.46640	         1.14648e+58
          1375.27270	         1.17713e+58
          1376.07900	         9.33149e+57
          1376.88530	         7.84925e+57
          1377.69160	         7.49039e+57
          1378.49790	         7.65484e+57
          1379.30420	         8.10397e+57
          1380.11050	         9.72727e+57
          1380.91680	         8.14154e+57
          1381.72310	         7.24253e+57
          1382.52940	         8.92219e+57
          1383.33570	         1.02725e+58
          1384.14200	         1.19510e+58
          1384.94830	         1.29889e+58
          1385.75460	         1.09971e+58
          1386.56090	         9.59304e+57
          1387.36720	         1.04008e+58
          1388.17350	         1.24695e+58
          1388.97980	         9.79499e+57
          1389.78610	         8.76777e+57
          1390.59240	         8.73251e+57
          1391.39870	         7.68844e+57
          1392.20500	         8.60882e+57
          1393.01130	         7.61328e+57
          1393.81760	         7.68890e+57
          1394.62390	         8.73924e+57
          1395.43020	         6.56890e+57
          1396.23650	         5.24257e+57
          1397.04280	         6.55778e+57
          1397.84910	         8.39214e+57
          1398.65540	         8.53765e+57
          1399.46170	         8.93753e+57
          1400.26800	         8.68678e+57
          1401.07430	         8.15726e+57
          1401.88060	         8.72046e+57
          1402.68690	         8.93104e+57
          1403.49320	         8.41332e+57
          1404.29950	         8.83219e+57
          1405.10580	         1.01722e+58
          1405.91210	         1.08572e+58
          1406.71840	         1.05417e+58
          1407.52470	         1.06034e+58
          1408.33100	         1.01473e+58
          1409.13730	         1.09762e+58
          1409.94360	         1.27201e+58
          1410.74990	         1.28899e+58
          1411.55620	         1.03836e+58
          1412.36250	         8.79746e+57
          1413.16880	         8.44808e+57
          1413.97510	         7.83416e+57
          1414.78140	         8.28937e+57
          1415.58770	         1.10291e+58
          1416.39400	         1.19524e+58
          1417.20030	         1.14670e+58
          1418.00660	         1.03355e+58
          1418.81290	         9.73524e+57
          1419.61920	         9.36705e+57
          1420.42550	         1.05211e+58
          1421.23180	         1.23278e+58
          1422.03810	         1.06870e+58
          1422.84440	         9.24671e+57
          1423.65070	         1.10661e+58
          1424.45700	         1.10771e+58
          1425.26330	         9.00118e+57
          1426.06960	         8.62470e+57
          1426.87590	         9.85140e+57
          1427.68220	         9.46741e+57
          1428.48850	         1.09969e+58
          1429.29480	         1.07824e+58
          1430.10110	         1.04818e+58
          1430.90740	         9.58047e+57
          1431.71370	         9.42586e+57
          1432.52000	         8.99941e+57
          1433.32630	         7.50685e+57
          1434.13260	         7.22149e+57
          1434.93890	         8.87945e+57
          1435.74520	         9.96500e+57
          1436.55150	         9.47355e+57
          1437.35780	         9.46577e+57
          1438.16410	         1.00060e+58
          1438.97040	         8.56364e+57
          1439.77670	         8.55978e+57
          1440.58300	         1.00264e+58
          1441.38930	         9.92827e+57
          1442.19560	         1.03105e+58
          1443.00190	         1.03592e+58
          1443.80820	         1.07875e+58
          1444.61450	         9.25625e+57
          1445.42080	         8.60680e+57
          1446.22710	         1.04012e+58
          1447.03340	         9.41498e+57
          1447.83970	         1.06152e+58
          1448.64600	         1.12427e+58
          1449.45230	         9.56841e+57
          1450.25860	         8.49402e+57
          1451.06490	         9.19819e+57
          1451.87120	         8.07502e+57
          1452.67750	         6.59250e+57
          1453.48380	         7.70954e+57
          1454.29010	         8.24920e+57
          1455.09640	         7.92342e+57
          1455.90270	         8.97981e+57
          1456.70900	         9.30125e+57
          1457.51530	         9.51914e+57
          1458.32160	         1.13849e+58
          1459.12790	         1.19530e+58
          1459.93420	         1.00042e+58
          1460.74050	         7.22649e+57
          1461.54680	         8.35229e+57
          1462.35310	         9.16408e+57
          1463.15940	         1.00251e+58
          1463.96570	         1.14586e+58
          1464.77200	         1.14410e+58
          1465.57830	         1.04173e+58
          1466.38460	         9.54007e+57
          1467.19090	         8.82947e+57
          1467.99720	         8.72958e+57
          1468.80350	         8.46623e+57
          1469.60980	         8.79281e+57
          1470.41610	         1.09244e+58
          1471.22240	         9.94368e+57
          1472.02870	         9.59235e+57
          1472.83500	         9.62813e+57
          1473.64130	         9.29728e+57
          1474.44760	         8.60099e+57
          1475.25390	         8.73460e+57
          1476.06020	         8.62359e+57
          1476.86650	         9.08110e+57
          1477.67280	         8.09547e+57
          1478.47910	         6.63362e+57
          1479.28540	         7.84021e+57
          1480.09170	         8.92972e+57
          1480.89800	         8.63599e+57
          1481.70430	         8.92173e+57
          1482.51060	         7.28358e+57
          1483.31690	         6.03031e+57
          1484.12320	         7.39357e+57
          1484.92950	         7.77655e+57
          1485.73580	         8.15634e+57
          1486.54210	         8.34385e+57
          1487.34840	         8.52184e+57
          1488.15470	         8.32545e+57
          1488.96100	         9.66263e+57
          1489.76730	         9.08909e+57
