#sample_119_stacked_spectrum_rest_UV-bands_median_H-alpha_noDC.txt
#median Lum: 1.66227e+42
#Rest-frame wavelength (A) | Luminosity (erg/s/A)
#
          1110.00000	         0.00000e+00
          1110.80630	        -4.04261e+59
          1111.61260	         5.69079e+58
          1112.41890	         1.32124e+59
          1113.22520	        -4.68343e+58
          1114.03150	        -1.08264e+59
          1114.83780	         2.40105e+59
          1115.64410	         1.14014e+59
          1116.45040	         1.80842e+58
          1117.25670	        -5.96969e+58
          1118.06300	        -3.29492e+58
          1118.86930	         6.23532e+57
          1119.67560	         1.17439e+59
          1120.48190	        -4.43131e+58
          1121.28820	        -1.05574e+59
          1122.09450	         4.26514e+58
          1122.90080	         7.87655e+58
          1123.70710	         1.91262e+59
          1124.51340	         1.28291e+59
          1125.31970	         3.67586e+58
          1126.12600	         1.82622e+58
          1126.93230	        -1.35193e+58
          1127.73860	        -4.30557e+58
          1128.54490	        -2.72179e+58
          1129.35120	        -2.82205e+58
          1130.15750	         1.34876e+58
          1130.96380	        -7.52168e+57
          1131.77010	         6.26797e+58
          1132.57640	         2.17997e+58
          1133.38270	         4.70499e+58
          1134.18900	         1.55768e+58
          1134.99530	        -2.25082e+58
          1135.80160	        -1.07374e+58
          1136.60790	         2.06843e+58
          1137.41420	        -5.89407e+57
          1138.22050	         2.13604e+58
          1139.02680	         2.59414e+58
          1139.83310	         2.22253e+58
          1140.63940	         4.31366e+58
          1141.44570	         2.18826e+58
          1142.25200	         2.80277e+57
          1143.05830	         1.41121e+58
          1143.86460	         4.14291e+58
          1144.67090	         2.36005e+58
          1145.47720	         2.27310e+58
          1146.28350	         2.95007e+57
          1147.08980	         2.00627e+58
          1147.89610	         2.29444e+58
          1148.70240	         2.50786e+58
          1149.50870	         1.93430e+58
          1150.31500	         8.36676e+57
          1151.12130	         9.72984e+57
          1151.92760	         1.74069e+58
          1152.73390	         1.38534e+58
          1153.54020	         1.03633e+58
          1154.34650	         2.73007e+58
          1155.15280	         2.75775e+58
          1155.95910	         1.47163e+58
          1156.76540	         3.84488e+57
          1157.57170	        -5.56672e+57
          1158.37800	         2.66176e+57
          1159.18430	         5.18875e+56
          1159.99060	         9.02469e+57
          1160.79690	         1.26597e+58
          1161.60320	         1.47734e+58
          1162.40950	         1.71447e+58
          1163.21580	         1.89542e+58
          1164.02210	         1.37603e+58
          1164.82840	         6.75626e+57
          1165.63470	         1.87611e+58
          1166.44100	         2.56528e+58
          1167.24730	         1.74015e+58
          1168.05360	         1.18663e+58
          1168.85990	         5.95856e+57
          1169.66620	         8.62367e+57
          1170.47250	         1.66915e+58
          1171.27880	         9.23896e+57
          1172.08510	         1.44266e+58
          1172.89140	         1.31624e+58
          1173.69770	         5.56897e+57
          1174.50400	         1.18056e+58
          1175.31030	         1.49585e+58
          1176.11660	         1.50720e+58
          1176.92290	         1.59838e+58
          1177.72920	         1.29263e+58
          1178.53550	         8.43821e+57
          1179.34180	         4.76735e+57
          1180.14810	         5.87138e+57
          1180.95440	         1.26666e+58
          1181.76070	         8.35640e+57
          1182.56700	         6.85584e+57
          1183.37330	         4.89548e+57
          1184.17960	         1.18828e+58
          1184.98590	         1.15403e+58
          1185.79220	         1.04110e+58
          1186.59850	         1.69765e+58
          1187.40480	         9.37498e+57
          1188.21110	         1.62768e+58
          1189.01740	         1.35700e+58
          1189.82370	         3.20026e+57
          1190.63000	         2.31847e+57
          1191.43630	         1.15190e+58
          1192.24260	         6.46748e+57
          1193.04890	         1.18062e+58
          1193.85520	         1.87411e+58
          1194.66150	         6.58661e+57
          1195.46780	         1.01610e+58
          1196.27410	         1.38187e+58
          1197.08040	         1.01549e+58
          1197.88670	         1.48063e+58
          1198.69300	         1.85678e+58
          1199.49930	         2.21336e+58
          1200.30560	         1.29569e+58
          1201.11190	         4.78732e+57
          1201.91820	         8.18677e+57
          1202.72450	         1.29449e+58
          1203.53080	         1.68875e+58
          1204.33710	         9.70576e+57
          1205.14340	         5.50951e+57
          1205.94970	         5.00091e+57
          1206.75600	         5.90541e+57
          1207.56230	         6.24081e+57
          1208.36860	         9.74411e+57
          1209.17490	         7.30955e+57
          1209.98120	         4.88616e+57
          1210.78750	         1.04293e+58
          1211.59380	         1.10320e+58
          1212.40010	         1.43685e+58
          1213.20640	         1.94775e+58
          1214.01270	         2.08803e+58
          1214.81900	         2.43863e+58
          1215.62530	         4.76076e+58
          1216.43160	         9.19404e+58
          1217.23790	         1.51529e+59
          1218.04420	         1.16476e+59
          1218.85050	         8.20625e+58
          1219.65680	         5.34008e+58
          1220.46310	         3.25772e+58
          1221.26940	         2.71442e+58
          1222.07570	         1.54068e+58
          1222.88200	         9.13598e+57
          1223.68830	         8.83883e+57
          1224.49460	         8.88586e+57
          1225.30090	         8.62560e+57
          1226.10720	         8.16686e+57
          1226.91350	         7.09544e+57
          1227.71980	         9.25166e+57
          1228.52610	         1.36073e+58
          1229.33240	         1.08618e+58
          1230.13870	         9.51613e+57
          1230.94500	         5.61143e+57
          1231.75130	         7.41055e+57
          1232.55760	         1.00023e+58
          1233.36390	         8.10520e+57
          1234.17020	         9.71744e+57
          1234.97650	         6.53559e+57
          1235.78280	         8.03021e+57
          1236.58910	         9.93564e+57
          1237.39540	         9.56633e+57
          1238.20170	         7.82866e+57
          1239.00800	         1.06621e+58
          1239.81430	         1.28563e+58
          1240.62060	         7.89327e+57
          1241.42690	         9.46028e+57
          1242.23320	         1.07453e+58
          1243.03950	         6.22689e+57
          1243.84580	         7.41040e+57
          1244.65210	         1.08203e+58
          1245.45840	         1.17324e+58
          1246.26470	         1.06096e+58
          1247.07100	         6.48970e+57
          1247.87730	         5.67434e+57
          1248.68360	         7.15582e+57
          1249.48990	         1.08079e+58
          1250.29620	         8.52965e+57
          1251.10250	         8.00601e+57
          1251.90880	         7.82145e+57
          1252.71510	         5.73675e+57
          1253.52140	         6.68522e+57
          1254.32770	         1.00630e+58
          1255.13400	         1.25940e+58
          1255.94030	         1.21026e+58
          1256.74660	         1.19670e+58
          1257.55290	         1.11030e+58
          1258.35920	         7.41575e+57
          1259.16550	         2.82337e+57
          1259.97180	         4.43503e+57
          1260.77810	         5.86443e+57
          1261.58440	         7.32112e+57
          1262.39070	         7.14187e+57
          1263.19700	         7.33121e+57
          1264.00330	         9.04706e+57
          1264.80960	         1.16518e+58
          1265.61590	         1.06063e+58
          1266.42220	         1.08876e+58
          1267.22850	         1.12070e+58
          1268.03480	         1.37716e+58
          1268.84110	         1.50414e+58
          1269.64740	         1.35832e+58
          1270.45370	         1.33245e+58
          1271.26000	         1.31329e+58
          1272.06630	         1.38832e+58
          1272.87260	         1.17479e+58
          1273.67890	         1.30951e+58
          1274.48520	         1.29776e+58
          1275.29150	         1.11164e+58
          1276.09780	         8.59121e+57
          1276.90410	         1.13436e+58
          1277.71040	         1.12397e+58
          1278.51670	         1.26661e+58
          1279.32300	         1.17434e+58
          1280.12930	         1.26545e+58
          1280.93560	         1.20079e+58
          1281.74190	         1.24953e+58
          1282.54820	         1.25498e+58
          1283.35450	         1.06101e+58
          1284.16080	         1.40713e+58
          1284.96710	         1.35570e+58
          1285.77340	         9.94697e+57
          1286.57970	         1.23365e+58
          1287.38600	         1.49650e+58
          1288.19230	         1.51035e+58
          1288.99860	         1.40872e+58
          1289.80490	         1.14740e+58
          1290.61120	         1.44516e+58
          1291.41750	         1.54541e+58
          1292.22380	         1.30031e+58
          1293.03010	         1.14982e+58
          1293.83640	         1.23494e+58
          1294.64270	         1.00444e+58
          1295.44900	         7.42931e+57
          1296.25530	         8.34072e+57
          1297.06160	         1.07518e+58
          1297.86790	         1.03411e+58
          1298.67420	         9.15015e+57
          1299.48050	         8.80185e+57
          1300.28680	         1.03238e+58
          1301.09310	         9.32150e+57
          1301.89940	         5.19949e+57
          1302.70570	         6.22564e+57
          1303.51200	         8.19678e+57
          1304.31830	         1.08468e+58
          1305.12460	         1.06519e+58
          1305.93090	         1.09358e+58
          1306.73720	         1.20868e+58
          1307.54350	         1.45748e+58
          1308.34980	         1.47689e+58
          1309.15610	         1.51251e+58
          1309.96240	         1.62015e+58
          1310.76870	         1.32720e+58
          1311.57500	         1.28677e+58
          1312.38130	         1.19820e+58
          1313.18760	         1.53900e+58
          1313.99390	         1.78588e+58
          1314.80020	         1.67416e+58
          1315.60650	         1.43813e+58
          1316.41280	         1.19483e+58
          1317.21910	         1.20441e+58
          1318.02540	         1.16154e+58
          1318.83170	         1.30722e+58
          1319.63800	         1.28942e+58
          1320.44430	         1.15358e+58
          1321.25060	         1.20318e+58
          1322.05690	         1.31239e+58
          1322.86320	         1.29150e+58
          1323.66950	         1.18995e+58
          1324.47580	         9.42838e+57
          1325.28210	         8.87726e+57
          1326.08840	         1.02903e+58
          1326.89470	         1.18827e+58
          1327.70100	         9.40796e+57
          1328.50730	         8.91045e+57
          1329.31360	         9.78319e+57
          1330.11990	         9.09026e+57
          1330.92620	         7.88593e+57
          1331.73250	         9.78901e+57
          1332.53880	         8.84510e+57
          1333.34510	         9.44837e+57
          1334.15140	         9.09880e+57
          1334.95770	         8.01914e+57
          1335.76400	         1.06169e+58
          1336.57030	         1.16782e+58
          1337.37660	         1.11895e+58
          1338.18290	         1.01695e+58
          1338.98920	         1.12099e+58
          1339.79550	         1.22743e+58
          1340.60180	         1.32121e+58
          1341.40810	         1.51307e+58
          1342.21440	         1.24261e+58
          1343.02070	         1.15062e+58
          1343.82700	         1.40201e+58
          1344.63330	         1.31391e+58
          1345.43960	         1.23752e+58
          1346.24590	         1.01314e+58
          1347.05220	         1.11362e+58
          1347.85850	         1.04160e+58
          1348.66480	         1.22445e+58
          1349.47110	         1.29067e+58
          1350.27740	         1.29026e+58
          1351.08370	         1.28896e+58
          1351.89000	         1.29220e+58
          1352.69630	         1.22976e+58
          1353.50260	         1.13658e+58
          1354.30890	         1.22122e+58
          1355.11520	         1.09996e+58
          1355.92150	         1.04327e+58
          1356.72780	         1.08199e+58
          1357.53410	         9.89358e+57
          1358.34040	         9.93171e+57
          1359.14670	         9.56112e+57
          1359.95300	         1.13983e+58
          1360.75930	         1.15990e+58
          1361.56560	         9.24660e+57
          1362.37190	         1.00761e+58
          1363.17820	         1.15988e+58
          1363.98450	         1.28200e+58
          1364.79080	         1.22260e+58
          1365.59710	         1.33276e+58
          1366.40340	         1.22791e+58
          1367.20970	         8.97163e+57
          1368.01600	         9.01201e+57
          1368.82230	         8.99105e+57
          1369.62860	         1.02027e+58
          1370.43490	         9.52040e+57
          1371.24120	         9.82291e+57
          1372.04750	         8.04426e+57
          1372.85380	         9.94471e+57
          1373.66010	         1.11153e+58
          1374.46640	         1.05484e+58
          1375.27270	         1.04831e+58
          1376.07900	         9.58386e+57
          1376.88530	         8.49454e+57
          1377.69160	         8.59181e+57
          1378.49790	         6.92804e+57
          1379.30420	         7.35820e+57
          1380.11050	         9.57141e+57
          1380.91680	         7.33192e+57
          1381.72310	         7.22323e+57
          1382.52940	         8.31149e+57
          1383.33570	         8.76207e+57
          1384.14200	         9.77798e+57
          1384.94830	         1.06870e+58
          1385.75460	         1.01341e+58
          1386.56090	         9.89034e+57
          1387.36720	         1.05257e+58
          1388.17350	         1.26772e+58
          1388.97980	         1.09440e+58
          1389.78610	         7.95061e+57
          1390.59240	         6.96802e+57
          1391.39870	         5.80902e+57
          1392.20500	         6.96770e+57
          1393.01130	         7.74643e+57
          1393.81760	         7.82392e+57
          1394.62390	         7.96423e+57
          1395.43020	         6.77560e+57
          1396.23650	         7.07697e+57
          1397.04280	         7.42398e+57
          1397.84910	         8.27114e+57
          1398.65540	         9.59711e+57
          1399.46170	         9.67608e+57
          1400.26800	         8.11742e+57
          1401.07430	         7.78835e+57
          1401.88060	         8.90531e+57
          1402.68690	         1.00168e+58
          1403.49320	         9.26908e+57
          1404.29950	         8.76828e+57
          1405.10580	         9.60169e+57
          1405.91210	         1.07845e+58
          1406.71840	         1.07664e+58
          1407.52470	         1.00710e+58
          1408.33100	         1.04530e+58
          1409.13730	         1.18676e+58
          1409.94360	         1.21931e+58
          1410.74990	         1.18840e+58
          1411.55620	         9.97332e+57
          1412.36250	         8.37737e+57
          1413.16880	         7.78049e+57
          1413.97510	         6.26251e+57
          1414.78140	         8.15503e+57
          1415.58770	         1.02361e+58
          1416.39400	         1.01701e+58
          1417.20030	         1.11503e+58
          1418.00660	         1.10279e+58
          1418.81290	         1.06466e+58
          1419.61920	         1.20058e+58
          1420.42550	         1.33446e+58
          1421.23180	         1.38002e+58
          1422.03810	         1.20660e+58
          1422.84440	         1.05138e+58
          1423.65070	         1.23556e+58
          1424.45700	         1.14403e+58
          1425.26330	         8.77555e+57
          1426.06960	         7.90753e+57
          1426.87590	         9.36497e+57
          1427.68220	         1.00110e+58
          1428.48850	         1.09038e+58
          1429.29480	         1.11760e+58
          1430.10110	         9.89295e+57
          1430.90740	         8.47993e+57
          1431.71370	         8.40624e+57
          1432.52000	         8.94004e+57
          1433.32630	         8.39705e+57
          1434.13260	         9.00637e+57
          1434.93890	         8.88862e+57
          1435.74520	         8.73973e+57
          1436.55150	         9.62329e+57
          1437.35780	         8.82324e+57
          1438.16410	         9.31386e+57
          1438.97040	         8.44118e+57
          1439.77670	         9.32966e+57
          1440.58300	         1.00428e+58
          1441.38930	         9.49474e+57
          1442.19560	         9.89811e+57
          1443.00190	         1.00194e+58
          1443.80820	         1.06366e+58
          1444.61450	         9.12296e+57
          1445.42080	         8.43744e+57
          1446.22710	         1.04176e+58
          1447.03340	         1.01776e+58
          1447.83970	         1.02005e+58
          1448.64600	         1.04181e+58
          1449.45230	         1.02673e+58
          1450.25860	         9.75090e+57
          1451.06490	         8.03354e+57
          1451.87120	         7.24116e+57
          1452.67750	         7.93553e+57
          1453.48380	         8.79670e+57
          1454.29010	         7.96018e+57
          1455.09640	         7.36530e+57
          1455.90270	         8.85577e+57
          1456.70900	         9.43220e+57
          1457.51530	         1.03394e+58
          1458.32160	         1.16281e+58
          1459.12790	         1.24193e+58
          1459.93420	         9.87635e+57
          1460.74050	         7.07371e+57
          1461.54680	         7.81671e+57
          1462.35310	         7.83117e+57
          1463.15940	         9.53845e+57
          1463.96570	         1.19889e+58
          1464.77200	         1.24163e+58
          1465.57830	         1.05620e+58
          1466.38460	         9.45264e+57
          1467.19090	         9.04607e+57
          1467.99720	         9.00237e+57
          1468.80350	         9.04131e+57
          1469.60980	         9.58757e+57
          1470.41610	         1.03715e+58
          1471.22240	         9.65528e+57
          1472.02870	         1.04198e+58
          1472.83500	         1.06142e+58
          1473.64130	         9.32254e+57
          1474.44760	         8.90507e+57
          1475.25390	         8.63999e+57
          1476.06020	         7.64980e+57
          1476.86650	         7.50549e+57
          1477.67280	         8.04104e+57
          1478.47910	         7.11694e+57
          1479.28540	         8.73612e+57
          1480.09170	         9.33589e+57
          1480.89800	         8.56164e+57
          1481.70430	         9.23370e+57
          1482.51060	         8.91981e+57
          1483.31690	         8.34651e+57
          1484.12320	         7.74594e+57
          1484.92950	         8.94556e+57
          1485.73580	         9.06948e+57
          1486.54210	         8.74609e+57
          1487.34840	         9.21255e+57
          1488.15470	         9.66916e+57
          1488.96100	         9.48305e+57
          1489.76730	         9.58250e+57
