#sample_35_stacked_spectrum_rest_UV-bands_median_H-alpha_noDC.txt
#median Lum: 1.70647e+42
#Rest-frame wavelength (A) | Luminosity (erg/s/A)
#
          1110.00000	         0.00000e+00
          1110.80630	         1.88413e+59
          1111.61260	         4.28352e+59
          1112.41890	        -1.32627e+58
          1113.22520	        -5.13758e+58
          1114.03150	        -3.40007e+58
          1114.83780	         6.24125e+56
          1115.64410	         1.04624e+59
          1116.45040	         2.63659e+59
          1117.25670	        -1.11096e+59
          1118.06300	         1.03668e+59
          1118.86930	         1.23544e+59
          1119.67560	         6.87023e+58
          1120.48190	        -4.06007e+58
          1121.28820	        -1.49837e+59
          1122.09450	        -4.33241e+58
          1122.90080	        -3.26277e+58
          1123.70710	         5.60361e+58
          1124.51340	         2.64688e+58
          1125.31970	         3.55760e+58
          1126.12600	         5.83325e+58
          1126.93230	        -5.29740e+58
          1127.73860	        -4.57163e+58
          1128.54490	        -4.27007e+57
          1129.35120	         2.27522e+58
          1130.15750	        -2.64279e+58
          1130.96380	        -3.88468e+58
          1131.77010	         1.59832e+58
          1132.57640	         4.94006e+58
          1133.38270	         5.49823e+58
          1134.18900	         1.85291e+58
          1134.99530	         2.08746e+58
          1135.80160	         3.00703e+58
          1136.60790	         2.44285e+58
          1137.41420	        -1.58880e+57
          1138.22050	         4.80971e+58
          1139.02680	         4.06549e+58
          1139.83310	         2.92303e+58
          1140.63940	         2.44335e+58
          1141.44570	        -4.45929e+56
          1142.25200	        -1.09066e+58
          1143.05830	         2.40655e+58
          1143.86460	         2.64644e+58
          1144.67090	         1.41974e+58
          1145.47720	         1.03601e+58
          1146.28350	         9.53587e+57
          1147.08980	         2.30738e+58
          1147.89610	         2.43431e+58
          1148.70240	         2.63878e+58
          1149.50870	         1.98601e+58
          1150.31500	         1.23096e+58
          1151.12130	         2.15615e+58
          1151.92760	         1.39251e+58
          1152.73390	         7.91152e+57
          1153.54020	         5.14261e+57
          1154.34650	         2.50138e+58
          1155.15280	         2.91599e+58
          1155.95910	         1.21493e+58
          1156.76540	         5.77442e+57
          1157.57170	        -6.85739e+56
          1158.37800	         1.08746e+55
          1159.18430	        -4.99475e+57
          1159.99060	         1.55962e+58
          1160.79690	         9.87529e+57
          1161.60320	         1.16124e+58
          1162.40950	         8.81401e+57
          1163.21580	         8.64521e+57
          1164.02210	         1.72277e+58
          1164.82840	         4.56848e+57
          1165.63470	         2.00144e+58
          1166.44100	         3.02264e+58
          1167.24730	         1.52888e+58
          1168.05360	         3.71527e+57
          1168.85990	         6.50259e+57
          1169.66620	         3.34365e+57
          1170.47250	         6.66027e+57
          1171.27880	         1.33781e+58
          1172.08510	         1.19048e+58
          1172.89140	         4.19191e+57
          1173.69770	         5.85217e+57
          1174.50400	         9.81463e+57
          1175.31030	         1.51571e+58
          1176.11660	         1.56585e+58
          1176.92290	         1.52675e+58
          1177.72920	         1.35731e+58
          1178.53550	         6.72875e+57
          1179.34180	         3.62077e+57
          1180.14810	         1.11364e+58
          1180.95440	         9.25195e+57
          1181.76070	         7.19803e+57
          1182.56700	         1.03335e+58
          1183.37330	         7.53302e+57
          1184.17960	         9.63605e+57
          1184.98590	         9.45919e+57
          1185.79220	         8.38573e+57
          1186.59850	         1.25286e+58
          1187.40480	         7.65144e+57
          1188.21110	         1.28493e+58
          1189.01740	         1.28911e+58
          1189.82370	         7.39685e+57
          1190.63000	         1.17909e+58
          1191.43630	         1.53831e+58
          1192.24260	         7.45077e+57
          1193.04890	         1.48918e+58
          1193.85520	         1.14341e+58
          1194.66150	         5.20470e+57
          1195.46780	         1.14337e+58
          1196.27410	         1.24225e+58
          1197.08040	         1.09112e+58
          1197.88670	         1.37057e+58
          1198.69300	         1.75697e+58
          1199.49930	         1.83799e+58
          1200.30560	         1.13138e+58
          1201.11190	         1.04706e+58
          1201.91820	         1.30200e+58
          1202.72450	         1.21718e+58
          1203.53080	         1.29310e+58
          1204.33710	         7.33103e+57
          1205.14340	         6.34986e+57
          1205.94970	         6.24629e+57
          1206.75600	         6.44204e+57
          1207.56230	         5.41899e+57
          1208.36860	         7.86210e+57
          1209.17490	         8.48302e+57
          1209.98120	         5.60679e+57
          1210.78750	         6.18917e+57
          1211.59380	         9.87996e+57
          1212.40010	         1.76429e+58
          1213.20640	         2.09319e+58
          1214.01270	         2.01473e+58
          1214.81900	         2.68320e+58
          1215.62530	         4.72306e+58
          1216.43160	         8.99633e+58
          1217.23790	         1.52038e+59
          1218.04420	         1.11675e+59
          1218.85050	         8.41035e+58
          1219.65680	         5.46997e+58
          1220.46310	         3.24692e+58
          1221.26940	         2.35014e+58
          1222.07570	         1.22884e+58
          1222.88200	         1.13478e+58
          1223.68830	         1.31818e+58
          1224.49460	         1.01942e+58
          1225.30090	         7.37988e+57
          1226.10720	         6.03469e+57
          1226.91350	         8.98263e+57
          1227.71980	         1.13276e+58
          1228.52610	         1.04246e+58
          1229.33240	         7.46630e+57
          1230.13870	         7.60023e+57
          1230.94500	         6.92184e+57
          1231.75130	         6.88412e+57
          1232.55760	         9.92266e+57
          1233.36390	         9.34012e+57
          1234.17020	         9.06386e+57
          1234.97650	         8.70855e+57
          1235.78280	         7.75746e+57
          1236.58910	         8.48860e+57
          1237.39540	         9.17230e+57
          1238.20170	         8.73098e+57
          1239.00800	         1.03322e+58
          1239.81430	         1.39255e+58
          1240.62060	         1.20454e+58
          1241.42690	         1.02881e+58
          1242.23320	         1.10678e+58
          1243.03950	         1.01976e+58
          1243.84580	         9.40966e+57
          1244.65210	         9.83471e+57
          1245.45840	         9.82969e+57
          1246.26470	         1.00637e+58
          1247.07100	         7.09807e+57
          1247.87730	         4.61826e+57
          1248.68360	         2.68693e+57
          1249.48990	         8.07217e+57
          1250.29620	         1.23260e+58
          1251.10250	         7.96554e+57
          1251.90880	         4.03070e+57
          1252.71510	         5.79473e+57
          1253.52140	         5.72055e+57
          1254.32770	         8.89244e+57
          1255.13400	         1.28377e+58
          1255.94030	         1.31066e+58
          1256.74660	         1.08021e+58
          1257.55290	         1.05591e+58
          1258.35920	         9.73732e+57
          1259.16550	         5.44707e+57
          1259.97180	         4.12513e+57
          1260.77810	         7.77875e+57
          1261.58440	         1.22791e+58
          1262.39070	         1.04898e+58
          1263.19700	         7.60604e+57
          1264.00330	         8.73072e+57
          1264.80960	         1.15085e+58
          1265.61590	         1.54203e+58
          1266.42220	         1.33522e+58
          1267.22850	         1.17021e+58
          1268.03480	         1.28699e+58
          1268.84110	         1.39724e+58
          1269.64740	         1.37217e+58
          1270.45370	         1.31400e+58
          1271.26000	         1.27041e+58
          1272.06630	         1.29848e+58
          1272.87260	         1.15065e+58
          1273.67890	         1.17922e+58
          1274.48520	         1.35788e+58
          1275.29150	         1.35298e+58
          1276.09780	         1.22378e+58
          1276.90410	         1.61848e+58
          1277.71040	         1.36834e+58
          1278.51670	         1.10834e+58
          1279.32300	         1.29701e+58
          1280.12930	         1.30777e+58
          1280.93560	         1.26023e+58
          1281.74190	         1.14301e+58
          1282.54820	         1.08250e+58
          1283.35450	         1.17132e+58
          1284.16080	         1.07006e+58
          1284.96710	         1.25216e+58
          1285.77340	         1.20610e+58
          1286.57970	         1.31836e+58
          1287.38600	         1.70678e+58
          1288.19230	         1.75582e+58
          1288.99860	         1.50798e+58
          1289.80490	         1.20414e+58
          1290.61120	         1.22723e+58
          1291.41750	         1.25492e+58
          1292.22380	         1.23404e+58
          1293.03010	         1.21208e+58
          1293.83640	         1.23551e+58
          1294.64270	         9.35653e+57
          1295.44900	         6.61820e+57
          1296.25530	         6.18952e+57
          1297.06160	         7.16501e+57
          1297.86790	         7.71474e+57
          1298.67420	         8.09915e+57
          1299.48050	         1.02607e+58
          1300.28680	         1.05766e+58
          1301.09310	         6.12637e+57
          1301.89940	         4.12600e+57
          1302.70570	         6.84057e+57
          1303.51200	         8.03118e+57
          1304.31830	         1.00876e+58
          1305.12460	         1.14133e+58
          1305.93090	         1.08703e+58
          1306.73720	         1.26697e+58
          1307.54350	         1.42443e+58
          1308.34980	         1.39622e+58
          1309.15610	         1.49984e+58
          1309.96240	         1.48776e+58
          1310.76870	         1.24297e+58
          1311.57500	         9.73655e+57
          1312.38130	         8.95918e+57
          1313.18760	         1.06749e+58
          1313.99390	         1.56155e+58
          1314.80020	         1.73234e+58
          1315.60650	         1.65460e+58
          1316.41280	         1.25836e+58
          1317.21910	         1.14988e+58
          1318.02540	         1.13719e+58
          1318.83170	         1.27008e+58
          1319.63800	         1.17829e+58
          1320.44430	         1.12058e+58
          1321.25060	         1.12697e+58
          1322.05690	         1.24148e+58
          1322.86320	         1.08722e+58
          1323.66950	         9.20347e+57
          1324.47580	         9.50763e+57
          1325.28210	         1.05418e+58
          1326.08840	         1.17710e+58
          1326.89470	         1.30395e+58
          1327.70100	         1.11845e+58
          1328.50730	         7.44705e+57
          1329.31360	         7.86376e+57
          1330.11990	         9.83423e+57
          1330.92620	         9.39108e+57
          1331.73250	         9.77285e+57
          1332.53880	         9.53391e+57
          1333.34510	         8.27180e+57
          1334.15140	         8.89180e+57
          1334.95770	         9.26540e+57
          1335.76400	         9.40815e+57
          1336.57030	         1.02830e+58
          1337.37660	         1.06545e+58
          1338.18290	         1.11638e+58
          1338.98920	         1.12092e+58
          1339.79550	         9.77727e+57
          1340.60180	         1.16515e+58
          1341.40810	         1.35739e+58
          1342.21440	         1.19966e+58
          1343.02070	         1.30326e+58
          1343.82700	         1.47015e+58
          1344.63330	         1.32171e+58
          1345.43960	         1.41892e+58
          1346.24590	         1.09649e+58
          1347.05220	         1.01185e+58
          1347.85850	         1.05890e+58
          1348.66480	         1.23541e+58
          1349.47110	         1.28543e+58
          1350.27740	         1.21231e+58
          1351.08370	         1.06875e+58
          1351.89000	         1.01478e+58
          1352.69630	         1.07055e+58
          1353.50260	         1.09401e+58
          1354.30890	         1.14751e+58
          1355.11520	         1.05466e+58
          1355.92150	         1.03316e+58
          1356.72780	         1.06093e+58
          1357.53410	         1.12614e+58
          1358.34040	         1.18999e+58
          1359.14670	         1.06601e+58
          1359.95300	         1.13825e+58
          1360.75930	         1.11577e+58
          1361.56560	         9.77089e+57
          1362.37190	         1.11051e+58
          1363.17820	         1.08785e+58
          1363.98450	         1.25177e+58
          1364.79080	         1.37415e+58
          1365.59710	         1.43506e+58
          1366.40340	         1.40874e+58
          1367.20970	         1.08604e+58
          1368.01600	         9.35798e+57
          1368.82230	         8.81829e+57
          1369.62860	         1.05308e+58
          1370.43490	         9.81121e+57
          1371.24120	         9.08481e+57
          1372.04750	         9.85383e+57
          1372.85380	         1.19492e+58
          1373.66010	         1.25837e+58
          1374.46640	         1.19475e+58
          1375.27270	         1.13794e+58
          1376.07900	         9.40275e+57
          1376.88530	         8.38989e+57
          1377.69160	         9.17159e+57
          1378.49790	         7.32963e+57
          1379.30420	         7.84728e+57
          1380.11050	         9.46821e+57
          1380.91680	         7.88625e+57
          1381.72310	         8.48887e+57
          1382.52940	         1.00667e+58
          1383.33570	         8.80362e+57
          1384.14200	         8.86477e+57
          1384.94830	         1.00334e+58
          1385.75460	         9.61249e+57
          1386.56090	         9.83786e+57
          1387.36720	         9.04072e+57
          1388.17350	         1.25367e+58
          1388.97980	         1.22231e+58
          1389.78610	         8.94864e+57
          1390.59240	         8.41693e+57
          1391.39870	         7.55946e+57
          1392.20500	         7.66377e+57
          1393.01130	         7.29591e+57
          1393.81760	         8.18804e+57
          1394.62390	         8.33883e+57
          1395.43020	         7.10539e+57
          1396.23650	         7.59035e+57
          1397.04280	         7.84928e+57
          1397.84910	         9.07577e+57
          1398.65540	         8.72968e+57
          1399.46170	         9.14722e+57
          1400.26800	         8.14611e+57
          1401.07430	         5.88394e+57
          1401.88060	         7.22866e+57
          1402.68690	         9.09247e+57
          1403.49320	         1.00768e+58
          1404.29950	         1.00748e+58
          1405.10580	         1.07087e+58
          1405.91210	         1.11181e+58
          1406.71840	         1.15900e+58
          1407.52470	         1.02427e+58
          1408.33100	         1.02493e+58
          1409.13730	         1.11779e+58
          1409.94360	         1.10332e+58
          1410.74990	         1.12377e+58
          1411.55620	         1.02825e+58
          1412.36250	         9.23465e+57
          1413.16880	         8.44175e+57
          1413.97510	         8.67144e+57
          1414.78140	         8.55391e+57
          1415.58770	         9.73547e+57
          1416.39400	         1.10859e+58
          1417.20030	         1.12758e+58
          1418.00660	         1.11380e+58
          1418.81290	         1.15936e+58
          1419.61920	         1.13277e+58
          1420.42550	         1.23160e+58
          1421.23180	         1.32308e+58
          1422.03810	         1.23201e+58
          1422.84440	         1.05437e+58
          1423.65070	         1.27566e+58
          1424.45700	         1.11725e+58
          1425.26330	         8.26994e+57
          1426.06960	         8.55733e+57
          1426.87590	         9.45210e+57
          1427.68220	         9.83682e+57
          1428.48850	         1.11727e+58
          1429.29480	         1.17490e+58
          1430.10110	         1.02348e+58
          1430.90740	         8.58121e+57
          1431.71370	         9.01313e+57
          1432.52000	         8.96811e+57
          1433.32630	         8.76739e+57
          1434.13260	         8.79621e+57
          1434.93890	         8.29782e+57
          1435.74520	         9.55309e+57
          1436.55150	         1.00003e+58
          1437.35780	         9.30728e+57
          1438.16410	         9.28717e+57
          1438.97040	         9.08049e+57
          1439.77670	         9.68490e+57
          1440.58300	         9.32692e+57
          1441.38930	         9.31718e+57
          1442.19560	         1.02390e+58
          1443.00190	         1.10321e+58
          1443.80820	         1.11993e+58
          1444.61450	         1.01360e+58
          1445.42080	         8.45910e+57
          1446.22710	         9.63111e+57
          1447.03340	         9.65969e+57
          1447.83970	         1.02718e+58
          1448.64600	         1.07010e+58
          1449.45230	         1.02388e+58
          1450.25860	         9.95259e+57
          1451.06490	         8.44939e+57
          1451.87120	         7.06419e+57
          1452.67750	         7.57860e+57
          1453.48380	         8.13289e+57
          1454.29010	         7.42052e+57
          1455.09640	         7.04236e+57
          1455.90270	         8.98755e+57
          1456.70900	         8.97167e+57
          1457.51530	         1.00088e+58
          1458.32160	         1.26503e+58
          1459.12790	         1.21524e+58
          1459.93420	         1.03383e+58
          1460.74050	         7.17630e+57
          1461.54680	         7.21909e+57
          1462.35310	         7.66085e+57
          1463.15940	         9.19256e+57
          1463.96570	         1.07713e+58
          1464.77200	         1.10458e+58
          1465.57830	         1.08864e+58
          1466.38460	         1.02098e+58
          1467.19090	         8.34910e+57
          1467.99720	         8.36351e+57
          1468.80350	         9.35813e+57
          1469.60980	         1.03726e+58
          1470.41610	         1.08691e+58
          1471.22240	         8.78225e+57
          1472.02870	         8.44075e+57
          1472.83500	         9.65983e+57
          1473.64130	         9.79870e+57
          1474.44760	         9.44004e+57
          1475.25390	         8.87294e+57
          1476.06020	         8.62718e+57
          1476.86650	         8.64424e+57
          1477.67280	         7.49790e+57
          1478.47910	         6.76446e+57
          1479.28540	         6.71978e+57
          1480.09170	         8.81827e+57
          1480.89800	         9.22930e+57
          1481.70430	         8.90170e+57
          1482.51060	         8.85157e+57
          1483.31690	         7.79757e+57
          1484.12320	         7.65973e+57
          1484.92950	         6.87371e+57
          1485.73580	         7.62507e+57
          1486.54210	         9.16565e+57
          1487.34840	         9.44559e+57
          1488.15470	         7.89922e+57
          1488.96100	         7.96916e+57
          1489.76730	         8.36880e+57
