#sample_311_stacked_spectrum_rest_UV-bands_median_H-alpha_noDC.txt
#median Lum: 1.70746e+42
#Rest-frame wavelength (A) | Luminosity (erg/s/A)
#
          1110.00000	         0.00000e+00
          1110.80630	        -2.53766e+59
          1111.61260	         5.01484e+58
          1112.41890	         1.45406e+58
          1113.22520	         2.71225e+58
          1114.03150	        -2.09941e+59
          1114.83780	         1.85187e+59
          1115.64410	         9.33156e+58
          1116.45040	         1.43415e+59
          1117.25670	         3.90239e+58
          1118.06300	         1.11094e+59
          1118.86930	         4.54853e+58
          1119.67560	         1.52077e+59
          1120.48190	         1.57500e+58
          1121.28820	        -1.07675e+59
          1122.09450	        -2.73277e+58
          1122.90080	         4.70911e+58
          1123.70710	         3.07197e+58
          1124.51340	         1.00484e+58
          1125.31970	         9.32829e+57
          1126.12600	         3.02772e+58
          1126.93230	        -1.64304e+58
          1127.73860	        -2.92852e+58
          1128.54490	        -8.66762e+57
          1129.35120	         1.41368e+58
          1130.15750	        -3.74795e+57
          1130.96380	        -4.88787e+58
          1131.77010	         6.15477e+58
          1132.57640	         6.69236e+58
          1133.38270	         1.86520e+58
          1134.18900	         2.35434e+58
          1134.99530	        -4.85424e+57
          1135.80160	         1.17714e+58
          1136.60790	         1.98614e+58
          1137.41420	        -9.37476e+57
          1138.22050	         2.34255e+58
          1139.02680	         3.01054e+58
          1139.83310	         2.67248e+58
          1140.63940	         2.86944e+58
          1141.44570	         5.19409e+57
          1142.25200	        -1.85350e+58
          1143.05830	         1.64414e+58
          1143.86460	         2.34739e+58
          1144.67090	         2.13296e+58
          1145.47720	         9.44336e+57
          1146.28350	         1.99631e+58
          1147.08980	         1.32100e+58
          1147.89610	         1.57686e+58
          1148.70240	         9.63689e+57
          1149.50870	         2.16793e+58
          1150.31500	         1.29194e+58
          1151.12130	         7.39327e+57
          1151.92760	         1.66174e+56
          1152.73390	        -4.55049e+57
          1153.54020	        -1.33220e+57
          1154.34650	         1.61673e+58
          1155.15280	         1.89513e+58
          1155.95910	         3.51177e+57
          1156.76540	         1.70757e+58
          1157.57170	         4.88556e+57
          1158.37800	         3.09082e+57
          1159.18430	        -9.55456e+57
          1159.99060	         7.31990e+57
          1160.79690	         1.33839e+58
          1161.60320	         1.02613e+58
          1162.40950	         1.73660e+58
          1163.21580	         1.03687e+58
          1164.02210	         1.04988e+58
          1164.82840	         4.29198e+57
          1165.63470	         1.45688e+58
          1166.44100	         3.48392e+58
          1167.24730	         2.61742e+58
          1168.05360	         7.83192e+57
          1168.85990	         5.45564e+56
          1169.66620	         1.24139e+57
          1170.47250	         1.26367e+58
          1171.27880	         1.35192e+58
          1172.08510	         8.56367e+57
          1172.89140	         7.19976e+57
          1173.69770	         3.25170e+57
          1174.50400	         6.89543e+57
          1175.31030	         9.87280e+57
          1176.11660	         2.60019e+58
          1176.92290	         1.95002e+58
          1177.72920	         1.13663e+58
          1178.53550	         5.89366e+57
          1179.34180	         6.11288e+56
          1180.14810	         2.09375e+57
          1180.95440	         5.22220e+57
          1181.76070	         7.47165e+57
          1182.56700	         1.10731e+58
          1183.37330	         6.73421e+57
          1184.17960	         1.46220e+58
          1184.98590	         1.31692e+58
          1185.79220	         5.49927e+57
          1186.59850	         1.06648e+58
          1187.40480	         1.05388e+58
          1188.21110	         1.69257e+58
          1189.01740	         1.31320e+58
          1189.82370	         8.18864e+57
          1190.63000	         7.86587e+57
          1191.43630	         1.23903e+58
          1192.24260	         1.49363e+58
          1193.04890	         1.42932e+58
          1193.85520	         1.07547e+58
          1194.66150	        -1.32146e+56
          1195.46780	        -1.16190e+57
          1196.27410	         6.36759e+57
          1197.08040	         9.99714e+57
          1197.88670	         1.36864e+58
          1198.69300	         1.73000e+58
          1199.49930	         1.91374e+58
          1200.30560	         1.23136e+58
          1201.11190	         6.39109e+57
          1201.91820	         8.58992e+57
          1202.72450	         8.27688e+57
          1203.53080	         1.21739e+58
          1204.33710	         1.03934e+58
          1205.14340	         9.77893e+57
          1205.94970	         8.37256e+57
          1206.75600	         4.57623e+57
          1207.56230	         7.02090e+57
          1208.36860	         1.22891e+58
          1209.17490	         8.13336e+57
          1209.98120	         3.61298e+57
          1210.78750	         4.77943e+57
          1211.59380	         1.19227e+58
          1212.40010	         1.86993e+58
          1213.20640	         1.95340e+58
          1214.01270	         2.23993e+58
          1214.81900	         2.71331e+58
          1215.62530	         4.22026e+58
          1216.43160	         8.82648e+58
          1217.23790	         1.47284e+59
          1218.04420	         1.11753e+59
          1218.85050	         8.48298e+58
          1219.65680	         5.13030e+58
          1220.46310	         2.80183e+58
          1221.26940	         1.79370e+58
          1222.07570	         1.10955e+58
          1222.88200	         1.07754e+58
          1223.68830	         1.32583e+58
          1224.49460	         8.48337e+57
          1225.30090	         4.05039e+57
          1226.10720	         9.18458e+57
          1226.91350	         1.06517e+58
          1227.71980	         8.96638e+57
          1228.52610	         1.37259e+58
          1229.33240	         8.24403e+57
          1230.13870	         9.23754e+57
          1230.94500	         9.62107e+57
          1231.75130	         9.52032e+57
          1232.55760	         9.49027e+57
          1233.36390	         8.37350e+57
          1234.17020	         8.40210e+57
          1234.97650	         9.42873e+57
          1235.78280	         6.57549e+57
          1236.58910	         8.17160e+57
          1237.39540	         1.00664e+58
          1238.20170	         9.34635e+57
          1239.00800	         1.41195e+58
          1239.81430	         1.58080e+58
          1240.62060	         1.00646e+58
          1241.42690	         8.77408e+57
          1242.23320	         9.98181e+57
          1243.03950	         8.07014e+57
          1243.84580	         6.35954e+57
          1244.65210	         8.78212e+57
          1245.45840	         9.79603e+57
          1246.26470	         8.56275e+57
          1247.07100	         7.54307e+57
          1247.87730	         6.69051e+57
          1248.68360	         4.29945e+57
          1249.48990	         8.35559e+57
          1250.29620	         1.11402e+58
          1251.10250	         6.62307e+57
          1251.90880	         3.12795e+57
          1252.71510	         4.53694e+57
          1253.52140	         7.02082e+57
          1254.32770	         1.06003e+58
          1255.13400	         1.16923e+58
          1255.94030	         1.06266e+58
          1256.74660	         8.68173e+57
          1257.55290	         9.34854e+57
          1258.35920	         8.01043e+57
          1259.16550	         6.31436e+57
          1259.97180	         5.91568e+57
          1260.77810	         8.68352e+57
          1261.58440	         7.99575e+57
          1262.39070	         6.49385e+57
          1263.19700	         7.35285e+57
          1264.00330	         9.53288e+57
          1264.80960	         1.04563e+58
          1265.61590	         1.39469e+58
          1266.42220	         1.41127e+58
          1267.22850	         1.00831e+58
          1268.03480	         1.33981e+58
          1268.84110	         1.54357e+58
          1269.64740	         1.30404e+58
          1270.45370	         1.43273e+58
          1271.26000	         1.34284e+58
          1272.06630	         1.14717e+58
          1272.87260	         1.10708e+58
          1273.67890	         1.20021e+58
          1274.48520	         1.27568e+58
          1275.29150	         1.35606e+58
          1276.09780	         1.06796e+58
          1276.90410	         1.17649e+58
          1277.71040	         1.24897e+58
          1278.51670	         1.08015e+58
          1279.32300	         1.40729e+58
          1280.12930	         1.31282e+58
          1280.93560	         9.52172e+57
          1281.74190	         9.97690e+57
          1282.54820	         1.24276e+58
          1283.35450	         1.28181e+58
          1284.16080	         1.06884e+58
          1284.96710	         1.32753e+58
          1285.77340	         1.47164e+58
          1286.57970	         1.30401e+58
          1287.38600	         1.63803e+58
          1288.19230	         1.96291e+58
          1288.99860	         1.47875e+58
          1289.80490	         8.70658e+57
          1290.61120	         1.12198e+58
          1291.41750	         1.22977e+58
          1292.22380	         1.03660e+58
          1293.03010	         1.08736e+58
          1293.83640	         1.13884e+58
          1294.64270	         1.11920e+58
          1295.44900	         8.23287e+57
          1296.25530	         8.14682e+57
          1297.06160	         9.18349e+57
          1297.86790	         8.63160e+57
          1298.67420	         1.00516e+58
          1299.48050	         9.32336e+57
          1300.28680	         9.64763e+57
          1301.09310	         7.50859e+57
          1301.89940	         4.15439e+57
          1302.70570	         5.50181e+57
          1303.51200	         6.47647e+57
          1304.31830	         8.48862e+57
          1305.12460	         1.01965e+58
          1305.93090	         1.14127e+58
          1306.73720	         1.30473e+58
          1307.54350	         1.30795e+58
          1308.34980	         1.33134e+58
          1309.15610	         1.62571e+58
          1309.96240	         1.63265e+58
          1310.76870	         1.26434e+58
          1311.57500	         1.11647e+58
          1312.38130	         1.05774e+58
          1313.18760	         1.15100e+58
          1313.99390	         1.37782e+58
          1314.80020	         1.50017e+58
          1315.60650	         1.46404e+58
          1316.41280	         1.29456e+58
          1317.21910	         1.23746e+58
          1318.02540	         1.16970e+58
          1318.83170	         1.12445e+58
          1319.63800	         1.23289e+58
          1320.44430	         1.32221e+58
          1321.25060	         1.33504e+58
          1322.05690	         1.24024e+58
          1322.86320	         1.10626e+58
          1323.66950	         9.44506e+57
          1324.47580	         6.90188e+57
          1325.28210	         8.74767e+57
          1326.08840	         1.19099e+58
          1326.89470	         1.39094e+58
          1327.70100	         1.20453e+58
          1328.50730	         8.91816e+57
          1329.31360	         9.67430e+57
          1330.11990	         1.17657e+58
          1330.92620	         1.06741e+58
          1331.73250	         1.03779e+58
          1332.53880	         9.38567e+57
          1333.34510	         9.38007e+57
          1334.15140	         9.94517e+57
          1334.95770	         8.43574e+57
          1335.76400	         9.70069e+57
          1336.57030	         1.07376e+58
          1337.37660	         1.16699e+58
          1338.18290	         1.11922e+58
          1338.98920	         1.07827e+58
          1339.79550	         9.95565e+57
          1340.60180	         1.05322e+58
          1341.40810	         1.27368e+58
          1342.21440	         1.21262e+58
          1343.02070	         1.15512e+58
          1343.82700	         1.46527e+58
          1344.63330	         1.36750e+58
          1345.43960	         1.30400e+58
          1346.24590	         1.11033e+58
          1347.05220	         1.01277e+58
          1347.85850	         9.62367e+57
          1348.66480	         1.18995e+58
          1349.47110	         1.39012e+58
          1350.27740	         1.18754e+58
          1351.08370	         1.14815e+58
          1351.89000	         1.02859e+58
          1352.69630	         9.81560e+57
          1353.50260	         1.13056e+58
          1354.30890	         1.25218e+58
          1355.11520	         1.16615e+58
          1355.92150	         1.03741e+58
          1356.72780	         1.06446e+58
          1357.53410	         1.05136e+58
          1358.34040	         1.06457e+58
          1359.14670	         1.09795e+58
          1359.95300	         1.14896e+58
          1360.75930	         1.22970e+58
          1361.56560	         1.12634e+58
          1362.37190	         1.10478e+58
          1363.17820	         1.03947e+58
          1363.98450	         1.09653e+58
          1364.79080	         1.13084e+58
          1365.59710	         1.03564e+58
          1366.40340	         9.73588e+57
          1367.20970	         9.68723e+57
          1368.01600	         1.06034e+58
          1368.82230	         1.11474e+58
          1369.62860	         1.08377e+58
          1370.43490	         9.28661e+57
          1371.24120	         9.89854e+57
          1372.04750	         9.34429e+57
          1372.85380	         8.78992e+57
          1373.66010	         8.16262e+57
          1374.46640	         8.81171e+57
          1375.27270	         1.00410e+58
          1376.07900	         9.20489e+57
          1376.88530	         8.10741e+57
          1377.69160	         8.40448e+57
          1378.49790	         7.05753e+57
          1379.30420	         7.36655e+57
          1380.11050	         9.61350e+57
          1380.91680	         8.38394e+57
          1381.72310	         7.45459e+57
          1382.52940	         9.63500e+57
          1383.33570	         9.38922e+57
          1384.14200	         9.77549e+57
          1384.94830	         1.09450e+58
          1385.75460	         8.97563e+57
          1386.56090	         1.04727e+58
          1387.36720	         9.76003e+57
          1388.17350	         1.14479e+58
          1388.97980	         1.20018e+58
          1389.78610	         9.22487e+57
          1390.59240	         6.85851e+57
          1391.39870	         7.13828e+57
          1392.20500	         7.35319e+57
          1393.01130	         6.77179e+57
          1393.81760	         8.26991e+57
          1394.62390	         8.20206e+57
          1395.43020	         6.28366e+57
          1396.23650	         6.79932e+57
          1397.04280	         7.75533e+57
          1397.84910	         8.24542e+57
          1398.65540	         8.61081e+57
          1399.46170	         9.72450e+57
          1400.26800	         9.09915e+57
          1401.07430	         7.95778e+57
          1401.88060	         7.90765e+57
          1402.68690	         8.90201e+57
          1403.49320	         8.93107e+57
          1404.29950	         8.13761e+57
          1405.10580	         9.52392e+57
          1405.91210	         1.04147e+58
          1406.71840	         1.03214e+58
          1407.52470	         9.79105e+57
          1408.33100	         1.03881e+58
          1409.13730	         1.17284e+58
          1409.94360	         1.09295e+58
          1410.74990	         1.08773e+58
          1411.55620	         1.02004e+58
          1412.36250	         7.92364e+57
          1413.16880	         7.47497e+57
          1413.97510	         6.97009e+57
          1414.78140	         7.60365e+57
          1415.58770	         9.41033e+57
          1416.39400	         1.08768e+58
          1417.20030	         1.12163e+58
          1418.00660	         9.56806e+57
          1418.81290	         9.15980e+57
          1419.61920	         9.59790e+57
          1420.42550	         1.23059e+58
          1421.23180	         1.36343e+58
          1422.03810	         1.29199e+58
          1422.84440	         1.17835e+58
          1423.65070	         1.16683e+58
          1424.45700	         1.11669e+58
          1425.26330	         8.93876e+57
          1426.06960	         8.50248e+57
          1426.87590	         1.01847e+58
          1427.68220	         1.02413e+58
          1428.48850	         9.48134e+57
          1429.29480	         9.48862e+57
          1430.10110	         9.55903e+57
          1430.90740	         8.38569e+57
          1431.71370	         8.52812e+57
          1432.52000	         9.61032e+57
          1433.32630	         7.87715e+57
          1434.13260	         7.35554e+57
          1434.93890	         8.17437e+57
          1435.74520	         8.44436e+57
          1436.55150	         9.18197e+57
          1437.35780	         9.02669e+57
          1438.16410	         8.75851e+57
          1438.97040	         8.45370e+57
          1439.77670	         8.03668e+57
          1440.58300	         8.58900e+57
          1441.38930	         8.63326e+57
          1442.19560	         8.50255e+57
          1443.00190	         9.78216e+57
          1443.80820	         1.09173e+58
          1444.61450	         8.47794e+57
          1445.42080	         6.72181e+57
          1446.22710	         8.52604e+57
          1447.03340	         8.01598e+57
          1447.83970	         9.63455e+57
          1448.64600	         9.84431e+57
          1449.45230	         9.39085e+57
          1450.25860	         1.05045e+58
          1451.06490	         8.62242e+57
          1451.87120	         7.20745e+57
          1452.67750	         7.52255e+57
          1453.48380	         8.69336e+57
          1454.29010	         7.44386e+57
          1455.09640	         7.24005e+57
          1455.90270	         8.41643e+57
          1456.70900	         8.09611e+57
          1457.51530	         8.96686e+57
          1458.32160	         1.18266e+58
          1459.12790	         1.20270e+58
          1459.93420	         1.08190e+58
          1460.74050	         9.01001e+57
          1461.54680	         8.30470e+57
          1462.35310	         8.00750e+57
          1463.15940	         9.07420e+57
          1463.96570	         1.04190e+58
          1464.77200	         1.18407e+58
          1465.57830	         1.07314e+58
          1466.38460	         9.32701e+57
          1467.19090	         9.68179e+57
          1467.99720	         9.12744e+57
          1468.80350	         8.94677e+57
          1469.60980	         9.35581e+57
          1470.41610	         9.84230e+57
          1471.22240	         9.44181e+57
          1472.02870	         9.19363e+57
          1472.83500	         9.09583e+57
          1473.64130	         9.10499e+57
          1474.44760	         9.40969e+57
          1475.25390	         8.58808e+57
          1476.06020	         8.69952e+57
          1476.86650	         8.96122e+57
          1477.67280	         8.29912e+57
          1478.47910	         7.49656e+57
          1479.28540	         8.24085e+57
          1480.09170	         9.18016e+57
          1480.89800	         8.80673e+57
          1481.70430	         7.98033e+57
          1482.51060	         7.36346e+57
          1483.31690	         7.47759e+57
          1484.12320	         8.28511e+57
          1484.92950	         8.15919e+57
          1485.73580	         8.17810e+57
          1486.54210	         8.87956e+57
          1487.34840	         8.84495e+57
          1488.15470	         7.91637e+57
          1488.96100	         7.36755e+57
          1489.76730	         7.14638e+57
