#sample_457_stacked_spectrum_rest_UV-bands_median_H-alpha_noDC.txt
#median Lum: 1.73882e+42
#Rest-frame wavelength (A) | Luminosity (erg/s/A)
#
          1110.00000	         0.00000e+00
          1110.80630	         2.83093e+58
          1111.61260	         3.54417e+59
          1112.41890	         1.82312e+58
          1113.22520	        -1.03176e+58
          1114.03150	         5.69486e+58
          1114.83780	         1.45679e+59
          1115.64410	         2.99339e+59
          1116.45040	         1.32987e+59
          1117.25670	         1.20106e+59
          1118.06300	         6.27780e+58
          1118.86930	        -9.71235e+58
          1119.67560	         1.98101e+58
          1120.48190	         4.80717e+58
          1121.28820	        -7.39671e+58
          1122.09450	        -3.87312e+58
          1122.90080	         2.82616e+58
          1123.70710	         2.90912e+58
          1124.51340	         9.42737e+58
          1125.31970	         4.73437e+58
          1126.12600	         3.95082e+58
          1126.93230	        -3.08661e+58
          1127.73860	        -8.19320e+58
          1128.54490	         1.22806e+58
          1129.35120	        -1.14974e+58
          1130.15750	        -6.04333e+58
          1130.96380	        -3.13705e+58
          1131.77010	         3.69642e+58
          1132.57640	         5.85287e+58
          1133.38270	         4.08858e+58
          1134.18900	         1.79758e+58
          1134.99530	         1.84840e+58
          1135.80160	         1.87813e+58
          1136.60790	        -1.19092e+56
          1137.41420	         2.33677e+57
          1138.22050	         2.23203e+58
          1139.02680	         4.40268e+58
          1139.83310	         2.96583e+58
          1140.63940	         2.67614e+58
          1141.44570	        -1.68614e+58
          1142.25200	        -2.05660e+58
          1143.05830	         8.42587e+57
          1143.86460	         1.71945e+58
          1144.67090	         3.08479e+58
          1145.47720	         7.95377e+57
          1146.28350	         1.76577e+57
          1147.08980	         1.03316e+58
          1147.89610	         1.79443e+58
          1148.70240	         1.12514e+58
          1149.50870	         1.76065e+58
          1150.31500	         1.46676e+58
          1151.12130	         8.96938e+57
          1151.92760	         1.21606e+58
          1152.73390	        -1.03687e+57
          1153.54020	        -4.09848e+57
          1154.34650	         2.13945e+58
          1155.15280	         1.73419e+58
          1155.95910	         1.43276e+58
          1156.76540	         1.25477e+58
          1157.57170	        -1.14102e+58
          1158.37800	         2.31547e+57
          1159.18430	         1.18643e+58
          1159.99060	         1.65455e+58
          1160.79690	         1.08703e+58
          1161.60320	         2.04467e+58
          1162.40950	         1.68772e+58
          1163.21580	         1.90136e+58
          1164.02210	         1.33903e+58
          1164.82840	         2.05066e+58
          1165.63470	         2.37928e+58
          1166.44100	         2.31974e+58
          1167.24730	         2.65738e+58
          1168.05360	         1.34914e+58
          1168.85990	         1.19643e+58
          1169.66620	         1.02097e+58
          1170.47250	         1.76975e+58
          1171.27880	         1.00230e+58
          1172.08510	         1.63797e+58
          1172.89140	         2.01197e+58
          1173.69770	         8.94861e+57
          1174.50400	         1.34386e+58
          1175.31030	         1.46998e+58
          1176.11660	         1.81811e+58
          1176.92290	         1.70946e+58
          1177.72920	         1.23551e+58
          1178.53550	         4.92678e+57
          1179.34180	         2.57451e+57
          1180.14810	         3.22568e+57
          1180.95440	         4.41693e+57
          1181.76070	         2.55433e+57
          1182.56700	         6.90616e+57
          1183.37330	         6.00089e+57
          1184.17960	         1.10548e+58
          1184.98590	         1.32667e+58
          1185.79220	         8.40070e+57
          1186.59850	         1.38534e+58
          1187.40480	         8.51886e+57
          1188.21110	         1.10581e+58
          1189.01740	         1.02101e+58
          1189.82370	         1.17353e+58
          1190.63000	         1.46620e+58
          1191.43630	         1.36408e+58
          1192.24260	         9.31469e+57
          1193.04890	         1.29877e+58
          1193.85520	         1.15369e+58
          1194.66150	         6.58625e+57
          1195.46780	         1.16293e+58
          1196.27410	         1.35656e+58
          1197.08040	         1.32722e+58
          1197.88670	         1.37779e+58
          1198.69300	         1.34914e+58
          1199.49930	         1.45407e+58
          1200.30560	         1.26050e+58
          1201.11190	         1.11120e+58
          1201.91820	         8.25360e+57
          1202.72450	         8.82284e+57
          1203.53080	         9.73195e+57
          1204.33710	         7.40833e+57
          1205.14340	         5.54646e+57
          1205.94970	         5.61941e+57
          1206.75600	         4.27065e+57
          1207.56230	         5.47740e+57
          1208.36860	         1.14601e+58
          1209.17490	         6.40602e+57
          1209.98120	         6.63179e+57
          1210.78750	         1.46877e+58
          1211.59380	         1.86698e+58
          1212.40010	         2.22530e+58
          1213.20640	         1.95133e+58
          1214.01270	         2.14998e+58
          1214.81900	         2.76452e+58
          1215.62530	         4.50348e+58
          1216.43160	         8.91733e+58
          1217.23790	         1.50007e+59
          1218.04420	         1.10314e+59
          1218.85050	         8.44607e+58
          1219.65680	         5.66499e+58
          1220.46310	         3.36570e+58
          1221.26940	         1.98437e+58
          1222.07570	         1.45645e+58
          1222.88200	         1.35655e+58
          1223.68830	         9.81751e+57
          1224.49460	         6.56525e+57
          1225.30090	         5.45159e+57
          1226.10720	         6.15318e+57
          1226.91350	         6.85551e+57
          1227.71980	         5.07775e+57
          1228.52610	         1.08061e+58
          1229.33240	         7.11622e+57
          1230.13870	         7.89352e+57
          1230.94500	         6.61832e+57
          1231.75130	         5.86156e+57
          1232.55760	         7.56014e+57
          1233.36390	         8.80457e+57
          1234.17020	         6.57291e+57
          1234.97650	         8.87586e+57
          1235.78280	         9.68966e+57
          1236.58910	         8.11743e+57
          1237.39540	         8.52364e+57
          1238.20170	         8.59334e+57
          1239.00800	         1.16175e+58
          1239.81430	         1.40412e+58
          1240.62060	         1.06857e+58
          1241.42690	         1.03442e+58
          1242.23320	         1.13805e+58
          1243.03950	         8.04300e+57
          1243.84580	         8.33388e+57
          1244.65210	         9.64353e+57
          1245.45840	         1.06488e+58
          1246.26470	         1.03449e+58
          1247.07100	         8.43963e+57
          1247.87730	         4.30282e+57
          1248.68360	         2.65778e+57
          1249.48990	         6.85165e+57
          1250.29620	         1.06989e+58
          1251.10250	         8.45406e+57
          1251.90880	         6.87752e+57
          1252.71510	         6.23618e+57
          1253.52140	         6.55198e+57
          1254.32770	         1.06142e+58
          1255.13400	         1.41273e+58
          1255.94030	         1.18088e+58
          1256.74660	         1.08007e+58
          1257.55290	         9.90867e+57
          1258.35920	         7.50189e+57
          1259.16550	         5.21899e+57
          1259.97180	         5.68269e+57
          1260.77810	         8.78533e+57
          1261.58440	         1.16864e+58
          1262.39070	         8.62383e+57
          1263.19700	         9.59099e+57
          1264.00330	         9.63534e+57
          1264.80960	         9.98404e+57
          1265.61590	         1.04561e+58
          1266.42220	         1.23072e+58
          1267.22850	         1.27963e+58
          1268.03480	         1.41349e+58
          1268.84110	         1.45440e+58
          1269.64740	         1.26147e+58
          1270.45370	         1.16105e+58
          1271.26000	         9.72924e+57
          1272.06630	         1.04777e+58
          1272.87260	         1.21900e+58
          1273.67890	         1.13760e+58
          1274.48520	         1.18688e+58
          1275.29150	         1.12052e+58
          1276.09780	         1.21285e+58
          1276.90410	         1.45709e+58
          1277.71040	         1.28311e+58
          1278.51670	         1.07474e+58
          1279.32300	         1.22766e+58
          1280.12930	         1.16091e+58
          1280.93560	         1.11986e+58
          1281.74190	         1.15694e+58
          1282.54820	         1.25676e+58
          1283.35450	         1.12921e+58
          1284.16080	         1.22495e+58
          1284.96710	         1.43507e+58
          1285.77340	         1.18212e+58
          1286.57970	         9.47297e+57
          1287.38600	         1.28241e+58
          1288.19230	         1.74378e+58
          1288.99860	         1.64830e+58
          1289.80490	         1.14977e+58
          1290.61120	         1.25025e+58
          1291.41750	         1.29178e+58
          1292.22380	         1.26087e+58
          1293.03010	         1.28044e+58
          1293.83640	         1.31313e+58
          1294.64270	         1.20442e+58
          1295.44900	         6.52000e+57
          1296.25530	         6.12074e+57
          1297.06160	         9.12301e+57
          1297.86790	         8.47123e+57
          1298.67420	         9.35002e+57
          1299.48050	         1.13556e+58
          1300.28680	         9.64376e+57
          1301.09310	         8.52889e+57
          1301.89940	         4.82119e+57
          1302.70570	         7.18700e+57
          1303.51200	         8.37891e+57
          1304.31830	         9.48714e+57
          1305.12460	         9.99768e+57
          1305.93090	         9.75673e+57
          1306.73720	         1.08885e+58
          1307.54350	         1.38562e+58
          1308.34980	         1.40994e+58
          1309.15610	         1.64623e+58
          1309.96240	         1.61968e+58
          1310.76870	         1.09925e+58
          1311.57500	         1.02403e+58
          1312.38130	         1.02453e+58
          1313.18760	         1.06006e+58
          1313.99390	         1.50318e+58
          1314.80020	         1.62290e+58
          1315.60650	         1.50085e+58
          1316.41280	         1.39543e+58
          1317.21910	         1.26797e+58
          1318.02540	         1.30681e+58
          1318.83170	         1.26021e+58
          1319.63800	         1.06421e+58
          1320.44430	         1.09331e+58
          1321.25060	         1.34617e+58
          1322.05690	         1.32421e+58
          1322.86320	         1.26744e+58
          1323.66950	         1.17706e+58
          1324.47580	         1.00362e+58
          1325.28210	         1.12234e+58
          1326.08840	         1.20604e+58
          1326.89470	         1.18692e+58
          1327.70100	         1.04420e+58
          1328.50730	         8.28716e+57
          1329.31360	         1.06632e+58
          1330.11990	         9.93625e+57
          1330.92620	         8.42276e+57
          1331.73250	         1.18819e+58
          1332.53880	         1.26283e+58
          1333.34510	         9.84398e+57
          1334.15140	         8.71721e+57
          1334.95770	         9.77068e+57
          1335.76400	         1.04683e+58
          1336.57030	         1.05569e+58
          1337.37660	         1.10730e+58
          1338.18290	         1.08454e+58
          1338.98920	         1.18069e+58
          1339.79550	         1.29106e+58
          1340.60180	         1.16337e+58
          1341.40810	         1.41458e+58
          1342.21440	         1.23708e+58
          1343.02070	         1.20109e+58
          1343.82700	         1.48473e+58
          1344.63330	         1.29732e+58
          1345.43960	         1.16702e+58
          1346.24590	         1.13811e+58
          1347.05220	         1.28797e+58
          1347.85850	         9.80215e+57
          1348.66480	         1.06470e+58
          1349.47110	         1.35291e+58
          1350.27740	         1.24326e+58
          1351.08370	         1.09712e+58
          1351.89000	         1.09019e+58
          1352.69630	         1.14296e+58
          1353.50260	         1.22261e+58
          1354.30890	         1.19151e+58
          1355.11520	         1.13954e+58
          1355.92150	         1.00392e+58
          1356.72780	         1.00517e+58
          1357.53410	         1.04878e+58
          1358.34040	         1.13432e+58
          1359.14670	         1.05306e+58
          1359.95300	         1.11230e+58
          1360.75930	         1.18839e+58
          1361.56560	         1.09605e+58
          1362.37190	         1.11007e+58
          1363.17820	         9.81851e+57
          1363.98450	         1.06645e+58
          1364.79080	         1.24893e+58
          1365.59710	         1.21638e+58
          1366.40340	         9.91972e+57
          1367.20970	         8.99992e+57
          1368.01600	         7.51089e+57
          1368.82230	         9.11741e+57
          1369.62860	         1.06651e+58
          1370.43490	         1.01193e+58
          1371.24120	         9.12893e+57
          1372.04750	         7.49100e+57
          1372.85380	         9.41392e+57
          1373.66010	         1.09949e+58
          1374.46640	         1.00094e+58
          1375.27270	         1.10573e+58
          1376.07900	         8.93740e+57
          1376.88530	         8.88895e+57
          1377.69160	         1.00220e+58
          1378.49790	         8.11247e+57
          1379.30420	         7.94064e+57
          1380.11050	         1.01987e+58
          1380.91680	         9.34520e+57
          1381.72310	         8.00225e+57
          1382.52940	         8.15996e+57
          1383.33570	         8.32617e+57
          1384.14200	         9.24570e+57
          1384.94830	         1.06397e+58
          1385.75460	         1.04876e+58
          1386.56090	         1.04834e+58
          1387.36720	         1.11884e+58
          1388.17350	         1.29994e+58
          1388.97980	         1.19919e+58
          1389.78610	         7.95571e+57
          1390.59240	         7.32990e+57
          1391.39870	         7.66826e+57
          1392.20500	         6.92121e+57
          1393.01130	         8.14317e+57
          1393.81760	         8.60753e+57
          1394.62390	         8.57217e+57
          1395.43020	         7.14417e+57
          1396.23650	         7.04621e+57
          1397.04280	         7.65569e+57
          1397.84910	         7.84059e+57
          1398.65540	         7.94021e+57
          1399.46170	         9.20849e+57
          1400.26800	         8.20380e+57
          1401.07430	         8.42764e+57
          1401.88060	         8.98394e+57
          1402.68690	         9.42821e+57
          1403.49320	         9.97245e+57
          1404.29950	         9.36570e+57
          1405.10580	         9.57469e+57
          1405.91210	         1.13955e+58
          1406.71840	         1.06231e+58
          1407.52470	         1.06873e+58
          1408.33100	         1.03649e+58
          1409.13730	         1.09674e+58
          1409.94360	         1.19402e+58
          1410.74990	         1.10464e+58
          1411.55620	         9.87971e+57
          1412.36250	         8.99701e+57
          1413.16880	         7.87753e+57
          1413.97510	         8.00781e+57
          1414.78140	         8.36130e+57
          1415.58770	         9.80539e+57
          1416.39400	         1.09373e+58
          1417.20030	         1.15629e+58
          1418.00660	         1.02826e+58
          1418.81290	         1.00389e+58
          1419.61920	         9.46450e+57
          1420.42550	         1.19458e+58
          1421.23180	         1.27407e+58
          1422.03810	         1.16339e+58
          1422.84440	         1.01475e+58
          1423.65070	         1.14945e+58
          1424.45700	         1.16943e+58
          1425.26330	         9.12308e+57
          1426.06960	         9.04982e+57
          1426.87590	         9.90543e+57
          1427.68220	         1.06825e+58
          1428.48850	         1.15271e+58
          1429.29480	         1.07701e+58
          1430.10110	         9.49750e+57
          1430.90740	         9.03440e+57
          1431.71370	         9.39104e+57
          1432.52000	         8.35764e+57
          1433.32630	         7.53284e+57
          1434.13260	         8.03252e+57
          1434.93890	         8.15299e+57
          1435.74520	         8.58541e+57
          1436.55150	         9.51409e+57
          1437.35780	         9.59356e+57
          1438.16410	         9.64762e+57
          1438.97040	         9.07771e+57
          1439.77670	         8.40876e+57
          1440.58300	         9.07602e+57
          1441.38930	         1.01360e+58
          1442.19560	         9.68552e+57
          1443.00190	         9.24249e+57
          1443.80820	         1.08288e+58
          1444.61450	         1.01596e+58
          1445.42080	         9.67540e+57
          1446.22710	         1.13721e+58
          1447.03340	         1.09745e+58
          1447.83970	         1.05135e+58
          1448.64600	         1.05752e+58
          1449.45230	         1.02401e+58
          1450.25860	         1.00348e+58
          1451.06490	         9.71172e+57
          1451.87120	         8.51166e+57
          1452.67750	         7.45234e+57
          1453.48380	         8.24877e+57
          1454.29010	         7.36603e+57
          1455.09640	         7.87314e+57
          1455.90270	         8.98885e+57
          1456.70900	         8.39113e+57
          1457.51530	         9.60947e+57
          1458.32160	         1.17407e+58
          1459.12790	         1.11518e+58
          1459.93420	         9.42947e+57
          1460.74050	         7.82203e+57
          1461.54680	         7.58691e+57
          1462.35310	         7.56920e+57
          1463.15940	         9.83241e+57
          1463.96570	         1.15461e+58
          1464.77200	         1.23794e+58
          1465.57830	         1.09886e+58
          1466.38460	         8.58856e+57
          1467.19090	         8.62814e+57
          1467.99720	         8.57673e+57
          1468.80350	         9.16566e+57
          1469.60980	         9.65475e+57
          1470.41610	         1.03245e+58
          1471.22240	         1.06529e+58
          1472.02870	         1.09526e+58
          1472.83500	         1.00040e+58
          1473.64130	         9.19058e+57
          1474.44760	         9.04305e+57
          1475.25390	         8.60827e+57
          1476.06020	         9.14745e+57
          1476.86650	         8.80856e+57
          1477.67280	         8.36600e+57
          1478.47910	         7.79873e+57
          1479.28540	         8.13699e+57
          1480.09170	         9.52928e+57
          1480.89800	         8.83105e+57
          1481.70430	         8.49770e+57
          1482.51060	         8.58671e+57
          1483.31690	         8.50875e+57
          1484.12320	         7.50824e+57
          1484.92950	         8.52306e+57
          1485.73580	         9.91054e+57
          1486.54210	         9.65740e+57
          1487.34840	         8.92719e+57
          1488.15470	         8.37581e+57
          1488.96100	         8.24071e+57
          1489.76730	         8.23644e+57
