#sample_327_stacked_spectrum_rest_UV-bands_median_H-alpha_noDC.txt
#median Lum: 1.70020e+42
#Rest-frame wavelength (A) | Luminosity (erg/s/A)
#
          1110.00000	         0.00000e+00
          1110.80630	        -2.40612e+59
          1111.61260	         3.31867e+59
          1112.41890	         4.00238e+59
          1113.22520	         4.23869e+58
          1114.03150	        -2.15136e+57
          1114.83780	         2.55384e+59
          1115.64410	         7.14073e+58
          1116.45040	        -1.05603e+58
          1117.25670	         9.37825e+58
          1118.06300	         9.93761e+58
          1118.86930	         6.08839e+58
          1119.67560	         9.66958e+58
          1120.48190	         3.06854e+57
          1121.28820	        -2.72220e+58
          1122.09450	         8.20103e+58
          1122.90080	         1.20781e+58
          1123.70710	         6.82491e+58
          1124.51340	         7.49787e+58
          1125.31970	         1.43202e+58
          1126.12600	         3.86752e+58
          1126.93230	         1.34918e+58
          1127.73860	        -1.89727e+57
          1128.54490	         1.27324e+58
          1129.35120	        -1.49615e+58
          1130.15750	        -5.35456e+58
          1130.96380	        -1.03969e+58
          1131.77010	         5.63351e+58
          1132.57640	         2.27214e+58
          1133.38270	         1.94890e+58
          1134.18900	         6.97014e+57
          1134.99530	         1.34775e+58
          1135.80160	         5.69865e+57
          1136.60790	        -3.97410e+57
          1137.41420	        -9.82560e+57
          1138.22050	         3.71221e+58
          1139.02680	         3.42926e+58
          1139.83310	         7.28688e+57
          1140.63940	         3.20266e+58
          1141.44570	        -1.14987e+58
          1142.25200	        -3.55205e+56
          1143.05830	         2.19523e+58
          1143.86460	         2.36159e+58
          1144.67090	         2.35802e+58
          1145.47720	         2.24388e+58
          1146.28350	         1.19030e+57
          1147.08980	         5.36353e+57
          1147.89610	         7.99044e+57
          1148.70240	         1.66623e+58
          1149.50870	         1.78023e+58
          1150.31500	         1.68707e+58
          1151.12130	         1.59902e+58
          1151.92760	         1.35405e+58
          1152.73390	        -7.18742e+57
          1153.54020	         2.68334e+56
          1154.34650	         2.06495e+58
          1155.15280	         2.08558e+58
          1155.95910	         2.66004e+57
          1156.76540	         1.07168e+58
          1157.57170	         8.19427e+57
          1158.37800	        -2.57028e+57
          1159.18430	        -8.28981e+56
          1159.99060	         2.04912e+57
          1160.79690	         1.97621e+57
          1161.60320	         9.73405e+57
          1162.40950	         1.63992e+58
          1163.21580	         8.60504e+57
          1164.02210	         1.00022e+58
          1164.82840	         1.15344e+58
          1165.63470	         2.53386e+58
          1166.44100	         3.58777e+58
          1167.24730	         2.33382e+58
          1168.05360	         9.46581e+57
          1168.85990	         1.15951e+58
          1169.66620	         8.14818e+57
          1170.47250	         1.00285e+58
          1171.27880	         8.33231e+57
          1172.08510	         1.54323e+58
          1172.89140	         1.53415e+58
          1173.69770	         5.75516e+57
          1174.50400	         9.91135e+57
          1175.31030	         8.77500e+57
          1176.11660	         1.02476e+58
          1176.92290	         1.12925e+58
          1177.72920	         8.39181e+57
          1178.53550	         9.86408e+57
          1179.34180	         9.24629e+57
          1180.14810	         4.61480e+57
          1180.95440	         3.68624e+57
          1181.76070	         2.92144e+57
          1182.56700	         6.13477e+57
          1183.37330	         3.90512e+57
          1184.17960	         9.45542e+57
          1184.98590	         1.26469e+58
          1185.79220	         6.30043e+57
          1186.59850	         7.20014e+57
          1187.40480	         8.60390e+57
          1188.21110	         9.12003e+57
          1189.01740	         1.03486e+58
          1189.82370	         8.75718e+57
          1190.63000	         7.65689e+57
          1191.43630	         1.07132e+58
          1192.24260	         6.61935e+57
          1193.04890	         1.33117e+58
          1193.85520	         9.50665e+57
          1194.66150	         7.74987e+57
          1195.46780	         1.27060e+58
          1196.27410	         1.80826e+58
          1197.08040	         1.52880e+58
          1197.88670	         1.55331e+58
          1198.69300	         1.56334e+58
          1199.49930	         1.49783e+58
          1200.30560	         1.33975e+58
          1201.11190	         1.16298e+58
          1201.91820	         9.85098e+57
          1202.72450	         5.59565e+57
          1203.53080	         1.35743e+58
          1204.33710	         1.01130e+58
          1205.14340	         5.82296e+57
          1205.94970	         6.72461e+57
          1206.75600	         9.39713e+57
          1207.56230	         1.04220e+58
          1208.36860	         1.07096e+58
          1209.17490	         7.81329e+57
          1209.98120	         9.83869e+57
          1210.78750	         8.30522e+57
          1211.59380	         1.20699e+58
          1212.40010	         1.45199e+58
          1213.20640	         1.74341e+58
          1214.01270	         1.86216e+58
          1214.81900	         2.55102e+58
          1215.62530	         4.79200e+58
          1216.43160	         8.98146e+58
          1217.23790	         1.51724e+59
          1218.04420	         1.15273e+59
          1218.85050	         8.40241e+58
          1219.65680	         5.61053e+58
          1220.46310	         3.11148e+58
          1221.26940	         2.15936e+58
          1222.07570	         1.32049e+58
          1222.88200	         9.78757e+57
          1223.68830	         1.03447e+58
          1224.49460	         9.32084e+57
          1225.30090	         7.88197e+57
          1226.10720	         7.69616e+57
          1226.91350	         8.03467e+57
          1227.71980	         6.98753e+57
          1228.52610	         1.34011e+58
          1229.33240	         8.70401e+57
          1230.13870	         8.56567e+57
          1230.94500	         6.66168e+57
          1231.75130	         6.52939e+57
          1232.55760	         6.35133e+57
          1233.36390	         8.99006e+57
          1234.17020	         8.17429e+57
          1234.97650	         7.30972e+57
          1235.78280	         6.91697e+57
          1236.58910	         7.61843e+57
          1237.39540	         1.07180e+58
          1238.20170	         1.10019e+58
          1239.00800	         1.16662e+58
          1239.81430	         1.24823e+58
          1240.62060	         9.41052e+57
          1241.42690	         1.06588e+58
          1242.23320	         1.38888e+58
          1243.03950	         1.00386e+58
          1243.84580	         9.63039e+57
          1244.65210	         1.07719e+58
          1245.45840	         7.00967e+57
          1246.26470	         6.71625e+57
          1247.07100	         7.57492e+57
          1247.87730	         6.24674e+57
          1248.68360	         8.97525e+57
          1249.48990	         8.66113e+57
          1250.29620	         7.78388e+57
          1251.10250	         7.49437e+57
          1251.90880	         3.31753e+57
          1252.71510	         5.10935e+57
          1253.52140	         8.02147e+57
          1254.32770	         9.22563e+57
          1255.13400	         1.18207e+58
          1255.94030	         1.07506e+58
          1256.74660	         1.08405e+58
          1257.55290	         1.32660e+58
          1258.35920	         1.06142e+58
          1259.16550	         5.25964e+57
          1259.97180	         5.21624e+57
          1260.77810	         7.56956e+57
          1261.58440	         1.05671e+58
          1262.39070	         9.86910e+57
          1263.19700	         8.65586e+57
          1264.00330	         9.12158e+57
          1264.80960	         1.10562e+58
          1265.61590	         1.18662e+58
          1266.42220	         1.07353e+58
          1267.22850	         1.15803e+58
          1268.03480	         1.52103e+58
          1268.84110	         1.67681e+58
          1269.64740	         1.27128e+58
          1270.45370	         1.21909e+58
          1271.26000	         1.14332e+58
          1272.06630	         1.06616e+58
          1272.87260	         1.33935e+58
          1273.67890	         1.38521e+58
          1274.48520	         1.28963e+58
          1275.29150	         1.13856e+58
          1276.09780	         1.12293e+58
          1276.90410	         1.52216e+58
          1277.71040	         1.39061e+58
          1278.51670	         1.28147e+58
          1279.32300	         1.39644e+58
          1280.12930	         1.19127e+58
          1280.93560	         1.08630e+58
          1281.74190	         1.25855e+58
          1282.54820	         1.26047e+58
          1283.35450	         1.06773e+58
          1284.16080	         1.15044e+58
          1284.96710	         1.37978e+58
          1285.77340	         9.45753e+57
          1286.57970	         9.43360e+57
          1287.38600	         1.62029e+58
          1288.19230	         1.87203e+58
          1288.99860	         1.58941e+58
          1289.80490	         1.22601e+58
          1290.61120	         1.32615e+58
          1291.41750	         1.33911e+58
          1292.22380	         1.06814e+58
          1293.03010	         1.24595e+58
          1293.83640	         1.30534e+58
          1294.64270	         9.28449e+57
          1295.44900	         6.87292e+57
          1296.25530	         7.41049e+57
          1297.06160	         1.12674e+58
          1297.86790	         1.24605e+58
          1298.67420	         9.71324e+57
          1299.48050	         1.04456e+58
          1300.28680	         1.09537e+58
          1301.09310	         7.65998e+57
          1301.89940	         4.83450e+57
          1302.70570	         6.19885e+57
          1303.51200	         6.71970e+57
          1304.31830	         9.60439e+57
          1305.12460	         1.25914e+58
          1305.93090	         1.19046e+58
          1306.73720	         1.26939e+58
          1307.54350	         1.47213e+58
          1308.34980	         1.56752e+58
          1309.15610	         1.79731e+58
          1309.96240	         1.65623e+58
          1310.76870	         1.33654e+58
          1311.57500	         1.29147e+58
          1312.38130	         1.25783e+58
          1313.18760	         1.48425e+58
          1313.99390	         1.41177e+58
          1314.80020	         1.35375e+58
          1315.60650	         1.38723e+58
          1316.41280	         1.39475e+58
          1317.21910	         1.26054e+58
          1318.02540	         1.24451e+58
          1318.83170	         1.25303e+58
          1319.63800	         1.19502e+58
          1320.44430	         1.27088e+58
          1321.25060	         1.19470e+58
          1322.05690	         1.19906e+58
          1322.86320	         1.11490e+58
          1323.66950	         9.73469e+57
          1324.47580	         8.64969e+57
          1325.28210	         9.96885e+57
          1326.08840	         1.24061e+58
          1326.89470	         1.24241e+58
          1327.70100	         9.81438e+57
          1328.50730	         8.64853e+57
          1329.31360	         8.76663e+57
          1330.11990	         9.50104e+57
          1330.92620	         9.36526e+57
          1331.73250	         1.10724e+58
          1332.53880	         1.02221e+58
          1333.34510	         8.99619e+57
          1334.15140	         9.20813e+57
          1334.95770	         9.21404e+57
          1335.76400	         1.07665e+58
          1336.57030	         1.16818e+58
          1337.37660	         1.05370e+58
          1338.18290	         1.03248e+58
          1338.98920	         1.13226e+58
          1339.79550	         1.02226e+58
          1340.60180	         1.16710e+58
          1341.40810	         1.36841e+58
          1342.21440	         1.11772e+58
          1343.02070	         1.32278e+58
          1343.82700	         1.53144e+58
          1344.63330	         1.32301e+58
          1345.43960	         1.48545e+58
          1346.24590	         1.10994e+58
          1347.05220	         9.90485e+57
          1347.85850	         1.13426e+58
          1348.66480	         1.01680e+58
          1349.47110	         1.11263e+58
          1350.27740	         1.10509e+58
          1351.08370	         1.05943e+58
          1351.89000	         1.00112e+58
          1352.69630	         1.11131e+58
          1353.50260	         1.13507e+58
          1354.30890	         1.20630e+58
          1355.11520	         1.17984e+58
          1355.92150	         9.87214e+57
          1356.72780	         8.27006e+57
          1357.53410	         9.41598e+57
          1358.34040	         1.05334e+58
          1359.14670	         1.01128e+58
          1359.95300	         1.07314e+58
          1360.75930	         1.06331e+58
          1361.56560	         1.00199e+58
          1362.37190	         1.06260e+58
          1363.17820	         1.08088e+58
          1363.98450	         1.10787e+58
          1364.79080	         1.18099e+58
          1365.59710	         1.16739e+58
          1366.40340	         9.85371e+57
          1367.20970	         9.03618e+57
          1368.01600	         9.73690e+57
          1368.82230	         9.45982e+57
          1369.62860	         1.02375e+58
          1370.43490	         1.03613e+58
          1371.24120	         9.85827e+57
          1372.04750	         9.27185e+57
          1372.85380	         1.11602e+58
          1373.66010	         1.21150e+58
          1374.46640	         1.12215e+58
          1375.27270	         1.11378e+58
          1376.07900	         9.56873e+57
          1376.88530	         8.45861e+57
          1377.69160	         9.24354e+57
          1378.49790	         8.76235e+57
          1379.30420	         8.33880e+57
          1380.11050	         9.80049e+57
          1380.91680	         8.69058e+57
          1381.72310	         8.91581e+57
          1382.52940	         9.73860e+57
          1383.33570	         7.96592e+57
          1384.14200	         9.24048e+57
          1384.94830	         1.19609e+58
          1385.75460	         1.05569e+58
          1386.56090	         1.17879e+58
          1387.36720	         1.14096e+58
          1388.17350	         1.22902e+58
          1388.97980	         1.06447e+58
          1389.78610	         8.36112e+57
          1390.59240	         7.79069e+57
          1391.39870	         7.69137e+57
          1392.20500	         7.90782e+57
          1393.01130	         7.66801e+57
          1393.81760	         8.08679e+57
          1394.62390	         7.91525e+57
          1395.43020	         6.79708e+57
          1396.23650	         6.53099e+57
          1397.04280	         8.87636e+57
          1397.84910	         8.69388e+57
          1398.65540	         9.04293e+57
          1399.46170	         8.99963e+57
          1400.26800	         7.37492e+57
          1401.07430	         8.05282e+57
          1401.88060	         7.94446e+57
          1402.68690	         8.92317e+57
          1403.49320	         9.51695e+57
          1404.29950	         9.56900e+57
          1405.10580	         1.01299e+58
          1405.91210	         1.14376e+58
          1406.71840	         1.17901e+58
          1407.52470	         9.94630e+57
          1408.33100	         8.93197e+57
          1409.13730	         9.90725e+57
          1409.94360	         1.07191e+58
          1410.74990	         1.09136e+58
          1411.55620	         1.06957e+58
          1412.36250	         9.50768e+57
          1413.16880	         8.56953e+57
          1413.97510	         8.49201e+57
          1414.78140	         8.79950e+57
          1415.58770	         1.00521e+58
          1416.39400	         1.10003e+58
          1417.20030	         1.10553e+58
          1418.00660	         9.83986e+57
          1418.81290	         1.02785e+58
          1419.61920	         1.05706e+58
          1420.42550	         1.20524e+58
          1421.23180	         1.35111e+58
          1422.03810	         1.27683e+58
          1422.84440	         1.15553e+58
          1423.65070	         1.42649e+58
          1424.45700	         1.17227e+58
          1425.26330	         7.68884e+57
          1426.06960	         7.97659e+57
          1426.87590	         1.09468e+58
          1427.68220	         1.06088e+58
          1428.48850	         1.02812e+58
          1429.29480	         1.06480e+58
          1430.10110	         1.00706e+58
          1430.90740	         8.57060e+57
          1431.71370	         8.65806e+57
          1432.52000	         9.18500e+57
          1433.32630	         7.73744e+57
          1434.13260	         7.04656e+57
          1434.93890	         7.86333e+57
          1435.74520	         9.13522e+57
          1436.55150	         8.28971e+57
          1437.35780	         7.79648e+57
          1438.16410	         9.81916e+57
          1438.97040	         9.43100e+57
          1439.77670	         9.27080e+57
          1440.58300	         1.01905e+58
          1441.38930	         9.93291e+57
          1442.19560	         1.04106e+58
          1443.00190	         9.53914e+57
          1443.80820	         1.04636e+58
          1444.61450	         8.75750e+57
          1445.42080	         8.11893e+57
          1446.22710	         1.04912e+58
          1447.03340	         1.04880e+58
          1447.83970	         1.09026e+58
          1448.64600	         1.02808e+58
          1449.45230	         9.39503e+57
          1450.25860	         9.60576e+57
          1451.06490	         8.61753e+57
          1451.87120	         7.80948e+57
          1452.67750	         7.68747e+57
          1453.48380	         9.67906e+57
          1454.29010	         8.25404e+57
          1455.09640	         7.63203e+57
          1455.90270	         8.76604e+57
          1456.70900	         8.57918e+57
          1457.51530	         9.62049e+57
          1458.32160	         1.19309e+58
          1459.12790	         1.21801e+58
          1459.93420	         1.15685e+58
          1460.74050	         9.33076e+57
          1461.54680	         9.31121e+57
          1462.35310	         8.19159e+57
          1463.15940	         9.59236e+57
          1463.96570	         1.18917e+58
          1464.77200	         1.23104e+58
          1465.57830	         1.04196e+58
          1466.38460	         8.59733e+57
          1467.19090	         7.92375e+57
          1467.99720	         8.07569e+57
          1468.80350	         8.47395e+57
          1469.60980	         9.58533e+57
          1470.41610	         1.15409e+58
          1471.22240	         1.08204e+58
          1472.02870	         1.05365e+58
          1472.83500	         1.05562e+58
          1473.64130	         1.05556e+58
          1474.44760	         9.55106e+57
          1475.25390	         9.59113e+57
          1476.06020	         8.57438e+57
          1476.86650	         8.91234e+57
          1477.67280	         9.44012e+57
          1478.47910	         7.84931e+57
          1479.28540	         7.37258e+57
          1480.09170	         8.48040e+57
          1480.89800	         8.82539e+57
          1481.70430	         9.20192e+57
          1482.51060	         8.51250e+57
          1483.31690	         8.18597e+57
          1484.12320	         8.84645e+57
          1484.92950	         7.91573e+57
          1485.73580	         9.40543e+57
          1486.54210	         9.57143e+57
          1487.34840	         8.60931e+57
          1488.15470	         9.14156e+57
          1488.96100	         8.81413e+57
          1489.76730	         8.65632e+57
