#sample_399_stacked_spectrum_rest_UV-bands_median_H-alpha_noDC.txt
#median Lum: 1.72069e+42
#Rest-frame wavelength (A) | Luminosity (erg/s/A)
#
          1110.00000	         0.00000e+00
          1110.80630	         9.98458e+58
          1111.61260	         8.55221e+58
          1112.41890	         1.74382e+59
          1113.22520	         1.51777e+59
          1114.03150	        -8.82598e+57
          1114.83780	         2.15058e+59
          1115.64410	         1.78527e+59
          1116.45040	         2.66627e+59
          1117.25670	        -1.22098e+59
          1118.06300	         7.18628e+58
          1118.86930	         4.47718e+58
          1119.67560	         1.53070e+59
          1120.48190	         5.93348e+58
          1121.28820	        -1.47848e+59
          1122.09450	        -4.48043e+58
          1122.90080	         2.37982e+58
          1123.70710	         1.60590e+58
          1124.51340	        -1.36512e+58
          1125.31970	        -4.03891e+58
          1126.12600	         2.12655e+57
          1126.93230	        -2.97210e+58
          1127.73860	        -1.59838e+57
          1128.54490	         3.18808e+58
          1129.35120	        -2.27506e+57
          1130.15750	        -3.83254e+58
          1130.96380	        -4.65381e+58
          1131.77010	        -5.39694e+57
          1132.57640	         8.85644e+57
          1133.38270	         2.28963e+58
          1134.18900	         9.96808e+57
          1134.99530	         6.06971e+57
          1135.80160	         6.65145e+57
          1136.60790	        -3.57655e+57
          1137.41420	         5.87768e+57
          1138.22050	         1.52971e+58
          1139.02680	         2.01611e+58
          1139.83310	         8.51708e+57
          1140.63940	        -2.37752e+57
          1141.44570	        -1.68833e+58
          1142.25200	        -5.07457e+57
          1143.05830	         7.58712e+57
          1143.86460	         8.12549e+57
          1144.67090	         2.07327e+58
          1145.47720	         2.13206e+58
          1146.28350	         2.11518e+58
          1147.08980	         2.00982e+58
          1147.89610	         1.67557e+58
          1148.70240	         1.88158e+58
          1149.50870	         2.42062e+58
          1150.31500	         1.78399e+58
          1151.12130	         4.20884e+57
          1151.92760	        -3.06427e+57
          1152.73390	         2.03983e+57
          1153.54020	         4.49751e+57
          1154.34650	         2.34175e+58
          1155.15280	         1.19464e+58
          1155.95910	         8.66269e+57
          1156.76540	        -1.30251e+57
          1157.57170	        -3.81893e+57
          1158.37800	        -5.53187e+57
          1159.18430	        -8.25599e+57
          1159.99060	        -5.50096e+56
          1160.79690	         1.01059e+57
          1161.60320	         1.02635e+58
          1162.40950	         1.05582e+58
          1163.21580	         2.23286e+58
          1164.02210	         9.20456e+57
          1164.82840	         3.10926e+57
          1165.63470	         1.89107e+58
          1166.44100	         2.86521e+58
          1167.24730	         1.91700e+58
          1168.05360	         1.17190e+58
          1168.85990	         3.65999e+57
          1169.66620	         3.94157e+57
          1170.47250	         1.26520e+58
          1171.27880	         1.66345e+58
          1172.08510	         1.40028e+58
          1172.89140	         4.18781e+57
          1173.69770	         1.46123e+58
          1174.50400	         8.41022e+57
          1175.31030	         1.33874e+58
          1176.11660	         1.72539e+58
          1176.92290	         1.48419e+58
          1177.72920	         8.80703e+57
          1178.53550	         6.97597e+57
          1179.34180	         4.86532e+57
          1180.14810	         8.30817e+57
          1180.95440	         7.40912e+57
          1181.76070	        -5.86423e+55
          1182.56700	         7.47815e+57
          1183.37330	         9.00698e+57
          1184.17960	         1.11671e+58
          1184.98590	         1.01507e+58
          1185.79220	         8.39433e+57
          1186.59850	         8.58208e+57
          1187.40480	         7.44961e+57
          1188.21110	         1.26488e+58
          1189.01740	         1.33444e+58
          1189.82370	         1.36044e+58
          1190.63000	         1.25154e+58
          1191.43630	         1.46160e+58
          1192.24260	         9.79146e+57
          1193.04890	         1.17753e+58
          1193.85520	         8.07303e+57
          1194.66150	         3.34678e+57
          1195.46780	         7.69211e+57
          1196.27410	         1.98620e+58
          1197.08040	         1.13341e+58
          1197.88670	         1.14785e+58
          1198.69300	         1.29811e+58
          1199.49930	         1.41365e+58
          1200.30560	         9.60678e+57
          1201.11190	         1.04433e+58
          1201.91820	         1.06092e+58
          1202.72450	         7.68832e+57
          1203.53080	         1.50861e+58
          1204.33710	         1.44404e+58
          1205.14340	         7.49009e+57
          1205.94970	         7.30707e+57
          1206.75600	         1.00495e+58
          1207.56230	         4.81497e+57
          1208.36860	         7.88243e+57
          1209.17490	         4.21646e+57
          1209.98120	         6.27982e+57
          1210.78750	         8.82036e+57
          1211.59380	         1.01433e+58
          1212.40010	         1.63034e+58
          1213.20640	         2.07405e+58
          1214.01270	         2.22311e+58
          1214.81900	         2.86036e+58
          1215.62530	         4.62561e+58
          1216.43160	         9.22093e+58
          1217.23790	         1.51381e+59
          1218.04420	         1.14418e+59
          1218.85050	         8.81809e+58
          1219.65680	         5.54584e+58
          1220.46310	         3.04552e+58
          1221.26940	         2.28590e+58
          1222.07570	         1.39148e+58
          1222.88200	         9.62178e+57
          1223.68830	         9.43863e+57
          1224.49460	         6.72055e+57
          1225.30090	         7.04914e+57
          1226.10720	         7.41469e+57
          1226.91350	         5.82688e+57
          1227.71980	         8.59495e+57
          1228.52610	         1.21734e+58
          1229.33240	         8.19792e+57
          1230.13870	         8.81916e+57
          1230.94500	         1.05570e+58
          1231.75130	         7.42412e+57
          1232.55760	         9.46009e+57
          1233.36390	         8.75163e+57
          1234.17020	         7.81740e+57
          1234.97650	         6.06920e+57
          1235.78280	         4.63972e+57
          1236.58910	         8.89300e+57
          1237.39540	         1.23200e+58
          1238.20170	         8.57631e+57
          1239.00800	         9.23840e+57
          1239.81430	         1.24697e+58
          1240.62060	         1.11722e+58
          1241.42690	         9.27671e+57
          1242.23320	         1.14765e+58
          1243.03950	         8.54877e+57
          1243.84580	         8.42302e+57
          1244.65210	         1.05025e+58
          1245.45840	         9.04015e+57
          1246.26470	         6.39491e+57
          1247.07100	         7.52122e+57
          1247.87730	         7.01363e+57
          1248.68360	         5.87820e+57
          1249.48990	         7.73551e+57
          1250.29620	         4.67574e+57
          1251.10250	         5.21902e+57
          1251.90880	         5.55917e+57
          1252.71510	         6.11923e+57
          1253.52140	         7.25823e+57
          1254.32770	         7.95221e+57
          1255.13400	         1.16300e+58
          1255.94030	         1.34097e+58
          1256.74660	         1.15098e+58
          1257.55290	         1.02935e+58
          1258.35920	         8.36907e+57
          1259.16550	         5.12670e+57
          1259.97180	         3.50349e+57
          1260.77810	         6.28735e+57
          1261.58440	         1.01442e+58
          1262.39070	         9.38425e+57
          1263.19700	         8.25873e+57
          1264.00330	         9.23004e+57
          1264.80960	         1.05645e+58
          1265.61590	         1.21396e+58
          1266.42220	         1.11500e+58
          1267.22850	         1.01481e+58
          1268.03480	         1.32352e+58
          1268.84110	         1.53217e+58
          1269.64740	         1.25865e+58
          1270.45370	         1.08711e+58
          1271.26000	         1.18377e+58
          1272.06630	         1.21851e+58
          1272.87260	         1.45121e+58
          1273.67890	         1.39870e+58
          1274.48520	         1.12856e+58
          1275.29150	         1.27799e+58
          1276.09780	         1.27416e+58
          1276.90410	         1.49041e+58
          1277.71040	         1.34172e+58
          1278.51670	         1.09576e+58
          1279.32300	         1.21011e+58
          1280.12930	         1.19175e+58
          1280.93560	         1.07394e+58
          1281.74190	         1.00418e+58
          1282.54820	         1.19093e+58
          1283.35450	         1.06993e+58
          1284.16080	         9.69973e+57
          1284.96710	         1.12351e+58
          1285.77340	         1.26641e+58
          1286.57970	         1.02870e+58
          1287.38600	         1.39922e+58
          1288.19230	         1.88503e+58
          1288.99860	         1.70024e+58
          1289.80490	         1.20770e+58
          1290.61120	         1.42863e+58
          1291.41750	         1.55673e+58
          1292.22380	         1.34926e+58
          1293.03010	         1.09153e+58
          1293.83640	         1.15744e+58
          1294.64270	         1.04673e+58
          1295.44900	         4.47624e+57
          1296.25530	         4.33229e+57
          1297.06160	         8.43426e+57
          1297.86790	         1.02788e+58
          1298.67420	         8.26701e+57
          1299.48050	         7.70318e+57
          1300.28680	         9.57844e+57
          1301.09310	         8.34333e+57
          1301.89940	         3.10317e+57
          1302.70570	         5.92671e+57
          1303.51200	         7.50135e+57
          1304.31830	         1.03241e+58
          1305.12460	         1.14684e+58
          1305.93090	         1.06490e+58
          1306.73720	         1.16634e+58
          1307.54350	         1.48735e+58
          1308.34980	         1.62963e+58
          1309.15610	         1.54629e+58
          1309.96240	         1.48645e+58
          1310.76870	         1.06530e+58
          1311.57500	         8.53567e+57
          1312.38130	         1.26176e+58
          1313.18760	         1.31684e+58
          1313.99390	         1.53074e+58
          1314.80020	         1.73447e+58
          1315.60650	         1.67721e+58
          1316.41280	         1.39091e+58
          1317.21910	         1.18279e+58
          1318.02540	         1.33063e+58
          1318.83170	         1.50143e+58
          1319.63800	         1.38650e+58
          1320.44430	         1.22863e+58
          1321.25060	         1.29282e+58
          1322.05690	         1.24551e+58
          1322.86320	         1.16338e+58
          1323.66950	         1.11235e+58
          1324.47580	         9.02450e+57
          1325.28210	         8.12783e+57
          1326.08840	         1.06645e+58
          1326.89470	         1.21251e+58
          1327.70100	         1.05400e+58
          1328.50730	         8.38385e+57
          1329.31360	         9.26596e+57
          1330.11990	         1.05975e+58
          1330.92620	         8.33985e+57
          1331.73250	         9.82100e+57
          1332.53880	         1.00397e+58
          1333.34510	         1.04300e+58
          1334.15140	         1.06452e+58
          1334.95770	         9.80071e+57
          1335.76400	         1.16701e+58
          1336.57030	         1.26388e+58
          1337.37660	         1.14858e+58
          1338.18290	         1.06726e+58
          1338.98920	         1.06073e+58
          1339.79550	         1.14866e+58
          1340.60180	         1.23682e+58
          1341.40810	         1.38570e+58
          1342.21440	         1.32467e+58
          1343.02070	         1.27215e+58
          1343.82700	         1.37989e+58
          1344.63330	         1.40488e+58
          1345.43960	         1.34986e+58
          1346.24590	         1.23167e+58
          1347.05220	         1.35074e+58
          1347.85850	         1.11875e+58
          1348.66480	         1.13313e+58
          1349.47110	         1.27754e+58
          1350.27740	         1.16809e+58
          1351.08370	         1.23606e+58
          1351.89000	         1.34715e+58
          1352.69630	         1.30735e+58
          1353.50260	         1.17523e+58
          1354.30890	         1.23620e+58
          1355.11520	         1.29219e+58
          1355.92150	         1.04790e+58
          1356.72780	         1.11613e+58
          1357.53410	         1.10861e+58
          1358.34040	         1.09592e+58
          1359.14670	         1.09336e+58
          1359.95300	         1.11304e+58
          1360.75930	         1.11658e+58
          1361.56560	         1.01264e+58
          1362.37190	         1.01976e+58
          1363.17820	         1.10261e+58
          1363.98450	         9.86056e+57
          1364.79080	         1.20191e+58
          1365.59710	         1.41418e+58
          1366.40340	         1.25153e+58
          1367.20970	         9.93387e+57
          1368.01600	         8.23824e+57
          1368.82230	         8.20016e+57
          1369.62860	         1.10871e+58
          1370.43490	         9.19998e+57
          1371.24120	         8.32506e+57
          1372.04750	         9.29280e+57
          1372.85380	         1.18946e+58
          1373.66010	         1.12185e+58
          1374.46640	         9.65546e+57
          1375.27270	         9.58037e+57
          1376.07900	         8.70966e+57
          1376.88530	         7.45276e+57
          1377.69160	         6.85654e+57
          1378.49790	         7.06392e+57
          1379.30420	         7.57914e+57
          1380.11050	         9.49188e+57
          1380.91680	         9.95318e+57
          1381.72310	         8.10156e+57
          1382.52940	         7.99332e+57
          1383.33570	         8.86786e+57
          1384.14200	         1.01298e+58
          1384.94830	         1.04109e+58
          1385.75460	         1.02254e+58
          1386.56090	         1.13478e+58
          1387.36720	         1.16893e+58
          1388.17350	         1.30919e+58
          1388.97980	         1.11273e+58
          1389.78610	         9.14894e+57
          1390.59240	         9.59973e+57
          1391.39870	         8.11531e+57
          1392.20500	         7.13145e+57
          1393.01130	         6.25595e+57
          1393.81760	         6.62410e+57
          1394.62390	         6.64221e+57
          1395.43020	         6.45735e+57
          1396.23650	         6.00907e+57
          1397.04280	         6.46536e+57
          1397.84910	         8.64956e+57
          1398.65540	         8.27211e+57
          1399.46170	         8.78664e+57
          1400.26800	         7.94545e+57
          1401.07430	         6.97258e+57
          1401.88060	         7.69109e+57
          1402.68690	         8.89888e+57
          1403.49320	         9.72376e+57
          1404.29950	         8.55023e+57
          1405.10580	         9.64198e+57
          1405.91210	         1.14229e+58
          1406.71840	         1.01046e+58
          1407.52470	         1.02976e+58
          1408.33100	         1.17392e+58
          1409.13730	         1.25594e+58
          1409.94360	         1.13295e+58
          1410.74990	         1.11275e+58
          1411.55620	         1.07253e+58
          1412.36250	         8.79170e+57
          1413.16880	         8.49487e+57
          1413.97510	         8.00852e+57
          1414.78140	         1.02828e+58
          1415.58770	         1.15827e+58
          1416.39400	         1.08558e+58
          1417.20030	         1.15182e+58
          1418.00660	         1.01243e+58
          1418.81290	         9.68336e+57
          1419.61920	         1.02270e+58
          1420.42550	         1.12584e+58
          1421.23180	         1.26993e+58
          1422.03810	         1.18474e+58
          1422.84440	         1.11189e+58
          1423.65070	         1.33296e+58
          1424.45700	         1.25280e+58
          1425.26330	         9.70871e+57
          1426.06960	         8.77194e+57
          1426.87590	         9.58915e+57
          1427.68220	         1.02819e+58
          1428.48850	         1.11419e+58
          1429.29480	         1.03215e+58
          1430.10110	         9.35427e+57
          1430.90740	         8.85984e+57
          1431.71370	         9.08855e+57
          1432.52000	         9.50758e+57
          1433.32630	         7.97121e+57
          1434.13260	         7.61478e+57
          1434.93890	         8.52130e+57
          1435.74520	         9.60426e+57
          1436.55150	         8.85162e+57
          1437.35780	         8.59823e+57
          1438.16410	         9.70445e+57
          1438.97040	         9.98517e+57
          1439.77670	         9.53545e+57
          1440.58300	         8.32325e+57
          1441.38930	         8.74865e+57
          1442.19560	         9.03895e+57
          1443.00190	         9.85384e+57
          1443.80820	         1.13031e+58
          1444.61450	         9.24976e+57
          1445.42080	         6.95075e+57
          1446.22710	         9.31021e+57
          1447.03340	         1.09178e+58
          1447.83970	         1.08446e+58
          1448.64600	         1.03968e+58
          1449.45230	         1.01505e+58
          1450.25860	         1.20286e+58
          1451.06490	         1.12388e+58
          1451.87120	         8.81680e+57
          1452.67750	         7.74293e+57
          1453.48380	         8.33077e+57
          1454.29010	         8.23959e+57
          1455.09640	         7.09393e+57
          1455.90270	         8.89957e+57
          1456.70900	         9.25410e+57
          1457.51530	         9.82902e+57
          1458.32160	         1.25839e+58
          1459.12790	         1.19850e+58
          1459.93420	         1.04225e+58
          1460.74050	         8.40656e+57
          1461.54680	         8.36350e+57
          1462.35310	         7.72053e+57
          1463.15940	         8.49067e+57
          1463.96570	         9.63927e+57
          1464.77200	         1.19758e+58
          1465.57830	         1.18128e+58
          1466.38460	         9.23203e+57
          1467.19090	         7.64623e+57
          1467.99720	         7.87692e+57
          1468.80350	         9.29952e+57
          1469.60980	         1.07542e+58
          1470.41610	         1.11722e+58
          1471.22240	         9.76543e+57
          1472.02870	         1.03217e+58
          1472.83500	         9.77612e+57
          1473.64130	         9.70235e+57
          1474.44760	         1.06331e+58
          1475.25390	         8.59964e+57
          1476.06020	         7.60963e+57
          1476.86650	         8.06179e+57
          1477.67280	         7.60937e+57
          1478.47910	         6.56596e+57
          1479.28540	         6.13667e+57
          1480.09170	         7.40395e+57
          1480.89800	         8.68942e+57
          1481.70430	         8.98114e+57
          1482.51060	         7.95953e+57
          1483.31690	         6.96614e+57
          1484.12320	         7.39421e+57
          1484.92950	         7.94686e+57
          1485.73580	         9.06384e+57
          1486.54210	         9.03497e+57
          1487.34840	         8.27684e+57
          1488.15470	         8.96661e+57
          1488.96100	         9.66939e+57
          1489.76730	         9.22409e+57
