#sample_128_stacked_spectrum_rest_UV-bands_median_H-alpha_noDC.txt
#median Lum: 1.70207e+42
#Rest-frame wavelength (A) | Luminosity (erg/s/A)
#
          1110.00000	         0.00000e+00
          1110.80630	         2.00300e+59
          1111.61260	         1.21425e+59
          1112.41890	         1.56400e+59
          1113.22520	        -9.34010e+58
          1114.03150	        -1.48812e+59
          1114.83780	        -1.25273e+58
          1115.64410	         9.90346e+58
          1116.45040	         1.20596e+59
          1117.25670	        -9.70099e+58
          1118.06300	         1.78660e+59
          1118.86930	        -1.17388e+58
          1119.67560	         2.38235e+58
          1120.48190	        -1.18841e+59
          1121.28820	        -2.11455e+59
          1122.09450	        -5.41753e+58
          1122.90080	        -2.35436e+58
          1123.70710	         5.32505e+58
          1124.51340	         1.07930e+59
          1125.31970	         5.71450e+58
          1126.12600	         6.04738e+58
          1126.93230	        -1.34133e+58
          1127.73860	        -8.37617e+58
          1128.54490	        -2.10538e+58
          1129.35120	         1.65268e+58
          1130.15750	        -1.83977e+58
          1130.96380	         1.17578e+58
          1131.77010	         5.63866e+58
          1132.57640	         1.73971e+58
          1133.38270	         1.59793e+58
          1134.18900	         5.53176e+57
          1134.99530	         9.87644e+57
          1135.80160	         4.09570e+58
          1136.60790	         1.37807e+58
          1137.41420	        -2.48095e+58
          1138.22050	         8.20875e+57
          1139.02680	         2.14907e+58
          1139.83310	         3.31054e+58
          1140.63940	         2.97610e+58
          1141.44570	        -1.21121e+58
          1142.25200	         2.68844e+57
          1143.05830	         3.65474e+58
          1143.86460	         2.56985e+58
          1144.67090	         2.18702e+58
          1145.47720	         1.52555e+58
          1146.28350	         1.36698e+58
          1147.08980	         1.02090e+58
          1147.89610	         2.92927e+58
          1148.70240	         2.81074e+58
          1149.50870	         2.97928e+58
          1150.31500	         3.04098e+58
          1151.12130	         2.20007e+58
          1151.92760	         6.55520e+57
          1152.73390	        -7.92675e+57
          1153.54020	         1.58554e+56
          1154.34650	         2.48647e+58
          1155.15280	         1.96210e+58
          1155.95910	         1.39071e+58
          1156.76540	         2.23608e+58
          1157.57170	         1.18963e+58
          1158.37800	        -7.62357e+56
          1159.18430	        -5.18165e+57
          1159.99060	         8.35465e+57
          1160.79690	         1.07429e+58
          1161.60320	         1.18230e+58
          1162.40950	         1.58066e+58
          1163.21580	         1.96831e+58
          1164.02210	         1.30754e+58
          1164.82840	         1.18861e+58
          1165.63470	         2.64395e+58
          1166.44100	         3.31540e+58
          1167.24730	         2.05902e+58
          1168.05360	         8.09883e+57
          1168.85990	         1.32189e+58
          1169.66620	         8.11702e+57
          1170.47250	         1.25782e+58
          1171.27880	         1.25685e+58
          1172.08510	         1.51581e+58
          1172.89140	         1.73406e+58
          1173.69770	         4.99355e+57
          1174.50400	         8.34849e+57
          1175.31030	         1.20453e+58
          1176.11660	         1.67518e+58
          1176.92290	         1.50370e+58
          1177.72920	         1.05138e+58
          1178.53550	         6.09938e+57
          1179.34180	         1.74770e+57
          1180.14810	         7.50271e+57
          1180.95440	         7.60278e+57
          1181.76070	         7.48682e+57
          1182.56700	         8.23661e+57
          1183.37330	         4.37080e+57
          1184.17960	         7.96584e+57
          1184.98590	         1.18767e+58
          1185.79220	         5.82878e+57
          1186.59850	         1.10818e+58
          1187.40480	         1.01388e+58
          1188.21110	         1.48259e+58
          1189.01740	         6.04102e+57
          1189.82370	         5.43781e+57
          1190.63000	         1.31944e+58
          1191.43630	         1.41126e+58
          1192.24260	         8.91367e+57
          1193.04890	         1.17966e+58
          1193.85520	         8.98943e+57
          1194.66150	         5.04413e+57
          1195.46780	         1.38515e+58
          1196.27410	         1.35385e+58
          1197.08040	         1.04308e+58
          1197.88670	         1.54281e+58
          1198.69300	         1.63752e+58
          1199.49930	         1.77871e+58
          1200.30560	         1.31263e+58
          1201.11190	         1.02597e+58
          1201.91820	         1.02380e+58
          1202.72450	         6.37937e+57
          1203.53080	         1.26090e+58
          1204.33710	         6.94346e+57
          1205.14340	         4.72134e+57
          1205.94970	         5.42807e+57
          1206.75600	         7.53374e+57
          1207.56230	         3.53306e+57
          1208.36860	         9.56404e+57
          1209.17490	         8.54698e+57
          1209.98120	         6.06431e+57
          1210.78750	         7.24064e+57
          1211.59380	         1.05781e+58
          1212.40010	         1.42325e+58
          1213.20640	         2.06243e+58
          1214.01270	         2.15861e+58
          1214.81900	         2.90753e+58
          1215.62530	         4.59429e+58
          1216.43160	         9.10256e+58
          1217.23790	         1.52322e+59
          1218.04420	         1.17129e+59
          1218.85050	         8.51541e+58
          1219.65680	         5.41964e+58
          1220.46310	         3.31099e+58
          1221.26940	         2.49355e+58
          1222.07570	         1.33680e+58
          1222.88200	         1.02542e+58
          1223.68830	         7.59448e+57
          1224.49460	         3.73642e+57
          1225.30090	         5.24282e+57
          1226.10720	         9.59560e+57
          1226.91350	         9.02396e+57
          1227.71980	         1.11739e+58
          1228.52610	         1.58281e+58
          1229.33240	         1.24274e+58
          1230.13870	         8.58629e+57
          1230.94500	         1.00505e+58
          1231.75130	         6.65379e+57
          1232.55760	         9.17861e+57
          1233.36390	         8.88220e+57
          1234.17020	         8.90164e+57
          1234.97650	         6.23052e+57
          1235.78280	         6.84085e+57
          1236.58910	         6.64922e+57
          1237.39540	         8.93632e+57
          1238.20170	         8.75459e+57
          1239.00800	         1.02173e+58
          1239.81430	         1.40707e+58
          1240.62060	         1.35703e+58
          1241.42690	         1.16804e+58
          1242.23320	         1.12073e+58
          1243.03950	         8.88866e+57
          1243.84580	         9.66511e+57
          1244.65210	         9.31234e+57
          1245.45840	         7.11761e+57
          1246.26470	         7.09942e+57
          1247.07100	         8.27126e+57
          1247.87730	         6.19993e+57
          1248.68360	         3.03049e+57
          1249.48990	         9.62523e+57
          1250.29620	         8.65409e+57
          1251.10250	         3.62107e+57
          1251.90880	         3.16193e+57
          1252.71510	         6.48472e+57
          1253.52140	         8.79431e+57
          1254.32770	         9.19143e+57
          1255.13400	         1.26718e+58
          1255.94030	         1.00831e+58
          1256.74660	         8.78584e+57
          1257.55290	         1.16435e+58
          1258.35920	         9.59468e+57
          1259.16550	         5.01258e+57
          1259.97180	         5.14170e+57
          1260.77810	         8.71116e+57
          1261.58440	         1.22809e+58
          1262.39070	         9.91049e+57
          1263.19700	         9.30376e+57
          1264.00330	         1.05437e+58
          1264.80960	         1.16691e+58
          1265.61590	         1.41355e+58
          1266.42220	         1.34848e+58
          1267.22850	         1.12525e+58
          1268.03480	         1.33739e+58
          1268.84110	         1.35875e+58
          1269.64740	         1.34242e+58
          1270.45370	         1.58754e+58
          1271.26000	         1.25997e+58
          1272.06630	         9.98055e+57
          1272.87260	         1.18407e+58
          1273.67890	         1.26745e+58
          1274.48520	         1.21936e+58
          1275.29150	         1.21879e+58
          1276.09780	         1.01526e+58
          1276.90410	         1.19354e+58
          1277.71040	         1.12943e+58
          1278.51670	         1.02998e+58
          1279.32300	         1.36401e+58
          1280.12930	         1.24754e+58
          1280.93560	         1.10925e+58
          1281.74190	         1.13244e+58
          1282.54820	         1.11452e+58
          1283.35450	         1.15263e+58
          1284.16080	         1.15815e+58
          1284.96710	         1.37707e+58
          1285.77340	         1.33720e+58
          1286.57970	         1.10584e+58
          1287.38600	         1.39981e+58
          1288.19230	         1.88033e+58
          1288.99860	         1.75122e+58
          1289.80490	         1.16783e+58
          1290.61120	         1.29697e+58
          1291.41750	         1.34482e+58
          1292.22380	         1.27500e+58
          1293.03010	         1.02636e+58
          1293.83640	         1.18578e+58
          1294.64270	         1.16445e+58
          1295.44900	         9.11498e+57
          1296.25530	         8.10481e+57
          1297.06160	         9.48081e+57
          1297.86790	         9.03112e+57
          1298.67420	         8.13130e+57
          1299.48050	         9.05506e+57
          1300.28680	         1.03035e+58
          1301.09310	         8.74729e+57
          1301.89940	         5.21170e+57
          1302.70570	         6.77079e+57
          1303.51200	         7.52264e+57
          1304.31830	         9.26906e+57
          1305.12460	         1.15181e+58
          1305.93090	         1.11513e+58
          1306.73720	         1.25013e+58
          1307.54350	         1.37167e+58
          1308.34980	         1.49922e+58
          1309.15610	         1.61200e+58
          1309.96240	         1.56608e+58
          1310.76870	         1.46182e+58
          1311.57500	         1.37564e+58
          1312.38130	         1.24377e+58
          1313.18760	         1.28813e+58
          1313.99390	         1.45868e+58
          1314.80020	         1.42384e+58
          1315.60650	         1.45795e+58
          1316.41280	         1.23383e+58
          1317.21910	         1.00918e+58
          1318.02540	         1.13508e+58
          1318.83170	         1.18530e+58
          1319.63800	         1.29194e+58
          1320.44430	         1.25811e+58
          1321.25060	         1.13275e+58
          1322.05690	         1.26702e+58
          1322.86320	         1.24081e+58
          1323.66950	         1.25871e+58
          1324.47580	         1.02966e+58
          1325.28210	         9.68311e+57
          1326.08840	         1.27448e+58
          1326.89470	         1.39001e+58
          1327.70100	         1.09309e+58
          1328.50730	         8.53672e+57
          1329.31360	         9.34863e+57
          1330.11990	         1.04031e+58
          1330.92620	         1.03522e+58
          1331.73250	         1.07706e+58
          1332.53880	         9.94491e+57
          1333.34510	         9.99292e+57
          1334.15140	         8.50167e+57
          1334.95770	         7.31552e+57
          1335.76400	         1.01960e+58
          1336.57030	         1.20064e+58
          1337.37660	         1.15705e+58
          1338.18290	         1.15046e+58
          1338.98920	         1.26757e+58
          1339.79550	         1.31238e+58
          1340.60180	         1.27031e+58
          1341.40810	         1.46543e+58
          1342.21440	         1.41836e+58
          1343.02070	         1.20054e+58
          1343.82700	         1.24008e+58
          1344.63330	         1.26395e+58
          1345.43960	         1.29201e+58
          1346.24590	         1.10972e+58
          1347.05220	         1.18426e+58
          1347.85850	         1.08125e+58
          1348.66480	         1.21792e+58
          1349.47110	         1.19682e+58
          1350.27740	         1.05077e+58
          1351.08370	         1.03977e+58
          1351.89000	         1.09031e+58
          1352.69630	         1.20514e+58
          1353.50260	         1.23746e+58
          1354.30890	         1.18490e+58
          1355.11520	         1.26816e+58
          1355.92150	         1.21593e+58
          1356.72780	         1.09077e+58
          1357.53410	         9.76708e+57
          1358.34040	         1.08475e+58
          1359.14670	         1.06247e+58
          1359.95300	         1.13314e+58
          1360.75930	         1.15122e+58
          1361.56560	         1.02475e+58
          1362.37190	         1.13091e+58
          1363.17820	         1.12938e+58
          1363.98450	         1.15483e+58
          1364.79080	         1.24115e+58
          1365.59710	         1.27785e+58
          1366.40340	         1.37547e+58
          1367.20970	         1.18020e+58
          1368.01600	         9.92952e+57
          1368.82230	         1.02365e+58
          1369.62860	         9.89837e+57
          1370.43490	         7.49730e+57
          1371.24120	         8.57308e+57
          1372.04750	         8.91635e+57
          1372.85380	         1.14298e+58
          1373.66010	         1.22374e+58
          1374.46640	         1.16528e+58
          1375.27270	         1.07670e+58
          1376.07900	         9.54582e+57
          1376.88530	         8.27170e+57
          1377.69160	         9.06580e+57
          1378.49790	         8.45313e+57
          1379.30420	         8.57213e+57
          1380.11050	         8.28775e+57
          1380.91680	         8.41432e+57
          1381.72310	         9.21695e+57
          1382.52940	         9.18865e+57
          1383.33570	         9.04071e+57
          1384.14200	         1.08421e+58
          1384.94830	         1.15037e+58
          1385.75460	         1.21620e+58
          1386.56090	         1.28489e+58
          1387.36720	         1.27854e+58
          1388.17350	         1.28307e+58
          1388.97980	         1.09122e+58
          1389.78610	         8.07272e+57
          1390.59240	         6.72916e+57
          1391.39870	         7.31016e+57
          1392.20500	         7.63770e+57
          1393.01130	         5.53291e+57
          1393.81760	         6.02084e+57
          1394.62390	         7.21156e+57
          1395.43020	         7.14458e+57
          1396.23650	         6.97852e+57
          1397.04280	         9.10603e+57
          1397.84910	         9.14856e+57
          1398.65540	         9.26578e+57
          1399.46170	         1.06616e+58
          1400.26800	         8.80319e+57
          1401.07430	         7.12208e+57
          1401.88060	         8.32042e+57
          1402.68690	         9.64141e+57
          1403.49320	         9.66392e+57
          1404.29950	         1.01402e+58
          1405.10580	         1.10327e+58
          1405.91210	         1.08624e+58
          1406.71840	         1.04761e+58
          1407.52470	         1.03768e+58
          1408.33100	         9.16104e+57
          1409.13730	         1.12914e+58
          1409.94360	         1.22764e+58
          1410.74990	         1.09447e+58
          1411.55620	         1.01214e+58
          1412.36250	         9.93703e+57
          1413.16880	         8.89299e+57
          1413.97510	         8.96262e+57
          1414.78140	         1.01036e+58
          1415.58770	         1.09199e+58
          1416.39400	         1.07689e+58
          1417.20030	         1.20595e+58
          1418.00660	         9.57820e+57
          1418.81290	         9.09867e+57
          1419.61920	         1.04692e+58
          1420.42550	         1.19670e+58
          1421.23180	         1.43971e+58
          1422.03810	         1.35282e+58
          1422.84440	         1.09657e+58
          1423.65070	         1.21875e+58
          1424.45700	         1.13330e+58
          1425.26330	         1.01776e+58
          1426.06960	         1.02419e+58
          1426.87590	         1.04902e+58
          1427.68220	         9.69067e+57
          1428.48850	         9.66484e+57
          1429.29480	         1.01183e+58
          1430.10110	         9.68480e+57
          1430.90740	         8.11452e+57
          1431.71370	         8.30338e+57
          1432.52000	         8.77738e+57
          1433.32630	         8.04591e+57
          1434.13260	         7.29766e+57
          1434.93890	         7.69662e+57
          1435.74520	         9.17350e+57
          1436.55150	         9.79998e+57
          1437.35780	         9.73452e+57
          1438.16410	         9.77848e+57
          1438.97040	         9.16888e+57
          1439.77670	         9.05725e+57
          1440.58300	         9.46420e+57
          1441.38930	         9.79421e+57
          1442.19560	         1.05135e+58
          1443.00190	         1.06949e+58
          1443.80820	         1.04762e+58
          1444.61450	         9.06595e+57
          1445.42080	         7.63079e+57
          1446.22710	         9.96559e+57
          1447.03340	         9.87498e+57
          1447.83970	         9.67954e+57
          1448.64600	         1.07432e+58
          1449.45230	         1.05462e+58
          1450.25860	         1.05913e+58
          1451.06490	         9.73987e+57
          1451.87120	         8.70101e+57
          1452.67750	         8.17978e+57
          1453.48380	         8.64297e+57
          1454.29010	         8.56113e+57
          1455.09640	         8.50096e+57
          1455.90270	         9.57388e+57
          1456.70900	         8.39227e+57
          1457.51530	         9.85691e+57
          1458.32160	         1.29185e+58
          1459.12790	         1.20494e+58
          1459.93420	         1.03300e+58
          1460.74050	         8.49020e+57
          1461.54680	         8.08258e+57
          1462.35310	         7.66267e+57
          1463.15940	         9.26959e+57
          1463.96570	         1.15064e+58
          1464.77200	         1.28808e+58
          1465.57830	         1.12076e+58
          1466.38460	         9.20716e+57
          1467.19090	         7.82649e+57
          1467.99720	         8.46846e+57
          1468.80350	         9.80542e+57
          1469.60980	         9.71909e+57
          1470.41610	         9.51402e+57
          1471.22240	         9.57898e+57
          1472.02870	         8.60312e+57
          1472.83500	         8.32751e+57
          1473.64130	         9.42536e+57
          1474.44760	         8.98270e+57
          1475.25390	         7.93466e+57
          1476.06020	         7.75029e+57
          1476.86650	         7.81842e+57
          1477.67280	         7.67646e+57
          1478.47910	         7.10743e+57
          1479.28540	         7.03625e+57
          1480.09170	         7.78501e+57
          1480.89800	         8.00563e+57
          1481.70430	         8.30669e+57
          1482.51060	         8.00616e+57
          1483.31690	         7.22119e+57
          1484.12320	         6.47315e+57
          1484.92950	         7.45490e+57
          1485.73580	         8.29142e+57
          1486.54210	         9.76852e+57
          1487.34840	         9.54399e+57
          1488.15470	         8.26902e+57
          1488.96100	         9.78046e+57
          1489.76730	         9.96783e+57
