#sample_23_stacked_spectrum_rest_UV-bands_median_H-alpha_noDC.txt
#median Lum: 1.71609e+42
#Rest-frame wavelength (A) | Luminosity (erg/s/A)
#
          1110.00000	         0.00000e+00
          1110.80630	        -7.88717e+57
          1111.61260	         1.58573e+59
          1112.41890	         2.98358e+59
          1113.22520	         1.26512e+59
          1114.03150	        -8.31786e+58
          1114.83780	         9.82479e+58
          1115.64410	         2.06445e+59
          1116.45040	         1.02495e+59
          1117.25670	        -7.57171e+57
          1118.06300	         2.06282e+59
          1118.86930	         1.09085e+59
          1119.67560	         2.57347e+58
          1120.48190	        -6.18570e+58
          1121.28820	        -1.24673e+59
          1122.09450	         2.76357e+58
          1122.90080	         1.20045e+58
          1123.70710	         6.90460e+58
          1124.51340	         4.87777e+58
          1125.31970	         5.35736e+57
          1126.12600	        -2.07954e+58
          1126.93230	        -1.16090e+58
          1127.73860	        -2.26511e+58
          1128.54490	        -3.22606e+57
          1129.35120	        -1.20033e+58
          1130.15750	        -4.44642e+58
          1130.96380	        -2.07776e+58
          1131.77010	         4.26498e+58
          1132.57640	         8.23069e+58
          1133.38270	         5.23629e+58
          1134.18900	         1.82764e+58
          1134.99530	         2.05627e+57
          1135.80160	        -1.15654e+58
          1136.60790	         1.19869e+58
          1137.41420	         2.06240e+58
          1138.22050	         4.50268e+58
          1139.02680	         4.37885e+58
          1139.83310	         1.54675e+58
          1140.63940	         1.53728e+58
          1141.44570	        -1.16496e+58
          1142.25200	        -4.62713e+57
          1143.05830	         1.52878e+58
          1143.86460	         1.76717e+58
          1144.67090	         3.25640e+58
          1145.47720	         5.30961e+57
          1146.28350	         1.83818e+58
          1147.08980	         2.21571e+58
          1147.89610	         2.24013e+58
          1148.70240	         2.01253e+58
          1149.50870	         1.83691e+58
          1150.31500	         1.39881e+58
          1151.12130	         6.59204e+57
          1151.92760	         4.94682e+56
          1152.73390	         1.13352e+58
          1153.54020	         3.23659e+57
          1154.34650	         1.52030e+58
          1155.15280	         1.59262e+58
          1155.95910	         8.53780e+56
          1156.76540	         9.92157e+57
          1157.57170	         2.05099e+57
          1158.37800	        -5.75235e+57
          1159.18430	        -6.84021e+57
          1159.99060	         2.34069e+56
          1160.79690	         4.93541e+57
          1161.60320	         1.43422e+58
          1162.40950	         1.78504e+58
          1163.21580	         1.76057e+58
          1164.02210	         1.58056e+58
          1164.82840	         9.71670e+57
          1165.63470	         2.00433e+58
          1166.44100	         2.82479e+58
          1167.24730	         2.40681e+58
          1168.05360	         8.98849e+57
          1168.85990	         7.47399e+57
          1169.66620	         1.20849e+58
          1170.47250	         2.12839e+58
          1171.27880	         1.47060e+58
          1172.08510	         8.82589e+57
          1172.89140	         5.22162e+57
          1173.69770	         1.16717e+58
          1174.50400	         1.46509e+58
          1175.31030	         1.94102e+58
          1176.11660	         2.09569e+58
          1176.92290	         1.40574e+58
          1177.72920	         9.34777e+57
          1178.53550	         1.13134e+58
          1179.34180	         4.48703e+57
          1180.14810	         8.76714e+57
          1180.95440	         1.43807e+58
          1181.76070	         1.63936e+58
          1182.56700	         1.04098e+58
          1183.37330	         5.61456e+57
          1184.17960	         1.14224e+58
          1184.98590	         1.13387e+58
          1185.79220	         1.04470e+58
          1186.59850	         9.86979e+57
          1187.40480	         1.16797e+58
          1188.21110	         1.40283e+58
          1189.01740	         1.08151e+58
          1189.82370	         9.29754e+57
          1190.63000	         8.77416e+57
          1191.43630	         1.33948e+58
          1192.24260	         1.39038e+58
          1193.04890	         1.59505e+58
          1193.85520	         1.37149e+58
          1194.66150	         6.51754e+57
          1195.46780	         1.04145e+58
          1196.27410	         9.59055e+57
          1197.08040	         8.67473e+57
          1197.88670	         1.51234e+58
          1198.69300	         1.39337e+58
          1199.49930	         1.76678e+58
          1200.30560	         1.32079e+58
          1201.11190	         8.20254e+57
          1201.91820	         1.24281e+58
          1202.72450	         8.89814e+57
          1203.53080	         1.55628e+58
          1204.33710	         5.94573e+57
          1205.14340	         4.65831e+57
          1205.94970	         7.21235e+57
          1206.75600	         9.91543e+57
          1207.56230	         3.94886e+57
          1208.36860	         6.12851e+57
          1209.17490	         5.94101e+57
          1209.98120	         5.74726e+57
          1210.78750	         7.96639e+57
          1211.59380	         9.73729e+57
          1212.40010	         1.58847e+58
          1213.20640	         2.18416e+58
          1214.01270	         2.22294e+58
          1214.81900	         2.61034e+58
          1215.62530	         4.57534e+58
          1216.43160	         9.67324e+58
          1217.23790	         1.50222e+59
          1218.04420	         1.10174e+59
          1218.85050	         8.39639e+58
          1219.65680	         5.46714e+58
          1220.46310	         3.17026e+58
          1221.26940	         2.12444e+58
          1222.07570	         1.52174e+58
          1222.88200	         1.42766e+58
          1223.68830	         1.07685e+58
          1224.49460	         8.73889e+57
          1225.30090	         6.27938e+57
          1226.10720	         6.67828e+57
          1226.91350	         7.32560e+57
          1227.71980	         8.91980e+57
          1228.52610	         9.46466e+57
          1229.33240	         3.77044e+57
          1230.13870	         5.91083e+57
          1230.94500	         9.44118e+57
          1231.75130	         6.25584e+57
          1232.55760	         9.53262e+57
          1233.36390	         1.08980e+58
          1234.17020	         9.88947e+57
          1234.97650	         6.15171e+57
          1235.78280	         8.14276e+57
          1236.58910	         9.34010e+57
          1237.39540	         9.58664e+57
          1238.20170	         1.05023e+58
          1239.00800	         1.06068e+58
          1239.81430	         1.50168e+58
          1240.62060	         1.32365e+58
          1241.42690	         1.01866e+58
          1242.23320	         1.17434e+58
          1243.03950	         8.41615e+57
          1243.84580	         8.64705e+57
          1244.65210	         9.86849e+57
          1245.45840	         7.20292e+57
          1246.26470	         5.85727e+57
          1247.07100	         5.13484e+57
          1247.87730	         4.90572e+57
          1248.68360	         5.44297e+57
          1249.48990	         6.62426e+57
          1250.29620	         7.24698e+57
          1251.10250	         8.80880e+57
          1251.90880	         6.78901e+57
          1252.71510	         3.94488e+57
          1253.52140	         4.66787e+57
          1254.32770	         7.34504e+57
          1255.13400	         1.26892e+58
          1255.94030	         1.17605e+58
          1256.74660	         1.02251e+58
          1257.55290	         1.16364e+58
          1258.35920	         9.29645e+57
          1259.16550	         5.58515e+57
          1259.97180	         6.41254e+57
          1260.77810	         9.47904e+57
          1261.58440	         1.07587e+58
          1262.39070	         1.05595e+58
          1263.19700	         9.73971e+57
          1264.00330	         1.10379e+58
          1264.80960	         1.24135e+58
          1265.61590	         1.29803e+58
          1266.42220	         1.31321e+58
          1267.22850	         1.05647e+58
          1268.03480	         1.45228e+58
          1268.84110	         1.55606e+58
          1269.64740	         1.26058e+58
          1270.45370	         1.34903e+58
          1271.26000	         1.44499e+58
          1272.06630	         1.34394e+58
          1272.87260	         1.30545e+58
          1273.67890	         1.29268e+58
          1274.48520	         1.12410e+58
          1275.29150	         1.28951e+58
          1276.09780	         1.27684e+58
          1276.90410	         1.29888e+58
          1277.71040	         1.01211e+58
          1278.51670	         1.02480e+58
          1279.32300	         1.29476e+58
          1280.12930	         1.04379e+58
          1280.93560	         9.77922e+57
          1281.74190	         1.11373e+58
          1282.54820	         1.16513e+58
          1283.35450	         1.17048e+58
          1284.16080	         1.32265e+58
          1284.96710	         1.59830e+58
          1285.77340	         1.41650e+58
          1286.57970	         1.23499e+58
          1287.38600	         1.48280e+58
          1288.19230	         1.75733e+58
          1288.99860	         1.57990e+58
          1289.80490	         1.10148e+58
          1290.61120	         1.15606e+58
          1291.41750	         1.34395e+58
          1292.22380	         1.40432e+58
          1293.03010	         1.16789e+58
          1293.83640	         9.75549e+57
          1294.64270	         9.46802e+57
          1295.44900	         9.97322e+57
          1296.25530	         9.45900e+57
          1297.06160	         9.35025e+57
          1297.86790	         8.26742e+57
          1298.67420	         8.41042e+57
          1299.48050	         1.02555e+58
          1300.28680	         1.08148e+58
          1301.09310	         8.07662e+57
          1301.89940	         4.01952e+57
          1302.70570	         5.87805e+57
          1303.51200	         7.72448e+57
          1304.31830	         9.66351e+57
          1305.12460	         1.07248e+58
          1305.93090	         1.01576e+58
          1306.73720	         1.10651e+58
          1307.54350	         1.37907e+58
          1308.34980	         1.43376e+58
          1309.15610	         1.43649e+58
          1309.96240	         1.52868e+58
          1310.76870	         1.44768e+58
          1311.57500	         1.23865e+58
          1312.38130	         1.17421e+58
          1313.18760	         1.41639e+58
          1313.99390	         1.65336e+58
          1314.80020	         1.56749e+58
          1315.60650	         1.52261e+58
          1316.41280	         1.27131e+58
          1317.21910	         1.10196e+58
          1318.02540	         1.16910e+58
          1318.83170	         1.32932e+58
          1319.63800	         1.22274e+58
          1320.44430	         1.13258e+58
          1321.25060	         1.26461e+58
          1322.05690	         1.41617e+58
          1322.86320	         1.30035e+58
          1323.66950	         1.11688e+58
          1324.47580	         9.48998e+57
          1325.28210	         1.02575e+58
          1326.08840	         1.34796e+58
          1326.89470	         1.32276e+58
          1327.70100	         1.01611e+58
          1328.50730	         8.11514e+57
          1329.31360	         7.69181e+57
          1330.11990	         9.00514e+57
          1330.92620	         9.37052e+57
          1331.73250	         1.02423e+58
          1332.53880	         9.79507e+57
          1333.34510	         7.74199e+57
          1334.15140	         7.35107e+57
          1334.95770	         8.09275e+57
          1335.76400	         9.51025e+57
          1336.57030	         1.02413e+58
          1337.37660	         9.75745e+57
          1338.18290	         1.05062e+58
          1338.98920	         1.15639e+58
          1339.79550	         1.07207e+58
          1340.60180	         1.17783e+58
          1341.40810	         1.22738e+58
          1342.21440	         1.14623e+58
          1343.02070	         1.21572e+58
          1343.82700	         1.39471e+58
          1344.63330	         1.33816e+58
          1345.43960	         1.22288e+58
          1346.24590	         9.73243e+57
          1347.05220	         1.11876e+58
          1347.85850	         1.24073e+58
          1348.66480	         1.20031e+58
          1349.47110	         1.31269e+58
          1350.27740	         1.17510e+58
          1351.08370	         1.26455e+58
          1351.89000	         1.20964e+58
          1352.69630	         1.15000e+58
          1353.50260	         1.05637e+58
          1354.30890	         1.25136e+58
          1355.11520	         1.27083e+58
          1355.92150	         9.62253e+57
          1356.72780	         1.07313e+58
          1357.53410	         1.17964e+58
          1358.34040	         1.12796e+58
          1359.14670	         1.06485e+58
          1359.95300	         1.10820e+58
          1360.75930	         1.13702e+58
          1361.56560	         1.08785e+58
          1362.37190	         1.15604e+58
          1363.17820	         1.15868e+58
          1363.98450	         1.13636e+58
          1364.79080	         1.26693e+58
          1365.59710	         1.34617e+58
          1366.40340	         1.14251e+58
          1367.20970	         1.06301e+58
          1368.01600	         9.76315e+57
          1368.82230	         9.54674e+57
          1369.62860	         1.06957e+58
          1370.43490	         9.32056e+57
          1371.24120	         9.64157e+57
          1372.04750	         8.76297e+57
          1372.85380	         9.96202e+57
          1373.66010	         1.19139e+58
          1374.46640	         1.12640e+58
          1375.27270	         1.13658e+58
          1376.07900	         9.54281e+57
          1376.88530	         9.35586e+57
          1377.69160	         8.32378e+57
          1378.49790	         6.46807e+57
          1379.30420	         7.95094e+57
          1380.11050	         9.24268e+57
          1380.91680	         8.47616e+57
          1381.72310	         7.38200e+57
          1382.52940	         7.30971e+57
          1383.33570	         8.27064e+57
          1384.14200	         8.82972e+57
          1384.94830	         1.00769e+58
          1385.75460	         1.03230e+58
          1386.56090	         1.08473e+58
          1387.36720	         1.01442e+58
          1388.17350	         1.23163e+58
          1388.97980	         1.15028e+58
          1389.78610	         8.59379e+57
          1390.59240	         8.56287e+57
          1391.39870	         8.04871e+57
          1392.20500	         7.96561e+57
          1393.01130	         7.72343e+57
          1393.81760	         6.53213e+57
          1394.62390	         7.03918e+57
          1395.43020	         6.45992e+57
          1396.23650	         5.80198e+57
          1397.04280	         6.87384e+57
          1397.84910	         7.87845e+57
          1398.65540	         8.87570e+57
          1399.46170	         9.63657e+57
          1400.26800	         8.56344e+57
          1401.07430	         7.80451e+57
          1401.88060	         7.05889e+57
          1402.68690	         8.97294e+57
          1403.49320	         9.35801e+57
          1404.29950	         8.57784e+57
          1405.10580	         1.01878e+58
          1405.91210	         1.05280e+58
          1406.71840	         1.06438e+58
          1407.52470	         1.02529e+58
          1408.33100	         9.56177e+57
          1409.13730	         1.03322e+58
          1409.94360	         1.17541e+58
          1410.74990	         1.13269e+58
          1411.55620	         9.18295e+57
          1412.36250	         8.13727e+57
          1413.16880	         7.64905e+57
          1413.97510	         7.31635e+57
          1414.78140	         7.57737e+57
          1415.58770	         1.03396e+58
          1416.39400	         1.18364e+58
          1417.20030	         1.09173e+58
          1418.00660	         9.88294e+57
          1418.81290	         1.06132e+58
          1419.61920	         1.11642e+58
          1420.42550	         1.20016e+58
          1421.23180	         1.18776e+58
          1422.03810	         1.27606e+58
          1422.84440	         1.33170e+58
          1423.65070	         1.36804e+58
          1424.45700	         1.13327e+58
          1425.26330	         8.44318e+57
          1426.06960	         8.76471e+57
          1426.87590	         1.04270e+58
          1427.68220	         1.08392e+58
          1428.48850	         1.12989e+58
          1429.29480	         1.14156e+58
          1430.10110	         9.67719e+57
          1430.90740	         7.96905e+57
          1431.71370	         7.60890e+57
          1432.52000	         9.34989e+57
          1433.32630	         9.25966e+57
          1434.13260	         7.59359e+57
          1434.93890	         7.14765e+57
          1435.74520	         8.20066e+57
          1436.55150	         1.01135e+58
          1437.35780	         9.86281e+57
          1438.16410	         8.65885e+57
          1438.97040	         8.38662e+57
          1439.77670	         8.35409e+57
          1440.58300	         7.93457e+57
          1441.38930	         8.96608e+57
          1442.19560	         9.88328e+57
          1443.00190	         9.64403e+57
          1443.80820	         1.01697e+58
          1444.61450	         8.71425e+57
          1445.42080	         8.19816e+57
          1446.22710	         1.11281e+58
          1447.03340	         1.02619e+58
          1447.83970	         9.94871e+57
          1448.64600	         1.06839e+58
          1449.45230	         1.06349e+58
          1450.25860	         1.03386e+58
          1451.06490	         9.46921e+57
          1451.87120	         8.37846e+57
          1452.67750	         8.10443e+57
          1453.48380	         9.32127e+57
          1454.29010	         7.16222e+57
          1455.09640	         7.23987e+57
          1455.90270	         9.27190e+57
          1456.70900	         8.48106e+57
          1457.51530	         9.40055e+57
          1458.32160	         1.13049e+58
          1459.12790	         1.06070e+58
          1459.93420	         8.59398e+57
          1460.74050	         6.53063e+57
          1461.54680	         8.03202e+57
          1462.35310	         8.71862e+57
          1463.15940	         1.00805e+58
          1463.96570	         1.09989e+58
          1464.77200	         1.17375e+58
          1465.57830	         1.15000e+58
          1466.38460	         9.85146e+57
          1467.19090	         8.42555e+57
          1467.99720	         8.10303e+57
          1468.80350	         9.01721e+57
          1469.60980	         9.84649e+57
          1470.41610	         1.01662e+58
          1471.22240	         8.20264e+57
          1472.02870	         9.74458e+57
          1472.83500	         1.08814e+58
          1473.64130	         1.00004e+58
          1474.44760	         1.01784e+58
          1475.25390	         9.65640e+57
          1476.06020	         9.49004e+57
          1476.86650	         9.98320e+57
          1477.67280	         8.44145e+57
          1478.47910	         6.73695e+57
          1479.28540	         6.55386e+57
          1480.09170	         8.52101e+57
          1480.89800	         8.13234e+57
          1481.70430	         7.63221e+57
          1482.51060	         7.62414e+57
          1483.31690	         7.04222e+57
          1484.12320	         7.22745e+57
          1484.92950	         7.65632e+57
          1485.73580	         8.44382e+57
          1486.54210	         8.85400e+57
          1487.34840	         8.81463e+57
          1488.15470	         8.69170e+57
          1488.96100	         8.04497e+57
          1489.76730	         8.90354e+57
