#sample_486_stacked_spectrum_rest_UV-bands_median_H-alpha_noDC.txt
#median Lum: 1.67532e+42
#Rest-frame wavelength (A) | Luminosity (erg/s/A)
#
          1110.00000	         0.00000e+00
          1110.80630	        -3.10137e+59
          1111.61260	        -2.75508e+59
          1112.41890	         6.18850e+58
          1113.22520	        -1.34678e+59
          1114.03150	        -1.16200e+59
          1114.83780	         1.46130e+59
          1115.64410	         8.79474e+58
          1116.45040	         1.64623e+59
          1117.25670	        -9.27540e+58
          1118.06300	         1.27110e+59
          1118.86930	         9.04686e+57
          1119.67560	         5.11318e+58
          1120.48190	        -1.13134e+59
          1121.28820	        -1.26200e+59
          1122.09450	         3.75252e+58
          1122.90080	         1.67247e+58
          1123.70710	         4.48439e+58
          1124.51340	         1.87637e+58
          1125.31970	         2.88956e+58
          1126.12600	         5.27025e+58
          1126.93230	        -6.27943e+58
          1127.73860	        -4.36710e+57
          1128.54490	         1.91136e+58
          1129.35120	        -9.30584e+56
          1130.15750	        -4.61869e+58
          1130.96380	        -3.63053e+58
          1131.77010	        -3.77073e+57
          1132.57640	         2.19546e+58
          1133.38270	         3.25589e+58
          1134.18900	         3.41660e+58
          1134.99530	         5.36035e+57
          1135.80160	         1.36955e+58
          1136.60790	        -1.72202e+57
          1137.41420	        -1.56926e+57
          1138.22050	         3.09942e+58
          1139.02680	         3.27927e+58
          1139.83310	         2.09618e+58
          1140.63940	         1.71674e+58
          1141.44570	         6.36239e+57
          1142.25200	        -6.82277e+55
          1143.05830	         2.74784e+58
          1143.86460	         3.57020e+58
          1144.67090	         2.21507e+58
          1145.47720	         2.92774e+58
          1146.28350	         1.44654e+58
          1147.08980	         1.41109e+58
          1147.89610	         1.23290e+58
          1148.70240	         2.24124e+58
          1149.50870	         2.89486e+58
          1150.31500	         2.12695e+58
          1151.12130	         1.78149e+58
          1151.92760	         4.91655e+57
          1152.73390	         1.67782e+57
          1153.54020	        -5.06708e+57
          1154.34650	         2.54775e+58
          1155.15280	         1.74790e+58
          1155.95910	        -4.71589e+57
          1156.76540	         1.23416e+57
          1157.57170	         1.27427e+57
          1158.37800	        -3.59312e+57
          1159.18430	        -4.64947e+57
          1159.99060	         1.51270e+58
          1160.79690	         1.57490e+58
          1161.60320	         1.08468e+58
          1162.40950	         2.93446e+58
          1163.21580	         2.35968e+58
          1164.02210	         1.70556e+58
          1164.82840	         5.45126e+57
          1165.63470	         1.96543e+58
          1166.44100	         3.16401e+58
          1167.24730	         1.61267e+58
          1168.05360	         3.71773e+57
          1168.85990	         3.42510e+57
          1169.66620	         4.51512e+57
          1170.47250	         1.10123e+58
          1171.27880	         1.24759e+58
          1172.08510	         1.42757e+58
          1172.89140	         1.41201e+58
          1173.69770	         6.34242e+57
          1174.50400	         6.70338e+57
          1175.31030	         2.05561e+58
          1176.11660	         2.13927e+58
          1176.92290	         1.61529e+58
          1177.72920	         1.12337e+58
          1178.53550	         5.11548e+57
          1179.34180	         2.29391e+57
          1180.14810	         5.74058e+57
          1180.95440	         9.87248e+57
          1181.76070	         6.51047e+57
          1182.56700	         2.90587e+57
          1183.37330	         4.21009e+57
          1184.17960	         9.68249e+57
          1184.98590	         1.06550e+58
          1185.79220	         8.96050e+57
          1186.59850	         8.76498e+57
          1187.40480	         7.40074e+57
          1188.21110	         1.48910e+58
          1189.01740	         1.04142e+58
          1189.82370	         1.03991e+58
          1190.63000	         1.05534e+58
          1191.43630	         1.02589e+58
          1192.24260	         1.03152e+58
          1193.04890	         1.34294e+58
          1193.85520	         1.01906e+58
          1194.66150	         6.16943e+57
          1195.46780	         1.44266e+58
          1196.27410	         1.55517e+58
          1197.08040	         8.11430e+57
          1197.88670	         1.28596e+58
          1198.69300	         1.60079e+58
          1199.49930	         1.52324e+58
          1200.30560	         1.15951e+58
          1201.11190	         1.02730e+58
          1201.91820	         1.29948e+58
          1202.72450	         9.68968e+57
          1203.53080	         1.56821e+58
          1204.33710	         1.06613e+58
          1205.14340	         5.47733e+57
          1205.94970	         8.23086e+57
          1206.75600	         8.75714e+57
          1207.56230	         2.15390e+57
          1208.36860	         5.06996e+57
          1209.17490	         7.79208e+57
          1209.98120	         6.34582e+57
          1210.78750	         7.41210e+57
          1211.59380	         1.02015e+58
          1212.40010	         1.57005e+58
          1213.20640	         1.95163e+58
          1214.01270	         1.63730e+58
          1214.81900	         2.44211e+58
          1215.62530	         4.58358e+58
          1216.43160	         9.15768e+58
          1217.23790	         1.47109e+59
          1218.04420	         1.08698e+59
          1218.85050	         8.39508e+58
          1219.65680	         5.48157e+58
          1220.46310	         3.25439e+58
          1221.26940	         2.15090e+58
          1222.07570	         1.09314e+58
          1222.88200	         1.05651e+58
          1223.68830	         7.95973e+57
          1224.49460	         5.73583e+57
          1225.30090	         5.99470e+57
          1226.10720	         6.46453e+57
          1226.91350	         6.12630e+57
          1227.71980	         1.03021e+58
          1228.52610	         1.33016e+58
          1229.33240	         1.00578e+58
          1230.13870	         8.51416e+57
          1230.94500	         7.30362e+57
          1231.75130	         8.18059e+57
          1232.55760	         8.97779e+57
          1233.36390	         7.72683e+57
          1234.17020	         6.01678e+57
          1234.97650	         6.49560e+57
          1235.78280	         7.10688e+57
          1236.58910	         8.69247e+57
          1237.39540	         1.18758e+58
          1238.20170	         1.24816e+58
          1239.00800	         1.36292e+58
          1239.81430	         1.31970e+58
          1240.62060	         9.12456e+57
          1241.42690	         8.12947e+57
          1242.23320	         1.07995e+58
          1243.03950	         8.06368e+57
          1243.84580	         6.66981e+57
          1244.65210	         8.23568e+57
          1245.45840	         8.74967e+57
          1246.26470	         8.22354e+57
          1247.07100	         5.62528e+57
          1247.87730	         8.23744e+57
          1248.68360	         5.81894e+57
          1249.48990	         7.60680e+57
          1250.29620	         1.12829e+58
          1251.10250	         6.95436e+57
          1251.90880	         3.91678e+57
          1252.71510	         4.08252e+57
          1253.52140	         6.24450e+57
          1254.32770	         1.04527e+58
          1255.13400	         1.36999e+58
          1255.94030	         1.20047e+58
          1256.74660	         1.03702e+58
          1257.55290	         9.58526e+57
          1258.35920	         8.46458e+57
          1259.16550	         5.09859e+57
          1259.97180	         3.65216e+57
          1260.77810	         6.49311e+57
          1261.58440	         9.55623e+57
          1262.39070	         7.80191e+57
          1263.19700	         8.26367e+57
          1264.00330	         9.33026e+57
          1264.80960	         1.11011e+58
          1265.61590	         1.26202e+58
          1266.42220	         1.20462e+58
          1267.22850	         1.10251e+58
          1268.03480	         1.36441e+58
          1268.84110	         1.54208e+58
          1269.64740	         1.26881e+58
          1270.45370	         1.02472e+58
          1271.26000	         1.01900e+58
          1272.06630	         1.11845e+58
          1272.87260	         1.27848e+58
          1273.67890	         1.04361e+58
          1274.48520	         1.04813e+58
          1275.29150	         1.37567e+58
          1276.09780	         1.14393e+58
          1276.90410	         1.28070e+58
          1277.71040	         1.12943e+58
          1278.51670	         9.58320e+57
          1279.32300	         1.21659e+58
          1280.12930	         1.21080e+58
          1280.93560	         9.31898e+57
          1281.74190	         9.47700e+57
          1282.54820	         1.23186e+58
          1283.35450	         1.15300e+58
          1284.16080	         1.17060e+58
          1284.96710	         1.44223e+58
          1285.77340	         1.20560e+58
          1286.57970	         9.95371e+57
          1287.38600	         1.39290e+58
          1288.19230	         1.70464e+58
          1288.99860	         1.49301e+58
          1289.80490	         1.07504e+58
          1290.61120	         1.34049e+58
          1291.41750	         1.14722e+58
          1292.22380	         1.01752e+58
          1293.03010	         9.67987e+57
          1293.83640	         1.05855e+58
          1294.64270	         9.12143e+57
          1295.44900	         6.08762e+57
          1296.25530	         5.16843e+57
          1297.06160	         6.39945e+57
          1297.86790	         8.30919e+57
          1298.67420	         7.76257e+57
          1299.48050	         9.31866e+57
          1300.28680	         1.02121e+58
          1301.09310	         7.87570e+57
          1301.89940	         4.25004e+57
          1302.70570	         5.69517e+57
          1303.51200	         7.52685e+57
          1304.31830	         9.90071e+57
          1305.12460	         1.17384e+58
          1305.93090	         1.07512e+58
          1306.73720	         1.18978e+58
          1307.54350	         1.45146e+58
          1308.34980	         1.34984e+58
          1309.15610	         1.43004e+58
          1309.96240	         1.48541e+58
          1310.76870	         1.22242e+58
          1311.57500	         1.04451e+58
          1312.38130	         1.12282e+58
          1313.18760	         1.29494e+58
          1313.99390	         1.62963e+58
          1314.80020	         1.73071e+58
          1315.60650	         1.50864e+58
          1316.41280	         1.22114e+58
          1317.21910	         9.99373e+57
          1318.02540	         1.05570e+58
          1318.83170	         1.18377e+58
          1319.63800	         1.13070e+58
          1320.44430	         1.15853e+58
          1321.25060	         1.27202e+58
          1322.05690	         1.18767e+58
          1322.86320	         1.07247e+58
          1323.66950	         1.01645e+58
          1324.47580	         8.30306e+57
          1325.28210	         9.02753e+57
          1326.08840	         9.99658e+57
          1326.89470	         1.08939e+58
          1327.70100	         8.51454e+57
          1328.50730	         6.83856e+57
          1329.31360	         9.83317e+57
          1330.11990	         1.03821e+58
          1330.92620	         8.92330e+57
          1331.73250	         9.82016e+57
          1332.53880	         8.54107e+57
          1333.34510	         7.27448e+57
          1334.15140	         7.59084e+57
          1334.95770	         7.59202e+57
          1335.76400	         1.06025e+58
          1336.57030	         1.10029e+58
          1337.37660	         9.21840e+57
          1338.18290	         1.01433e+58
          1338.98920	         1.15617e+58
          1339.79550	         1.07664e+58
          1340.60180	         1.14907e+58
          1341.40810	         1.24493e+58
          1342.21440	         1.16110e+58
          1343.02070	         1.06551e+58
          1343.82700	         1.13985e+58
          1344.63330	         1.17541e+58
          1345.43960	         1.25571e+58
          1346.24590	         1.19644e+58
          1347.05220	         1.32864e+58
          1347.85850	         1.31491e+58
          1348.66480	         1.21948e+58
          1349.47110	         1.31769e+58
          1350.27740	         1.13963e+58
          1351.08370	         1.09963e+58
          1351.89000	         1.07615e+58
          1352.69630	         9.73522e+57
          1353.50260	         1.00112e+58
          1354.30890	         1.10272e+58
          1355.11520	         1.10356e+58
          1355.92150	         1.11147e+58
          1356.72780	         1.04499e+58
          1357.53410	         1.04069e+58
          1358.34040	         1.07429e+58
          1359.14670	         9.50763e+57
          1359.95300	         1.02592e+58
          1360.75930	         1.10039e+58
          1361.56560	         1.14563e+58
          1362.37190	         1.20832e+58
          1363.17820	         1.06527e+58
          1363.98450	         1.00198e+58
          1364.79080	         1.22371e+58
          1365.59710	         1.25074e+58
          1366.40340	         1.03665e+58
          1367.20970	         9.59721e+57
          1368.01600	         9.07485e+57
          1368.82230	         8.32478e+57
          1369.62860	         1.02174e+58
          1370.43490	         9.28036e+57
          1371.24120	         8.68094e+57
          1372.04750	         8.13540e+57
          1372.85380	         1.05985e+58
          1373.66010	         1.16082e+58
          1374.46640	         9.70810e+57
          1375.27270	         9.79602e+57
          1376.07900	         9.34785e+57
          1376.88530	         9.29259e+57
          1377.69160	         8.56694e+57
          1378.49790	         6.06189e+57
          1379.30420	         6.12485e+57
          1380.11050	         7.54072e+57
          1380.91680	         8.38027e+57
          1381.72310	         7.12521e+57
          1382.52940	         6.02923e+57
          1383.33570	         8.30704e+57
          1384.14200	         9.50015e+57
          1384.94830	         9.74853e+57
          1385.75460	         9.06449e+57
          1386.56090	         9.87832e+57
          1387.36720	         1.10991e+58
          1388.17350	         1.32045e+58
          1388.97980	         1.14071e+58
          1389.78610	         8.23283e+57
          1390.59240	         6.50047e+57
          1391.39870	         5.78559e+57
          1392.20500	         8.12648e+57
          1393.01130	         7.61005e+57
          1393.81760	         8.01372e+57
          1394.62390	         8.52697e+57
          1395.43020	         6.96666e+57
          1396.23650	         6.81110e+57
          1397.04280	         6.96500e+57
          1397.84910	         7.70479e+57
          1398.65540	         7.77501e+57
          1399.46170	         8.85405e+57
          1400.26800	         7.66926e+57
          1401.07430	         6.82098e+57
          1401.88060	         7.78616e+57
          1402.68690	         1.02530e+58
          1403.49320	         1.05640e+58
          1404.29950	         9.62620e+57
          1405.10580	         9.92262e+57
          1405.91210	         1.09646e+58
          1406.71840	         9.98282e+57
          1407.52470	         9.49714e+57
          1408.33100	         1.01335e+58
          1409.13730	         1.07267e+58
          1409.94360	         1.17027e+58
          1410.74990	         1.11864e+58
          1411.55620	         9.77164e+57
          1412.36250	         8.53950e+57
          1413.16880	         6.84324e+57
          1413.97510	         7.48513e+57
          1414.78140	         7.86294e+57
          1415.58770	         8.79975e+57
          1416.39400	         9.86827e+57
          1417.20030	         1.11129e+58
          1418.00660	         1.06953e+58
          1418.81290	         1.01278e+58
          1419.61920	         1.02449e+58
          1420.42550	         1.12665e+58
          1421.23180	         1.19988e+58
          1422.03810	         1.15811e+58
          1422.84440	         1.03371e+58
          1423.65070	         1.16000e+58
          1424.45700	         1.17495e+58
          1425.26330	         9.04534e+57
          1426.06960	         8.54733e+57
          1426.87590	         9.29464e+57
          1427.68220	         9.25435e+57
          1428.48850	         9.88037e+57
          1429.29480	         9.94862e+57
          1430.10110	         1.04083e+58
          1430.90740	         8.86786e+57
          1431.71370	         7.85374e+57
          1432.52000	         7.61757e+57
          1433.32630	         6.74404e+57
          1434.13260	         6.96905e+57
          1434.93890	         7.87306e+57
          1435.74520	         8.91235e+57
          1436.55150	         9.77853e+57
          1437.35780	         9.29648e+57
          1438.16410	         8.55426e+57
          1438.97040	         8.01402e+57
          1439.77670	         8.63602e+57
          1440.58300	         9.01721e+57
          1441.38930	         9.04988e+57
          1442.19560	         9.96406e+57
          1443.00190	         1.03617e+58
          1443.80820	         1.10376e+58
          1444.61450	         1.03106e+58
          1445.42080	         7.79572e+57
          1446.22710	         9.14299e+57
          1447.03340	         1.03262e+58
          1447.83970	         1.00747e+58
          1448.64600	         1.02738e+58
          1449.45230	         9.52898e+57
          1450.25860	         9.33926e+57
          1451.06490	         8.21113e+57
          1451.87120	         7.39323e+57
          1452.67750	         8.18305e+57
          1453.48380	         8.99793e+57
          1454.29010	         8.04855e+57
          1455.09640	         6.47220e+57
          1455.90270	         7.29347e+57
          1456.70900	         7.65264e+57
          1457.51530	         9.50105e+57
          1458.32160	         1.07894e+58
          1459.12790	         1.07873e+58
          1459.93420	         9.95788e+57
          1460.74050	         8.10068e+57
          1461.54680	         8.32484e+57
          1462.35310	         8.39101e+57
          1463.15940	         8.21370e+57
          1463.96570	         9.57934e+57
          1464.77200	         1.04275e+58
          1465.57830	         9.31845e+57
          1466.38460	         8.29743e+57
          1467.19090	         7.64047e+57
          1467.99720	         7.90107e+57
          1468.80350	         8.05393e+57
          1469.60980	         8.91143e+57
          1470.41610	         9.24372e+57
          1471.22240	         8.65012e+57
          1472.02870	         9.26933e+57
          1472.83500	         9.32402e+57
          1473.64130	         8.55333e+57
          1474.44760	         8.53809e+57
          1475.25390	         9.35489e+57
          1476.06020	         8.56070e+57
          1476.86650	         7.82079e+57
          1477.67280	         7.13066e+57
          1478.47910	         6.29350e+57
          1479.28540	         7.22516e+57
          1480.09170	         7.45964e+57
          1480.89800	         8.32555e+57
          1481.70430	         8.58995e+57
          1482.51060	         8.08757e+57
          1483.31690	         7.18403e+57
          1484.12320	         6.75996e+57
          1484.92950	         6.98584e+57
          1485.73580	         7.78057e+57
          1486.54210	         8.01345e+57
          1487.34840	         7.44364e+57
          1488.15470	         8.06702e+57
          1488.96100	         8.32641e+57
          1489.76730	         8.12978e+57
