#sample_42_stacked_spectrum_rest_UV-bands_median_H-alpha_noDC.txt
#median Lum: 1.68396e+42
#Rest-frame wavelength (A) | Luminosity (erg/s/A)
#
          1110.00000	         0.00000e+00
          1110.80630	         3.36969e+58
          1111.61260	         2.24043e+58
          1112.41890	         2.39101e+59
          1113.22520	         3.77903e+58
          1114.03150	         9.52621e+58
          1114.83780	         2.60973e+59
          1115.64410	        -4.09436e+58
          1116.45040	         1.20920e+59
          1117.25670	         4.72783e+57
          1118.06300	         1.52639e+59
          1118.86930	         2.20954e+58
          1119.67560	         8.18119e+58
          1120.48190	         4.56438e+58
          1121.28820	        -5.88315e+58
          1122.09450	        -7.76125e+58
          1122.90080	         1.43789e+58
          1123.70710	         6.37049e+58
          1124.51340	         5.39190e+58
          1125.31970	         7.86304e+57
          1126.12600	         6.46667e+57
          1126.93230	        -4.49781e+58
          1127.73860	        -6.41563e+58
          1128.54490	         6.93711e+58
          1129.35120	         4.30911e+58
          1130.15750	        -6.01031e+57
          1130.96380	        -2.73071e+58
          1131.77010	         1.12388e+58
          1132.57640	         5.88723e+58
          1133.38270	         4.42573e+58
          1134.18900	         2.92784e+58
          1134.99530	         1.57121e+58
          1135.80160	         5.02537e+57
          1136.60790	         1.96759e+58
          1137.41420	        -8.39468e+56
          1138.22050	         3.23249e+58
          1139.02680	         6.80275e+57
          1139.83310	         1.59582e+58
          1140.63940	         2.84972e+58
          1141.44570	        -1.69927e+58
          1142.25200	         2.77214e+56
          1143.05830	         1.96685e+58
          1143.86460	         1.55466e+58
          1144.67090	         2.18949e+58
          1145.47720	         8.33999e+57
          1146.28350	         9.78105e+57
          1147.08980	         1.77889e+58
          1147.89610	         1.62341e+58
          1148.70240	         2.84589e+58
          1149.50870	         2.14315e+58
          1150.31500	         1.38560e+58
          1151.12130	         7.80937e+57
          1151.92760	         5.41650e+57
          1152.73390	         1.36339e+58
          1153.54020	         2.24782e+57
          1154.34650	         2.20750e+58
          1155.15280	         2.10131e+58
          1155.95910	         5.80701e+57
          1156.76540	         2.46128e+57
          1157.57170	        -8.99638e+57
          1158.37800	        -8.97124e+56
          1159.18430	        -9.60474e+56
          1159.99060	         5.02145e+57
          1160.79690	         7.06460e+57
          1161.60320	         1.20253e+58
          1162.40950	         2.05380e+58
          1163.21580	         7.47606e+57
          1164.02210	         1.02135e+58
          1164.82840	         1.28240e+58
          1165.63470	         1.83270e+58
          1166.44100	         2.76936e+58
          1167.24730	         1.69802e+58
          1168.05360	         5.47640e+57
          1168.85990	         7.21313e+57
          1169.66620	         3.13170e+57
          1170.47250	         4.08550e+57
          1171.27880	         8.85759e+57
          1172.08510	         1.38338e+58
          1172.89140	         1.03306e+58
          1173.69770	         9.88893e+57
          1174.50400	         1.21044e+58
          1175.31030	         1.71205e+58
          1176.11660	         1.74846e+58
          1176.92290	         1.47036e+58
          1177.72920	         1.40393e+58
          1178.53550	         6.40374e+57
          1179.34180	        -6.15149e+56
          1180.14810	         2.35108e+57
          1180.95440	         1.22275e+58
          1181.76070	         6.19648e+57
          1182.56700	         3.95535e+57
          1183.37330	         7.76847e+57
          1184.17960	         1.39482e+58
          1184.98590	         1.42903e+58
          1185.79220	         1.20144e+58
          1186.59850	         1.11806e+58
          1187.40480	         9.00973e+57
          1188.21110	         1.82909e+58
          1189.01740	         9.78543e+57
          1189.82370	         6.28028e+57
          1190.63000	         7.52909e+57
          1191.43630	         1.44281e+58
          1192.24260	         1.15559e+58
          1193.04890	         9.82823e+57
          1193.85520	         8.23463e+57
          1194.66150	         5.85652e+57
          1195.46780	         1.26264e+58
          1196.27410	         1.48107e+58
          1197.08040	         1.32500e+58
          1197.88670	         1.35793e+58
          1198.69300	         1.29808e+58
          1199.49930	         1.46043e+58
          1200.30560	         1.00851e+58
          1201.11190	         8.02998e+57
          1201.91820	         1.11199e+58
          1202.72450	         9.73987e+57
          1203.53080	         1.65808e+58
          1204.33710	         9.96944e+57
          1205.14340	         9.57686e+57
          1205.94970	         4.88349e+57
          1206.75600	         7.62084e+57
          1207.56230	         5.92561e+57
          1208.36860	         6.42436e+57
          1209.17490	         7.01143e+57
          1209.98120	         6.27087e+57
          1210.78750	         8.43328e+57
          1211.59380	         8.12143e+57
          1212.40010	         1.27081e+58
          1213.20640	         2.09361e+58
          1214.01270	         1.93284e+58
          1214.81900	         2.52278e+58
          1215.62530	         4.64998e+58
          1216.43160	         9.08944e+58
          1217.23790	         1.52257e+59
          1218.04420	         1.15840e+59
          1218.85050	         8.55776e+58
          1219.65680	         5.93552e+58
          1220.46310	         3.70840e+58
          1221.26940	         2.55981e+58
          1222.07570	         1.88794e+58
          1222.88200	         1.70211e+58
          1223.68830	         1.36664e+58
          1224.49460	         8.08559e+57
          1225.30090	         5.07738e+57
          1226.10720	         5.03132e+57
          1226.91350	         4.11828e+57
          1227.71980	         1.01945e+58
          1228.52610	         1.19736e+58
          1229.33240	         9.10134e+57
          1230.13870	         6.81153e+57
          1230.94500	         7.73393e+57
          1231.75130	         6.76953e+57
          1232.55760	         5.09681e+57
          1233.36390	         7.84740e+57
          1234.17020	         8.40528e+57
          1234.97650	         9.05422e+57
          1235.78280	         6.55171e+57
          1236.58910	         9.07510e+57
          1237.39540	         1.15818e+58
          1238.20170	         9.90804e+57
          1239.00800	         1.32539e+58
          1239.81430	         1.56096e+58
          1240.62060	         1.05351e+58
          1241.42690	         1.16214e+58
          1242.23320	         1.14219e+58
          1243.03950	         8.59302e+57
          1243.84580	         8.93450e+57
          1244.65210	         9.30708e+57
          1245.45840	         9.71788e+57
          1246.26470	         8.76482e+57
          1247.07100	         8.51271e+57
          1247.87730	         6.31782e+57
          1248.68360	         1.65897e+57
          1249.48990	         3.09882e+57
          1250.29620	         8.81930e+57
          1251.10250	         8.88730e+57
          1251.90880	         7.16690e+57
          1252.71510	         6.38480e+57
          1253.52140	         7.98194e+57
          1254.32770	         1.12760e+58
          1255.13400	         1.31684e+58
          1255.94030	         1.14008e+58
          1256.74660	         9.31468e+57
          1257.55290	         9.83282e+57
          1258.35920	         7.09011e+57
          1259.16550	         3.90558e+57
          1259.97180	         4.57131e+57
          1260.77810	         8.66694e+57
          1261.58440	         1.11126e+58
          1262.39070	         7.25727e+57
          1263.19700	         8.79592e+57
          1264.00330	         1.00195e+58
          1264.80960	         8.96697e+57
          1265.61590	         9.05853e+57
          1266.42220	         1.13963e+58
          1267.22850	         1.15272e+58
          1268.03480	         1.44881e+58
          1268.84110	         1.53791e+58
          1269.64740	         1.45249e+58
          1270.45370	         1.37853e+58
          1271.26000	         1.09705e+58
          1272.06630	         9.90480e+57
          1272.87260	         1.09520e+58
          1273.67890	         1.36353e+58
          1274.48520	         1.20268e+58
          1275.29150	         1.17470e+58
          1276.09780	         1.29383e+58
          1276.90410	         1.42474e+58
          1277.71040	         1.34737e+58
          1278.51670	         1.18243e+58
          1279.32300	         1.36821e+58
          1280.12930	         1.28284e+58
          1280.93560	         1.26708e+58
          1281.74190	         1.40315e+58
          1282.54820	         1.20969e+58
          1283.35450	         9.04924e+57
          1284.16080	         1.09398e+58
          1284.96710	         1.27774e+58
          1285.77340	         1.37919e+58
          1286.57970	         1.22269e+58
          1287.38600	         1.51405e+58
          1288.19230	         1.84480e+58
          1288.99860	         1.60306e+58
          1289.80490	         1.18113e+58
          1290.61120	         1.33304e+58
          1291.41750	         1.49985e+58
          1292.22380	         1.17768e+58
          1293.03010	         1.04875e+58
          1293.83640	         1.37700e+58
          1294.64270	         1.09605e+58
          1295.44900	         6.25035e+57
          1296.25530	         7.10653e+57
          1297.06160	         1.07293e+58
          1297.86790	         1.30624e+58
          1298.67420	         1.00849e+58
          1299.48050	         1.20223e+58
          1300.28680	         1.09925e+58
          1301.09310	         7.14320e+57
          1301.89940	         3.79037e+57
          1302.70570	         6.07962e+57
          1303.51200	         7.63299e+57
          1304.31830	         8.84678e+57
          1305.12460	         1.06944e+58
          1305.93090	         1.07900e+58
          1306.73720	         1.18553e+58
          1307.54350	         1.44371e+58
          1308.34980	         1.59918e+58
          1309.15610	         1.64700e+58
          1309.96240	         1.60058e+58
          1310.76870	         1.51572e+58
          1311.57500	         1.31338e+58
          1312.38130	         1.18613e+58
          1313.18760	         1.34490e+58
          1313.99390	         1.37434e+58
          1314.80020	         1.46040e+58
          1315.60650	         1.54839e+58
          1316.41280	         1.41056e+58
          1317.21910	         1.12246e+58
          1318.02540	         1.21390e+58
          1318.83170	         1.47217e+58
          1319.63800	         1.43604e+58
          1320.44430	         1.24858e+58
          1321.25060	         1.24727e+58
          1322.05690	         1.21929e+58
          1322.86320	         1.22157e+58
          1323.66950	         1.05520e+58
          1324.47580	         9.26462e+57
          1325.28210	         1.17302e+58
          1326.08840	         1.36425e+58
          1326.89470	         1.35476e+58
          1327.70100	         1.07143e+58
          1328.50730	         8.22131e+57
          1329.31360	         9.17374e+57
          1330.11990	         7.97452e+57
          1330.92620	         7.95920e+57
          1331.73250	         1.08025e+58
          1332.53880	         1.04921e+58
          1333.34510	         8.68881e+57
          1334.15140	         8.42558e+57
          1334.95770	         9.25313e+57
          1335.76400	         1.02299e+58
          1336.57030	         9.89291e+57
          1337.37660	         1.09683e+58
          1338.18290	         1.21737e+58
          1338.98920	         1.12519e+58
          1339.79550	         1.04842e+58
          1340.60180	         1.23380e+58
          1341.40810	         1.29515e+58
          1342.21440	         1.07661e+58
          1343.02070	         1.24102e+58
          1343.82700	         1.39482e+58
          1344.63330	         1.28888e+58
          1345.43960	         1.35593e+58
          1346.24590	         1.21945e+58
          1347.05220	         1.19416e+58
          1347.85850	         1.16284e+58
          1348.66480	         1.12894e+58
          1349.47110	         1.14209e+58
          1350.27740	         1.14450e+58
          1351.08370	         1.09821e+58
          1351.89000	         1.10626e+58
          1352.69630	         1.07987e+58
          1353.50260	         1.12153e+58
          1354.30890	         1.26953e+58
          1355.11520	         1.21232e+58
          1355.92150	         1.10014e+58
          1356.72780	         1.03677e+58
          1357.53410	         1.05519e+58
          1358.34040	         9.88317e+57
          1359.14670	         9.55502e+57
          1359.95300	         1.04510e+58
          1360.75930	         1.00633e+58
          1361.56560	         9.49957e+57
          1362.37190	         1.04140e+58
          1363.17820	         1.06539e+58
          1363.98450	         1.01003e+58
          1364.79080	         1.07417e+58
          1365.59710	         1.20016e+58
          1366.40340	         1.14658e+58
          1367.20970	         1.00372e+58
          1368.01600	         1.14093e+58
          1368.82230	         1.00578e+58
          1369.62860	         8.30724e+57
          1370.43490	         7.75140e+57
          1371.24120	         1.02739e+58
          1372.04750	         9.46387e+57
          1372.85380	         9.81397e+57
          1373.66010	         8.79186e+57
          1374.46640	         9.12962e+57
          1375.27270	         1.05875e+58
          1376.07900	         9.50362e+57
          1376.88530	         9.76038e+57
          1377.69160	         9.40378e+57
          1378.49790	         7.47742e+57
          1379.30420	         7.23994e+57
          1380.11050	         7.56089e+57
          1380.91680	         7.83043e+57
          1381.72310	         7.54027e+57
          1382.52940	         6.48325e+57
          1383.33570	         7.49606e+57
          1384.14200	         1.00456e+58
          1384.94830	         1.07818e+58
          1385.75460	         1.12492e+58
          1386.56090	         1.00818e+58
          1387.36720	         9.51780e+57
          1388.17350	         1.19531e+58
          1388.97980	         1.03116e+58
          1389.78610	         7.42128e+57
          1390.59240	         6.92238e+57
          1391.39870	         7.72174e+57
          1392.20500	         6.97161e+57
          1393.01130	         6.27325e+57
          1393.81760	         6.57747e+57
          1394.62390	         7.11759e+57
          1395.43020	         7.04637e+57
          1396.23650	         6.55462e+57
          1397.04280	         7.80758e+57
          1397.84910	         8.77312e+57
          1398.65540	         8.15938e+57
          1399.46170	         9.68650e+57
          1400.26800	         7.20809e+57
          1401.07430	         7.67892e+57
          1401.88060	         8.71177e+57
          1402.68690	         9.58810e+57
          1403.49320	         8.86362e+57
          1404.29950	         8.82750e+57
          1405.10580	         1.15725e+58
          1405.91210	         1.14157e+58
          1406.71840	         1.04420e+58
          1407.52470	         1.05005e+58
          1408.33100	         9.75705e+57
          1409.13730	         1.12679e+58
          1409.94360	         1.11988e+58
          1410.74990	         1.12113e+58
          1411.55620	         1.01971e+58
          1412.36250	         1.00155e+58
          1413.16880	         9.54340e+57
          1413.97510	         8.63714e+57
          1414.78140	         9.04752e+57
          1415.58770	         1.01677e+58
          1416.39400	         1.07440e+58
          1417.20030	         1.02322e+58
          1418.00660	         9.52275e+57
          1418.81290	         9.38208e+57
          1419.61920	         9.91453e+57
          1420.42550	         1.10061e+58
          1421.23180	         1.19463e+58
          1422.03810	         1.17627e+58
          1422.84440	         9.78979e+57
          1423.65070	         1.10150e+58
          1424.45700	         1.06572e+58
          1425.26330	         9.10863e+57
          1426.06960	         8.58887e+57
          1426.87590	         9.46431e+57
          1427.68220	         1.06079e+58
          1428.48850	         1.17447e+58
          1429.29480	         1.09417e+58
          1430.10110	         9.84595e+57
          1430.90740	         9.10211e+57
          1431.71370	         8.83812e+57
          1432.52000	         7.84300e+57
          1433.32630	         7.60195e+57
          1434.13260	         8.29886e+57
          1434.93890	         9.20879e+57
          1435.74520	         9.78178e+57
          1436.55150	         9.36015e+57
          1437.35780	         8.98223e+57
          1438.16410	         9.56699e+57
          1438.97040	         9.08830e+57
          1439.77670	         8.68937e+57
          1440.58300	         9.23404e+57
          1441.38930	         9.04319e+57
          1442.19560	         9.60721e+57
          1443.00190	         9.58823e+57
          1443.80820	         1.06141e+58
          1444.61450	         9.92069e+57
          1445.42080	         8.48939e+57
          1446.22710	         9.96613e+57
          1447.03340	         1.03538e+58
          1447.83970	         1.03746e+58
          1448.64600	         1.13263e+58
          1449.45230	         1.12622e+58
          1450.25860	         1.00005e+58
          1451.06490	         8.46725e+57
          1451.87120	         7.89333e+57
          1452.67750	         7.37081e+57
          1453.48380	         9.17296e+57
          1454.29010	         8.79411e+57
          1455.09640	         8.26428e+57
          1455.90270	         8.97305e+57
          1456.70900	         8.36974e+57
          1457.51530	         9.91942e+57
          1458.32160	         1.18200e+58
          1459.12790	         1.16697e+58
          1459.93420	         1.00157e+58
          1460.74050	         7.45447e+57
          1461.54680	         7.36655e+57
          1462.35310	         7.13436e+57
          1463.15940	         9.82217e+57
          1463.96570	         1.16560e+58
          1464.77200	         1.14973e+58
          1465.57830	         1.02669e+58
          1466.38460	         8.99838e+57
          1467.19090	         8.04887e+57
          1467.99720	         7.94471e+57
          1468.80350	         9.29188e+57
          1469.60980	         1.03947e+58
          1470.41610	         9.71670e+57
          1471.22240	         9.10119e+57
          1472.02870	         9.83006e+57
          1472.83500	         9.39403e+57
          1473.64130	         1.00644e+58
          1474.44760	         9.91949e+57
          1475.25390	         8.65362e+57
          1476.06020	         8.74249e+57
          1476.86650	         9.58047e+57
          1477.67280	         9.49682e+57
          1478.47910	         7.87709e+57
          1479.28540	         7.91482e+57
          1480.09170	         9.83685e+57
          1480.89800	         9.07967e+57
          1481.70430	         1.01335e+58
          1482.51060	         1.08187e+58
          1483.31690	         9.17591e+57
          1484.12320	         7.31931e+57
          1484.92950	         7.93060e+57
          1485.73580	         8.36621e+57
          1486.54210	         7.86835e+57
          1487.34840	         8.31633e+57
          1488.15470	         8.30985e+57
          1488.96100	         8.40975e+57
          1489.76730	         9.51565e+57
