#sample_322_stacked_spectrum_rest_UV-bands_median_H-alpha_noDC.txt
#median Lum: 1.71066e+42
#Rest-frame wavelength (A) | Luminosity (erg/s/A)
#
          1110.00000	         0.00000e+00
          1110.80630	        -2.61061e+59
          1111.61260	        -7.64224e+58
          1112.41890	        -1.49819e+58
          1113.22520	        -1.55125e+59
          1114.03150	         1.65572e+57
          1114.83780	         9.79893e+58
          1115.64410	        -6.77255e+57
          1116.45040	         1.99867e+59
          1117.25670	        -1.51506e+59
          1118.06300	        -3.79762e+58
          1118.86930	        -2.42054e+58
          1119.67560	         5.66749e+56
          1120.48190	        -3.88659e+58
          1121.28820	        -1.38708e+59
          1122.09450	         2.32055e+58
          1122.90080	         9.45901e+57
          1123.70710	         7.30408e+58
          1124.51340	         1.23492e+59
          1125.31970	        -1.61540e+58
          1126.12600	        -3.08817e+58
          1126.93230	        -3.82897e+58
          1127.73860	        -2.52793e+58
          1128.54490	        -2.60028e+57
          1129.35120	         2.78471e+58
          1130.15750	        -1.77993e+58
          1130.96380	        -1.37000e+58
          1131.77010	         5.81664e+58
          1132.57640	         5.44931e+58
          1133.38270	         2.05782e+58
          1134.18900	         1.13552e+58
          1134.99530	         2.92180e+58
          1135.80160	         4.97402e+57
          1136.60790	         1.06824e+58
          1137.41420	         2.18299e+58
          1138.22050	         6.00019e+58
          1139.02680	         4.18950e+58
          1139.83310	         1.88408e+58
          1140.63940	         2.76770e+56
          1141.44570	        -2.31522e+58
          1142.25200	        -1.89992e+58
          1143.05830	         2.78342e+55
          1143.86460	         1.31062e+58
          1144.67090	         2.67912e+58
          1145.47720	         2.19501e+58
          1146.28350	         1.72560e+58
          1147.08980	         1.54704e+58
          1147.89610	         1.27031e+58
          1148.70240	         1.78294e+58
          1149.50870	         2.36066e+58
          1150.31500	         8.61863e+57
          1151.12130	         2.53696e+57
          1151.92760	        -4.93702e+57
          1152.73390	         8.42468e+57
          1153.54020	         3.57796e+57
          1154.34650	         2.29179e+58
          1155.15280	         1.78316e+58
          1155.95910	         1.58981e+58
          1156.76540	         8.51501e+57
          1157.57170	         3.43943e+57
          1158.37800	         8.51161e+57
          1159.18430	        -3.86193e+57
          1159.99060	         8.35968e+57
          1160.79690	         1.07449e+58
          1161.60320	         1.55865e+58
          1162.40950	         1.21821e+58
          1163.21580	         1.74174e+58
          1164.02210	         1.84050e+58
          1164.82840	         7.70590e+57
          1165.63470	         1.34574e+58
          1166.44100	         2.59900e+58
          1167.24730	         2.26364e+58
          1168.05360	        -2.59036e+57
          1168.85990	         4.32903e+57
          1169.66620	         2.25905e+57
          1170.47250	         2.01180e+57
          1171.27880	         4.32886e+57
          1172.08510	         1.66456e+58
          1172.89140	         1.30229e+58
          1173.69770	         3.35728e+57
          1174.50400	         9.32545e+57
          1175.31030	         1.90727e+58
          1176.11660	         1.92038e+58
          1176.92290	         1.57503e+58
          1177.72920	         1.10427e+58
          1178.53550	         4.46920e+57
          1179.34180	         3.17165e+57
          1180.14810	         6.40900e+57
          1180.95440	         6.45824e+57
          1181.76070	         2.74103e+57
          1182.56700	         5.84986e+57
          1183.37330	         5.36027e+57
          1184.17960	         1.26478e+58
          1184.98590	         1.31136e+58
          1185.79220	         1.08142e+58
          1186.59850	         7.98952e+57
          1187.40480	         6.43451e+57
          1188.21110	         1.65058e+58
          1189.01740	         7.36909e+57
          1189.82370	         1.13424e+58
          1190.63000	         1.25985e+58
          1191.43630	         1.29546e+58
          1192.24260	         1.43346e+58
          1193.04890	         1.64088e+58
          1193.85520	         1.27064e+58
          1194.66150	         1.39616e+58
          1195.46780	         1.58709e+58
          1196.27410	         1.27511e+58
          1197.08040	         9.67487e+57
          1197.88670	         1.30580e+58
          1198.69300	         1.40037e+58
          1199.49930	         1.58581e+58
          1200.30560	         1.21031e+58
          1201.11190	         1.10526e+58
          1201.91820	         9.19514e+57
          1202.72450	         4.97675e+57
          1203.53080	         1.26411e+58
          1204.33710	         1.02472e+58
          1205.14340	         8.14325e+57
          1205.94970	         5.28783e+57
          1206.75600	         1.04268e+58
          1207.56230	         7.69158e+57
          1208.36860	         1.09660e+58
          1209.17490	         6.71703e+57
          1209.98120	         3.72282e+57
          1210.78750	         6.06902e+57
          1211.59380	         9.44598e+57
          1212.40010	         1.94865e+58
          1213.20640	         1.78055e+58
          1214.01270	         1.85676e+58
          1214.81900	         2.57315e+58
          1215.62530	         4.48612e+58
          1216.43160	         8.94467e+58
          1217.23790	         1.49568e+59
          1218.04420	         1.15595e+59
          1218.85050	         8.68634e+58
          1219.65680	         5.49860e+58
          1220.46310	         3.03666e+58
          1221.26940	         2.32772e+58
          1222.07570	         1.46749e+58
          1222.88200	         1.22242e+58
          1223.68830	         8.49192e+57
          1224.49460	         6.11089e+57
          1225.30090	         7.68390e+57
          1226.10720	         8.19165e+57
          1226.91350	         7.27191e+57
          1227.71980	         1.06736e+58
          1228.52610	         1.16786e+58
          1229.33240	         7.96345e+57
          1230.13870	         9.26430e+57
          1230.94500	         6.44472e+57
          1231.75130	         5.76716e+57
          1232.55760	         9.79635e+57
          1233.36390	         9.09856e+57
          1234.17020	         8.56747e+57
          1234.97650	         8.63025e+57
          1235.78280	         5.98064e+57
          1236.58910	         9.04185e+57
          1237.39540	         1.27554e+58
          1238.20170	         1.18427e+58
          1239.00800	         1.41896e+58
          1239.81430	         1.45123e+58
          1240.62060	         1.18413e+58
          1241.42690	         1.20671e+58
          1242.23320	         1.06622e+58
          1243.03950	         5.35707e+57
          1243.84580	         6.58236e+57
          1244.65210	         9.62709e+57
          1245.45840	         1.06738e+58
          1246.26470	         9.79555e+57
          1247.07100	         6.75426e+57
          1247.87730	         7.09032e+57
          1248.68360	         4.66101e+57
          1249.48990	         9.95770e+57
          1250.29620	         9.80890e+57
          1251.10250	         6.76509e+57
          1251.90880	         4.71331e+57
          1252.71510	         7.29608e+57
          1253.52140	         6.41377e+57
          1254.32770	         9.15121e+57
          1255.13400	         1.31558e+58
          1255.94030	         9.85302e+57
          1256.74660	         9.28165e+57
          1257.55290	         1.03198e+58
          1258.35920	         8.49530e+57
          1259.16550	         5.25898e+57
          1259.97180	         3.76206e+57
          1260.77810	         7.38393e+57
          1261.58440	         1.29158e+58
          1262.39070	         1.04248e+58
          1263.19700	         8.39574e+57
          1264.00330	         7.91123e+57
          1264.80960	         9.87644e+57
          1265.61590	         1.35183e+58
          1266.42220	         1.29743e+58
          1267.22850	         9.79417e+57
          1268.03480	         1.28470e+58
          1268.84110	         1.37152e+58
          1269.64740	         1.37241e+58
          1270.45370	         1.48934e+58
          1271.26000	         1.33880e+58
          1272.06630	         1.30539e+58
          1272.87260	         1.55792e+58
          1273.67890	         1.45459e+58
          1274.48520	         1.35239e+58
          1275.29150	         1.39231e+58
          1276.09780	         1.29491e+58
          1276.90410	         1.48483e+58
          1277.71040	         1.22322e+58
          1278.51670	         1.29261e+58
          1279.32300	         1.52134e+58
          1280.12930	         1.30977e+58
          1280.93560	         1.05938e+58
          1281.74190	         1.00830e+58
          1282.54820	         1.10674e+58
          1283.35450	         1.04218e+58
          1284.16080	         1.06800e+58
          1284.96710	         1.47976e+58
          1285.77340	         1.40478e+58
          1286.57970	         1.27723e+58
          1287.38600	         1.56105e+58
          1288.19230	         1.67794e+58
          1288.99860	         1.57195e+58
          1289.80490	         1.22009e+58
          1290.61120	         1.35052e+58
          1291.41750	         1.43706e+58
          1292.22380	         1.17618e+58
          1293.03010	         1.07335e+58
          1293.83640	         1.25002e+58
          1294.64270	         1.17701e+58
          1295.44900	         8.98200e+57
          1296.25530	         8.26944e+57
          1297.06160	         1.03339e+58
          1297.86790	         1.00859e+58
          1298.67420	         7.36928e+57
          1299.48050	         8.36328e+57
          1300.28680	         9.38636e+57
          1301.09310	         8.08845e+57
          1301.89940	         4.23148e+57
          1302.70570	         5.87636e+57
          1303.51200	         8.25326e+57
          1304.31830	         1.10087e+58
          1305.12460	         1.14077e+58
          1305.93090	         1.15947e+58
          1306.73720	         1.28431e+58
          1307.54350	         1.43445e+58
          1308.34980	         1.47509e+58
          1309.15610	         1.52989e+58
          1309.96240	         1.43667e+58
          1310.76870	         1.17877e+58
          1311.57500	         1.00966e+58
          1312.38130	         1.00936e+58
          1313.18760	         1.28446e+58
          1313.99390	         1.41290e+58
          1314.80020	         1.63581e+58
          1315.60650	         1.60522e+58
          1316.41280	         1.52274e+58
          1317.21910	         1.20274e+58
          1318.02540	         1.07002e+58
          1318.83170	         1.22416e+58
          1319.63800	         1.19223e+58
          1320.44430	         1.08635e+58
          1321.25060	         1.18888e+58
          1322.05690	         1.22082e+58
          1322.86320	         1.21931e+58
          1323.66950	         1.17100e+58
          1324.47580	         9.19020e+57
          1325.28210	         9.44664e+57
          1326.08840	         1.22694e+58
          1326.89470	         1.19563e+58
          1327.70100	         1.04969e+58
          1328.50730	         9.49511e+57
          1329.31360	         9.75906e+57
          1330.11990	         9.19176e+57
          1330.92620	         9.19075e+57
          1331.73250	         1.30328e+58
          1332.53880	         1.20573e+58
          1333.34510	         9.70031e+57
          1334.15140	         8.51590e+57
          1334.95770	         9.68036e+57
          1335.76400	         1.21099e+58
          1336.57030	         1.28836e+58
          1337.37660	         1.09056e+58
          1338.18290	         1.03754e+58
          1338.98920	         1.10056e+58
          1339.79550	         1.11191e+58
          1340.60180	         1.22819e+58
          1341.40810	         1.30883e+58
          1342.21440	         1.27930e+58
          1343.02070	         1.30846e+58
          1343.82700	         1.42830e+58
          1344.63330	         1.27897e+58
          1345.43960	         1.48735e+58
          1346.24590	         1.29759e+58
          1347.05220	         1.10044e+58
          1347.85850	         9.94263e+57
          1348.66480	         1.16071e+58
          1349.47110	         1.30326e+58
          1350.27740	         1.21212e+58
          1351.08370	         1.21403e+58
          1351.89000	         1.10401e+58
          1352.69630	         1.05303e+58
          1353.50260	         1.16351e+58
          1354.30890	         1.18729e+58
          1355.11520	         1.19908e+58
          1355.92150	         1.06932e+58
          1356.72780	         9.56054e+57
          1357.53410	         1.14106e+58
          1358.34040	         1.21352e+58
          1359.14670	         1.08241e+58
          1359.95300	         1.22920e+58
          1360.75930	         1.20119e+58
          1361.56560	         1.08207e+58
          1362.37190	         1.15404e+58
          1363.17820	         1.19875e+58
          1363.98450	         1.27583e+58
          1364.79080	         1.35921e+58
          1365.59710	         1.33392e+58
          1366.40340	         1.04865e+58
          1367.20970	         8.53444e+57
          1368.01600	         9.07254e+57
          1368.82230	         9.41843e+57
          1369.62860	         1.01225e+58
          1370.43490	         1.05514e+58
          1371.24120	         9.54222e+57
          1372.04750	         7.82047e+57
          1372.85380	         1.10814e+58
          1373.66010	         1.03664e+58
          1374.46640	         1.00999e+58
          1375.27270	         1.09761e+58
          1376.07900	         9.45555e+57
          1376.88530	         9.81412e+57
          1377.69160	         8.91451e+57
          1378.49790	         7.67985e+57
          1379.30420	         8.54361e+57
          1380.11050	         9.56193e+57
          1380.91680	         8.39587e+57
          1381.72310	         6.42052e+57
          1382.52940	         7.40396e+57
          1383.33570	         9.04761e+57
          1384.14200	         1.05677e+58
          1384.94830	         1.12787e+58
          1385.75460	         1.04300e+58
          1386.56090	         1.16433e+58
          1387.36720	         1.14534e+58
          1388.17350	         1.29081e+58
          1388.97980	         1.26541e+58
          1389.78610	         9.90087e+57
          1390.59240	         8.14385e+57
          1391.39870	         7.01661e+57
          1392.20500	         8.45412e+57
          1393.01130	         8.42886e+57
          1393.81760	         7.42196e+57
          1394.62390	         7.63369e+57
          1395.43020	         7.55955e+57
          1396.23650	         7.05850e+57
          1397.04280	         8.41994e+57
          1397.84910	         8.14675e+57
          1398.65540	         7.77107e+57
          1399.46170	         8.67214e+57
          1400.26800	         8.19393e+57
          1401.07430	         8.05689e+57
          1401.88060	         8.98057e+57
          1402.68690	         1.04878e+58
          1403.49320	         1.05802e+58
          1404.29950	         9.64603e+57
          1405.10580	         1.09081e+58
          1405.91210	         1.20857e+58
          1406.71840	         1.15436e+58
          1407.52470	         9.87228e+57
          1408.33100	         1.02815e+58
          1409.13730	         1.06858e+58
          1409.94360	         1.09844e+58
          1410.74990	         1.16270e+58
          1411.55620	         1.15832e+58
          1412.36250	         1.07309e+58
          1413.16880	         9.88157e+57
          1413.97510	         9.08298e+57
          1414.78140	         8.19825e+57
          1415.58770	         1.08058e+58
          1416.39400	         1.09710e+58
          1417.20030	         9.16523e+57
          1418.00660	         9.24203e+57
          1418.81290	         1.02071e+58
          1419.61920	         1.09891e+58
          1420.42550	         1.32158e+58
          1421.23180	         1.46637e+58
          1422.03810	         1.34918e+58
          1422.84440	         1.25497e+58
          1423.65070	         1.29366e+58
          1424.45700	         1.08934e+58
          1425.26330	         8.55099e+57
          1426.06960	         8.28461e+57
          1426.87590	         1.01430e+58
          1427.68220	         9.56336e+57
          1428.48850	         1.04053e+58
          1429.29480	         1.10490e+58
          1430.10110	         9.97412e+57
          1430.90740	         8.56634e+57
          1431.71370	         8.56917e+57
          1432.52000	         8.98784e+57
          1433.32630	         8.00151e+57
          1434.13260	         7.87051e+57
          1434.93890	         8.52102e+57
          1435.74520	         9.37329e+57
          1436.55150	         9.77051e+57
          1437.35780	         8.89994e+57
          1438.16410	         9.45029e+57
          1438.97040	         8.89437e+57
          1439.77670	         8.89656e+57
          1440.58300	         9.55065e+57
          1441.38930	         1.01159e+58
          1442.19560	         9.15835e+57
          1443.00190	         8.70670e+57
          1443.80820	         1.11350e+58
          1444.61450	         1.02855e+58
          1445.42080	         8.05068e+57
          1446.22710	         9.04137e+57
          1447.03340	         1.01313e+58
          1447.83970	         1.02289e+58
          1448.64600	         1.06215e+58
          1449.45230	         1.07367e+58
          1450.25860	         9.59269e+57
          1451.06490	         8.69970e+57
          1451.87120	         7.40780e+57
          1452.67750	         7.63238e+57
          1453.48380	         9.57166e+57
          1454.29010	         8.47258e+57
          1455.09640	         7.61911e+57
          1455.90270	         8.30188e+57
          1456.70900	         9.11668e+57
          1457.51530	         1.02264e+58
          1458.32160	         1.28288e+58
          1459.12790	         1.27553e+58
          1459.93420	         1.03489e+58
          1460.74050	         8.30866e+57
          1461.54680	         8.59903e+57
          1462.35310	         8.29887e+57
          1463.15940	         9.68149e+57
          1463.96570	         1.05393e+58
          1464.77200	         1.05703e+58
          1465.57830	         9.21162e+57
          1466.38460	         9.68773e+57
          1467.19090	         9.79819e+57
          1467.99720	         8.50710e+57
          1468.80350	         8.37225e+57
          1469.60980	         9.68701e+57
          1470.41610	         1.15430e+58
          1471.22240	         1.02002e+58
          1472.02870	         1.07590e+58
          1472.83500	         1.01367e+58
          1473.64130	         9.75280e+57
          1474.44760	         9.63301e+57
          1475.25390	         9.58852e+57
          1476.06020	         8.81480e+57
          1476.86650	         7.37469e+57
          1477.67280	         8.05114e+57
          1478.47910	         7.47352e+57
          1479.28540	         6.81502e+57
          1480.09170	         8.68808e+57
          1480.89800	         9.42731e+57
          1481.70430	         9.04139e+57
          1482.51060	         7.90455e+57
          1483.31690	         6.26141e+57
          1484.12320	         7.25459e+57
          1484.92950	         8.20771e+57
          1485.73580	         7.58261e+57
          1486.54210	         8.19003e+57
          1487.34840	         9.37091e+57
          1488.15470	         8.10953e+57
          1488.96100	         7.96375e+57
          1489.76730	         9.43591e+57
