#sample_451_stacked_spectrum_rest_UV-bands_median_H-alpha_noDC.txt
#median Lum: 1.69711e+42
#Rest-frame wavelength (A) | Luminosity (erg/s/A)
#
          1110.00000	         0.00000e+00
          1110.80630	         4.30263e+58
          1111.61260	        -4.09760e+58
          1112.41890	        -9.57722e+56
          1113.22520	        -1.44221e+59
          1114.03150	        -1.97223e+59
          1114.83780	         1.37272e+59
          1115.64410	         8.36231e+58
          1116.45040	         2.13582e+59
          1117.25670	         1.00126e+59
          1118.06300	         1.22720e+59
          1118.86930	         1.89878e+58
          1119.67560	         8.06782e+58
          1120.48190	        -6.68367e+58
          1121.28820	        -1.00749e+59
          1122.09450	         3.66268e+58
          1122.90080	         1.75130e+58
          1123.70710	         7.05604e+58
          1124.51340	         5.02914e+58
          1125.31970	        -9.73020e+57
          1126.12600	        -3.72022e+58
          1126.93230	        -2.53711e+58
          1127.73860	        -9.09119e+58
          1128.54490	        -2.97677e+58
          1129.35120	         2.07981e+58
          1130.15750	        -1.60535e+58
          1130.96380	         7.17723e+56
          1131.77010	         4.98020e+58
          1132.57640	         2.78947e+58
          1133.38270	         1.38845e+58
          1134.18900	         2.64705e+58
          1134.99530	         3.03535e+58
          1135.80160	         1.86275e+58
          1136.60790	        -1.01030e+58
          1137.41420	        -9.68990e+57
          1138.22050	         1.65165e+58
          1139.02680	         1.30604e+58
          1139.83310	         1.11719e+58
          1140.63940	         2.27809e+58
          1141.44570	        -1.98441e+58
          1142.25200	        -2.87521e+58
          1143.05830	         7.78622e+57
          1143.86460	         1.59750e+58
          1144.67090	         1.84391e+58
          1145.47720	         2.88494e+58
          1146.28350	         2.89082e+57
          1147.08980	         1.30841e+58
          1147.89610	         1.77130e+58
          1148.70240	         3.50575e+58
          1149.50870	         2.59737e+58
          1150.31500	         1.03366e+58
          1151.12130	         7.72464e+57
          1151.92760	         1.76152e+57
          1152.73390	        -7.21170e+57
          1153.54020	        -5.47121e+56
          1154.34650	         2.48615e+58
          1155.15280	         1.90690e+58
          1155.95910	         2.39894e+58
          1156.76540	         1.61507e+58
          1157.57170	         4.71827e+57
          1158.37800	        -1.00492e+58
          1159.18430	        -4.14892e+57
          1159.99060	         3.14491e+57
          1160.79690	         7.68029e+57
          1161.60320	         1.28030e+58
          1162.40950	         1.61319e+58
          1163.21580	         1.55480e+58
          1164.02210	         6.18287e+57
          1164.82840	         4.20726e+57
          1165.63470	         2.24231e+58
          1166.44100	         3.02376e+58
          1167.24730	         1.72996e+58
          1168.05360	         4.75391e+57
          1168.85990	         4.34312e+56
          1169.66620	         2.02367e+57
          1170.47250	         1.64362e+58
          1171.27880	         1.93050e+58
          1172.08510	         1.83471e+58
          1172.89140	         1.56827e+58
          1173.69770	         2.26658e+57
          1174.50400	         1.15953e+58
          1175.31030	         2.01126e+58
          1176.11660	         1.82080e+58
          1176.92290	         1.20694e+58
          1177.72920	         1.31067e+58
          1178.53550	         8.38052e+57
          1179.34180	        -1.81524e+56
          1180.14810	         2.84252e+57
          1180.95440	         1.07657e+58
          1181.76070	         1.16100e+58
          1182.56700	         8.84355e+57
          1183.37330	         8.51084e+57
          1184.17960	         1.33620e+58
          1184.98590	         6.88222e+57
          1185.79220	         7.72787e+57
          1186.59850	         8.52681e+57
          1187.40480	         1.09684e+58
          1188.21110	         1.41544e+58
          1189.01740	         5.79818e+57
          1189.82370	         7.95306e+57
          1190.63000	         1.05947e+58
          1191.43630	         1.35802e+58
          1192.24260	         8.12628e+57
          1193.04890	         1.16173e+58
          1193.85520	         9.72661e+57
          1194.66150	         9.38399e+57
          1195.46780	         1.10166e+58
          1196.27410	         1.77268e+58
          1197.08040	         1.08007e+58
          1197.88670	         1.59601e+58
          1198.69300	         1.91910e+58
          1199.49930	         1.53310e+58
          1200.30560	         8.46931e+57
          1201.11190	         7.85956e+57
          1201.91820	         1.12005e+58
          1202.72450	         1.08167e+58
          1203.53080	         1.89477e+58
          1204.33710	         1.25672e+58
          1205.14340	         6.13706e+57
          1205.94970	         9.27354e+57
          1206.75600	         1.28690e+58
          1207.56230	         5.53007e+57
          1208.36860	         7.85949e+57
          1209.17490	         6.76754e+56
          1209.98120	         1.32210e+57
          1210.78750	         5.85190e+57
          1211.59380	         1.34805e+58
          1212.40010	         1.83900e+58
          1213.20640	         1.76994e+58
          1214.01270	         1.87960e+58
          1214.81900	         2.55254e+58
          1215.62530	         4.64490e+58
          1216.43160	         9.22719e+58
          1217.23790	         1.50852e+59
          1218.04420	         1.11115e+59
          1218.85050	         8.26190e+58
          1219.65680	         5.81184e+58
          1220.46310	         3.55924e+58
          1221.26940	         2.17900e+58
          1222.07570	         1.15511e+58
          1222.88200	         1.11657e+58
          1223.68830	         1.28188e+58
          1224.49460	         9.18252e+57
          1225.30090	         5.99136e+57
          1226.10720	         4.69238e+57
          1226.91350	         3.06751e+57
          1227.71980	         7.75813e+57
          1228.52610	         1.25637e+58
          1229.33240	         1.18790e+58
          1230.13870	         1.04868e+58
          1230.94500	         9.51667e+57
          1231.75130	         6.71725e+57
          1232.55760	         1.07979e+58
          1233.36390	         1.10863e+58
          1234.17020	         8.43501e+57
          1234.97650	         9.90021e+57
          1235.78280	         1.02296e+58
          1236.58910	         8.12137e+57
          1237.39540	         9.93601e+57
          1238.20170	         1.10756e+58
          1239.00800	         1.33505e+58
          1239.81430	         1.66512e+58
          1240.62060	         1.20080e+58
          1241.42690	         1.00744e+58
          1242.23320	         1.08861e+58
          1243.03950	         7.89856e+57
          1243.84580	         7.75467e+57
          1244.65210	         1.01850e+58
          1245.45840	         9.96460e+57
          1246.26470	         8.72505e+57
          1247.07100	         6.32271e+57
          1247.87730	         4.67391e+57
          1248.68360	         4.20392e+57
          1249.48990	         7.99180e+57
          1250.29620	         1.15486e+58
          1251.10250	         9.00281e+57
          1251.90880	         6.43222e+57
          1252.71510	         5.54985e+57
          1253.52140	         6.94813e+57
          1254.32770	         9.13817e+57
          1255.13400	         1.27204e+58
          1255.94030	         1.28331e+58
          1256.74660	         1.12881e+58
          1257.55290	         1.10128e+58
          1258.35920	         7.20915e+57
          1259.16550	         4.95712e+57
          1259.97180	         6.84516e+57
          1260.77810	         1.16910e+58
          1261.58440	         1.33998e+58
          1262.39070	         8.48479e+57
          1263.19700	         8.55974e+57
          1264.00330	         9.47398e+57
          1264.80960	         1.21665e+58
          1265.61590	         1.50893e+58
          1266.42220	         1.29842e+58
          1267.22850	         1.02048e+58
          1268.03480	         1.30075e+58
          1268.84110	         1.35188e+58
          1269.64740	         1.25997e+58
          1270.45370	         1.46972e+58
          1271.26000	         1.46739e+58
          1272.06630	         1.22315e+58
          1272.87260	         1.28254e+58
          1273.67890	         1.46319e+58
          1274.48520	         1.33659e+58
          1275.29150	         1.28411e+58
          1276.09780	         1.10961e+58
          1276.90410	         1.32469e+58
          1277.71040	         1.19807e+58
          1278.51670	         1.04527e+58
          1279.32300	         1.22575e+58
          1280.12930	         1.19225e+58
          1280.93560	         1.10317e+58
          1281.74190	         1.23702e+58
          1282.54820	         1.22823e+58
          1283.35450	         1.10925e+58
          1284.16080	         1.01779e+58
          1284.96710	         1.15059e+58
          1285.77340	         1.31767e+58
          1286.57970	         1.29079e+58
          1287.38600	         1.55606e+58
          1288.19230	         1.81105e+58
          1288.99860	         1.46123e+58
          1289.80490	         9.26824e+57
          1290.61120	         1.10743e+58
          1291.41750	         1.28174e+58
          1292.22380	         1.09454e+58
          1293.03010	         9.82146e+57
          1293.83640	         1.03250e+58
          1294.64270	         8.52701e+57
          1295.44900	         4.94373e+57
          1296.25530	         5.01196e+57
          1297.06160	         8.42494e+57
          1297.86790	         8.82603e+57
          1298.67420	         1.01449e+58
          1299.48050	         9.75950e+57
          1300.28680	         9.82291e+57
          1301.09310	         8.13575e+57
          1301.89940	         4.94547e+57
          1302.70570	         6.00090e+57
          1303.51200	         7.66385e+57
          1304.31830	         8.77511e+57
          1305.12460	         1.12005e+58
          1305.93090	         1.30454e+58
          1306.73720	         1.38109e+58
          1307.54350	         1.35710e+58
          1308.34980	         1.41839e+58
          1309.15610	         1.60295e+58
          1309.96240	         1.70437e+58
          1310.76870	         1.40581e+58
          1311.57500	         1.01905e+58
          1312.38130	         9.52824e+57
          1313.18760	         1.12965e+58
          1313.99390	         1.36958e+58
          1314.80020	         1.65689e+58
          1315.60650	         1.59753e+58
          1316.41280	         1.12540e+58
          1317.21910	         9.50475e+57
          1318.02540	         1.05745e+58
          1318.83170	         1.07946e+58
          1319.63800	         1.06457e+58
          1320.44430	         1.01810e+58
          1321.25060	         1.17970e+58
          1322.05690	         1.16203e+58
          1322.86320	         1.10541e+58
          1323.66950	         9.17443e+57
          1324.47580	         9.00126e+57
          1325.28210	         1.01026e+58
          1326.08840	         1.10751e+58
          1326.89470	         1.21499e+58
          1327.70100	         1.05084e+58
          1328.50730	         7.26752e+57
          1329.31360	         8.83005e+57
          1330.11990	         1.00536e+58
          1330.92620	         1.02565e+58
          1331.73250	         1.12737e+58
          1332.53880	         1.10678e+58
          1333.34510	         1.03453e+58
          1334.15140	         8.49919e+57
          1334.95770	         8.79793e+57
          1335.76400	         1.05321e+58
          1336.57030	         1.10017e+58
          1337.37660	         1.02947e+58
          1338.18290	         1.00105e+58
          1338.98920	         1.07492e+58
          1339.79550	         1.11803e+58
          1340.60180	         1.23538e+58
          1341.40810	         1.23226e+58
          1342.21440	         1.04002e+58
          1343.02070	         1.11484e+58
          1343.82700	         1.38950e+58
          1344.63330	         1.47745e+58
          1345.43960	         1.36225e+58
          1346.24590	         1.17663e+58
          1347.05220	         1.24511e+58
          1347.85850	         1.13909e+58
          1348.66480	         1.14785e+58
          1349.47110	         1.07679e+58
          1350.27740	         1.07228e+58
          1351.08370	         1.27187e+58
          1351.89000	         1.18629e+58
          1352.69630	         1.10494e+58
          1353.50260	         1.23138e+58
          1354.30890	         1.19201e+58
          1355.11520	         1.10199e+58
          1355.92150	         9.87648e+57
          1356.72780	         1.03524e+58
          1357.53410	         1.07364e+58
          1358.34040	         1.11971e+58
          1359.14670	         1.13923e+58
          1359.95300	         1.13965e+58
          1360.75930	         1.12093e+58
          1361.56560	         1.11803e+58
          1362.37190	         1.21774e+58
          1363.17820	         1.16892e+58
          1363.98450	         1.13691e+58
          1364.79080	         1.28239e+58
          1365.59710	         1.37485e+58
          1366.40340	         1.17819e+58
          1367.20970	         9.00216e+57
          1368.01600	         7.93935e+57
          1368.82230	         7.54548e+57
          1369.62860	         7.95326e+57
          1370.43490	         8.51437e+57
          1371.24120	         9.65228e+57
          1372.04750	         8.71529e+57
          1372.85380	         1.14419e+58
          1373.66010	         1.05716e+58
          1374.46640	         9.08920e+57
          1375.27270	         1.07298e+58
          1376.07900	         9.84371e+57
          1376.88530	         8.32176e+57
          1377.69160	         8.37785e+57
          1378.49790	         6.71135e+57
          1379.30420	         6.48162e+57
          1380.11050	         8.61315e+57
          1380.91680	         9.09116e+57
          1381.72310	         8.01723e+57
          1382.52940	         8.44508e+57
          1383.33570	         9.32863e+57
          1384.14200	         9.35455e+57
          1384.94830	         1.03481e+58
          1385.75460	         1.03051e+58
          1386.56090	         1.03443e+58
          1387.36720	         1.13479e+58
          1388.17350	         1.31648e+58
          1388.97980	         1.14118e+58
          1389.78610	         1.03609e+58
          1390.59240	         8.14374e+57
          1391.39870	         6.28334e+57
          1392.20500	         8.15108e+57
          1393.01130	         7.73467e+57
          1393.81760	         7.47714e+57
          1394.62390	         8.46725e+57
          1395.43020	         6.26644e+57
          1396.23650	         5.74059e+57
          1397.04280	         6.58265e+57
          1397.84910	         8.64472e+57
          1398.65540	         8.68122e+57
          1399.46170	         9.78755e+57
          1400.26800	         9.11688e+57
          1401.07430	         6.91027e+57
          1401.88060	         6.09296e+57
          1402.68690	         8.33357e+57
          1403.49320	         9.63029e+57
          1404.29950	         9.19532e+57
          1405.10580	         9.95709e+57
          1405.91210	         1.07398e+58
          1406.71840	         1.14702e+58
          1407.52470	         1.03813e+58
          1408.33100	         9.88531e+57
          1409.13730	         1.19375e+58
          1409.94360	         1.20029e+58
          1410.74990	         1.07125e+58
          1411.55620	         1.00012e+58
          1412.36250	         9.07227e+57
          1413.16880	         8.80489e+57
          1413.97510	         8.78011e+57
          1414.78140	         8.85904e+57
          1415.58770	         9.80822e+57
          1416.39400	         9.80158e+57
          1417.20030	         9.93634e+57
          1418.00660	         1.00264e+58
          1418.81290	         1.04391e+58
          1419.61920	         1.10715e+58
          1420.42550	         1.30853e+58
          1421.23180	         1.30494e+58
          1422.03810	         1.21159e+58
          1422.84440	         1.13948e+58
          1423.65070	         1.25930e+58
          1424.45700	         1.08777e+58
          1425.26330	         8.89427e+57
          1426.06960	         9.67099e+57
          1426.87590	         1.00190e+58
          1427.68220	         9.42609e+57
          1428.48850	         1.05478e+58
          1429.29480	         1.02723e+58
          1430.10110	         1.00961e+58
          1430.90740	         1.03594e+58
          1431.71370	         9.62480e+57
          1432.52000	         8.40287e+57
          1433.32630	         7.98062e+57
          1434.13260	         6.86968e+57
          1434.93890	         7.20979e+57
          1435.74520	         8.62365e+57
          1436.55150	         8.77268e+57
          1437.35780	         8.70725e+57
          1438.16410	         9.48492e+57
          1438.97040	         8.97345e+57
          1439.77670	         8.68435e+57
          1440.58300	         8.99149e+57
          1441.38930	         9.09209e+57
          1442.19560	         9.97071e+57
          1443.00190	         9.94788e+57
          1443.80820	         1.05298e+58
          1444.61450	         9.68606e+57
          1445.42080	         9.52028e+57
          1446.22710	         1.13489e+58
          1447.03340	         1.08734e+58
          1447.83970	         1.03296e+58
          1448.64600	         9.62634e+57
          1449.45230	         9.65792e+57
          1450.25860	         1.10417e+58
          1451.06490	         1.01570e+58
          1451.87120	         8.70332e+57
          1452.67750	         8.28593e+57
          1453.48380	         9.16343e+57
          1454.29010	         7.98918e+57
          1455.09640	         7.84529e+57
          1455.90270	         8.81215e+57
          1456.70900	         8.99626e+57
          1457.51530	         9.82896e+57
          1458.32160	         1.19589e+58
          1459.12790	         1.05461e+58
          1459.93420	         9.65916e+57
          1460.74050	         8.36382e+57
          1461.54680	         8.20034e+57
          1462.35310	         8.35560e+57
          1463.15940	         1.03405e+58
          1463.96570	         1.13259e+58
          1464.77200	         1.16464e+58
          1465.57830	         1.13369e+58
          1466.38460	         9.60323e+57
          1467.19090	         8.65612e+57
          1467.99720	         8.16179e+57
          1468.80350	         9.18122e+57
          1469.60980	         9.72830e+57
          1470.41610	         1.13312e+58
          1471.22240	         1.00570e+58
          1472.02870	         8.91920e+57
          1472.83500	         8.63033e+57
          1473.64130	         9.53935e+57
          1474.44760	         9.25758e+57
          1475.25390	         8.70544e+57
          1476.06020	         8.30839e+57
          1476.86650	         8.13702e+57
          1477.67280	         7.84979e+57
          1478.47910	         6.26125e+57
          1479.28540	         6.19574e+57
          1480.09170	         8.17125e+57
          1480.89800	         8.33047e+57
          1481.70430	         7.94511e+57
          1482.51060	         7.29128e+57
          1483.31690	         7.17142e+57
          1484.12320	         6.97208e+57
          1484.92950	         7.32670e+57
          1485.73580	         8.04030e+57
          1486.54210	         7.97122e+57
          1487.34840	         8.14568e+57
          1488.15470	         7.78461e+57
          1488.96100	         8.13489e+57
          1489.76730	         9.28249e+57
