#sample_108_stacked_spectrum_rest_UV-bands_median_H-alpha_noDC.txt
#median Lum: 1.67662e+42
#Rest-frame wavelength (A) | Luminosity (erg/s/A)
#
          1110.00000	         0.00000e+00
          1110.80630	         2.04580e+59
          1111.61260	         1.51307e+59
          1112.41890	        -2.66440e+58
          1113.22520	        -1.44429e+57
          1114.03150	        -7.23055e+58
          1114.83780	         2.16145e+59
          1115.64410	         1.40203e+59
          1116.45040	         1.76572e+59
          1117.25670	         3.22436e+57
          1118.06300	         1.69710e+59
          1118.86930	        -4.59529e+58
          1119.67560	         1.32384e+59
          1120.48190	        -6.35429e+57
          1121.28820	        -1.54809e+59
          1122.09450	         5.24031e+57
          1122.90080	         1.36640e+58
          1123.70710	         7.43712e+58
          1124.51340	         7.18149e+58
          1125.31970	         9.14883e+57
          1126.12600	        -5.74207e+58
          1126.93230	        -4.18878e+58
          1127.73860	         3.70123e+57
          1128.54490	         1.81096e+58
          1129.35120	         4.17167e+58
          1130.15750	        -7.41738e+57
          1130.96380	        -3.27108e+58
          1131.77010	         5.58404e+58
          1132.57640	         4.83794e+58
          1133.38270	         2.26170e+58
          1134.18900	         1.62790e+58
          1134.99530	         2.65730e+56
          1135.80160	         4.87430e+58
          1136.60790	         2.41803e+58
          1137.41420	        -1.50449e+58
          1138.22050	         3.42554e+58
          1139.02680	         8.58214e+57
          1139.83310	        -4.29502e+57
          1140.63940	         2.63220e+58
          1141.44570	        -2.11890e+58
          1142.25200	        -1.47794e+58
          1143.05830	        -4.40013e+56
          1143.86460	         1.36875e+58
          1144.67090	         2.02393e+58
          1145.47720	         1.25409e+58
          1146.28350	         2.52859e+58
          1147.08980	         6.46173e+57
          1147.89610	         1.40427e+58
          1148.70240	         2.54297e+58
          1149.50870	         1.90594e+58
          1150.31500	         1.09786e+58
          1151.12130	         1.51569e+58
          1151.92760	         3.01911e+57
          1152.73390	         6.40221e+57
          1153.54020	         8.11408e+57
          1154.34650	         2.34354e+58
          1155.15280	         1.75018e+58
          1155.95910	         5.43188e+57
          1156.76540	         9.56463e+56
          1157.57170	        -6.17280e+56
          1158.37800	        -2.35834e+57
          1159.18430	        -7.54831e+57
          1159.99060	         6.25113e+57
          1160.79690	        -5.04307e+57
          1161.60320	         5.93635e+57
          1162.40950	         1.48995e+58
          1163.21580	         2.12399e+58
          1164.02210	         1.07734e+58
          1164.82840	         1.05267e+58
          1165.63470	         1.94876e+58
          1166.44100	         3.36792e+58
          1167.24730	         2.02928e+58
          1168.05360	         7.22140e+57
          1168.85990	         7.54297e+57
          1169.66620	         9.50424e+57
          1170.47250	         1.37410e+58
          1171.27880	         1.15269e+58
          1172.08510	         1.92943e+58
          1172.89140	         1.35307e+58
          1173.69770	         1.08341e+58
          1174.50400	         1.23429e+58
          1175.31030	         1.66878e+58
          1176.11660	         1.64970e+58
          1176.92290	         1.85526e+58
          1177.72920	         1.29000e+58
          1178.53550	         5.04502e+57
          1179.34180	         3.84136e+57
          1180.14810	         1.03272e+58
          1180.95440	         1.26422e+58
          1181.76070	         1.16188e+58
          1182.56700	         8.50424e+57
          1183.37330	         4.25973e+57
          1184.17960	         8.69061e+57
          1184.98590	         1.06006e+58
          1185.79220	         7.88851e+57
          1186.59850	         1.15481e+58
          1187.40480	         7.19670e+57
          1188.21110	         8.71862e+57
          1189.01740	         1.06156e+58
          1189.82370	         9.26743e+57
          1190.63000	         1.26738e+58
          1191.43630	         1.36764e+58
          1192.24260	         1.28159e+58
          1193.04890	         1.48035e+58
          1193.85520	         1.30027e+58
          1194.66150	         2.06438e+57
          1195.46780	         1.20053e+58
          1196.27410	         1.75092e+58
          1197.08040	         5.43724e+57
          1197.88670	         1.34443e+58
          1198.69300	         1.73104e+58
          1199.49930	         1.54119e+58
          1200.30560	         1.01042e+58
          1201.11190	         9.50080e+57
          1201.91820	         9.51864e+57
          1202.72450	         4.70754e+57
          1203.53080	         1.46525e+58
          1204.33710	         8.47286e+57
          1205.14340	         6.74291e+57
          1205.94970	         7.79359e+57
          1206.75600	         7.62466e+57
          1207.56230	         1.00014e+58
          1208.36860	         1.15224e+58
          1209.17490	         2.79527e+57
          1209.98120	         7.45350e+57
          1210.78750	         7.41360e+57
          1211.59380	         1.43594e+58
          1212.40010	         1.61382e+58
          1213.20640	         2.12826e+58
          1214.01270	         2.13921e+58
          1214.81900	         2.64221e+58
          1215.62530	         4.61837e+58
          1216.43160	         9.17108e+58
          1217.23790	         1.50349e+59
          1218.04420	         1.15733e+59
          1218.85050	         9.03252e+58
          1219.65680	         5.88554e+58
          1220.46310	         2.99314e+58
          1221.26940	         2.13231e+58
          1222.07570	         1.24265e+58
          1222.88200	         9.14456e+57
          1223.68830	         9.88547e+57
          1224.49460	         6.23487e+57
          1225.30090	         6.99156e+57
          1226.10720	         6.42984e+57
          1226.91350	         6.53655e+57
          1227.71980	         1.12180e+58
          1228.52610	         1.59760e+58
          1229.33240	         9.58474e+57
          1230.13870	         8.07849e+57
          1230.94500	         6.74238e+57
          1231.75130	         6.82580e+57
          1232.55760	         1.00686e+58
          1233.36390	         1.09857e+58
          1234.17020	         9.08453e+57
          1234.97650	         6.54052e+57
          1235.78280	         6.75829e+57
          1236.58910	         8.12956e+57
          1237.39540	         1.15842e+58
          1238.20170	         1.18137e+58
          1239.00800	         1.22588e+58
          1239.81430	         1.25833e+58
          1240.62060	         8.69495e+57
          1241.42690	         8.40486e+57
          1242.23320	         9.95470e+57
          1243.03950	         7.88496e+57
          1243.84580	         6.99682e+57
          1244.65210	         1.01600e+58
          1245.45840	         8.58677e+57
          1246.26470	         7.16755e+57
          1247.07100	         9.00706e+57
          1247.87730	         4.75647e+57
          1248.68360	         3.02072e+57
          1249.48990	         8.11780e+57
          1250.29620	         1.25017e+58
          1251.10250	         8.22195e+57
          1251.90880	         4.20014e+57
          1252.71510	         6.80425e+57
          1253.52140	         9.16046e+57
          1254.32770	         1.19948e+58
          1255.13400	         1.37731e+58
          1255.94030	         1.14560e+58
          1256.74660	         8.10540e+57
          1257.55290	         9.83259e+57
          1258.35920	         9.00500e+57
          1259.16550	         6.76163e+57
          1259.97180	         5.56148e+57
          1260.77810	         9.22617e+57
          1261.58440	         1.20891e+58
          1262.39070	         8.83803e+57
          1263.19700	         7.94673e+57
          1264.00330	         9.01132e+57
          1264.80960	         1.11704e+58
          1265.61590	         1.19730e+58
          1266.42220	         1.07581e+58
          1267.22850	         1.07527e+58
          1268.03480	         1.44184e+58
          1268.84110	         1.43681e+58
          1269.64740	         1.15580e+58
          1270.45370	         1.17551e+58
          1271.26000	         1.15576e+58
          1272.06630	         1.07709e+58
          1272.87260	         1.24402e+58
          1273.67890	         1.27605e+58
          1274.48520	         1.44932e+58
          1275.29150	         1.52000e+58
          1276.09780	         1.45429e+58
          1276.90410	         1.41931e+58
          1277.71040	         1.19854e+58
          1278.51670	         1.13509e+58
          1279.32300	         1.27339e+58
          1280.12930	         1.25862e+58
          1280.93560	         1.09126e+58
          1281.74190	         1.12373e+58
          1282.54820	         1.16234e+58
          1283.35450	         1.14551e+58
          1284.16080	         1.14520e+58
          1284.96710	         1.13444e+58
          1285.77340	         1.09112e+58
          1286.57970	         1.01876e+58
          1287.38600	         1.42494e+58
          1288.19230	         1.69841e+58
          1288.99860	         1.36130e+58
          1289.80490	         1.05596e+58
          1290.61120	         1.17065e+58
          1291.41750	         1.24798e+58
          1292.22380	         1.01395e+58
          1293.03010	         9.88722e+57
          1293.83640	         1.07586e+58
          1294.64270	         1.11898e+58
          1295.44900	         7.90114e+57
          1296.25530	         8.28465e+57
          1297.06160	         1.06489e+58
          1297.86790	         8.74788e+57
          1298.67420	         8.41933e+57
          1299.48050	         1.03901e+58
          1300.28680	         1.14202e+58
          1301.09310	         8.23826e+57
          1301.89940	         3.26466e+57
          1302.70570	         4.46095e+57
          1303.51200	         7.06454e+57
          1304.31830	         1.09085e+58
          1305.12460	         1.25168e+58
          1305.93090	         1.20759e+58
          1306.73720	         1.26483e+58
          1307.54350	         1.44506e+58
          1308.34980	         1.58573e+58
          1309.15610	         1.36346e+58
          1309.96240	         1.39357e+58
          1310.76870	         1.13716e+58
          1311.57500	         9.92602e+57
          1312.38130	         1.06178e+58
          1313.18760	         1.33664e+58
          1313.99390	         1.86228e+58
          1314.80020	         1.84836e+58
          1315.60650	         1.54504e+58
          1316.41280	         1.31420e+58
          1317.21910	         1.10496e+58
          1318.02540	         9.93848e+57
          1318.83170	         1.20308e+58
          1319.63800	         1.30835e+58
          1320.44430	         1.06244e+58
          1321.25060	         1.00931e+58
          1322.05690	         1.14627e+58
          1322.86320	         1.10986e+58
          1323.66950	         9.40470e+57
          1324.47580	         8.71935e+57
          1325.28210	         1.03819e+58
          1326.08840	         1.01151e+58
          1326.89470	         1.14768e+58
          1327.70100	         1.07002e+58
          1328.50730	         8.00301e+57
          1329.31360	         9.13476e+57
          1330.11990	         9.82532e+57
          1330.92620	         9.39825e+57
          1331.73250	         9.68492e+57
          1332.53880	         9.48434e+57
          1333.34510	         9.62049e+57
          1334.15140	         8.98307e+57
          1334.95770	         9.05172e+57
          1335.76400	         1.13541e+58
          1336.57030	         1.10205e+58
          1337.37660	         1.01800e+58
          1338.18290	         1.18919e+58
          1338.98920	         1.15992e+58
          1339.79550	         1.15045e+58
          1340.60180	         1.30131e+58
          1341.40810	         1.36618e+58
          1342.21440	         1.27668e+58
          1343.02070	         1.23601e+58
          1343.82700	         1.35050e+58
          1344.63330	         1.38219e+58
          1345.43960	         1.42430e+58
          1346.24590	         1.16053e+58
          1347.05220	         1.27336e+58
          1347.85850	         1.12777e+58
          1348.66480	         1.10100e+58
          1349.47110	         1.30982e+58
          1350.27740	         1.17515e+58
          1351.08370	         1.11948e+58
          1351.89000	         1.22638e+58
          1352.69630	         1.15579e+58
          1353.50260	         1.16398e+58
          1354.30890	         1.22526e+58
          1355.11520	         1.19408e+58
          1355.92150	         1.09928e+58
          1356.72780	         1.05075e+58
          1357.53410	         1.09689e+58
          1358.34040	         1.13511e+58
          1359.14670	         1.07792e+58
          1359.95300	         1.01943e+58
          1360.75930	         1.07484e+58
          1361.56560	         1.14371e+58
          1362.37190	         1.24371e+58
          1363.17820	         1.07671e+58
          1363.98450	         1.10530e+58
          1364.79080	         1.22928e+58
          1365.59710	         1.34212e+58
          1366.40340	         1.32811e+58
          1367.20970	         1.09205e+58
          1368.01600	         8.52468e+57
          1368.82230	         8.55681e+57
          1369.62860	         1.03976e+58
          1370.43490	         9.04243e+57
          1371.24120	         9.45865e+57
          1372.04750	         8.87941e+57
          1372.85380	         9.75729e+57
          1373.66010	         1.02997e+58
          1374.46640	         9.92576e+57
          1375.27270	         1.04957e+58
          1376.07900	         9.60724e+57
          1376.88530	         9.79714e+57
          1377.69160	         9.24410e+57
          1378.49790	         7.67709e+57
          1379.30420	         7.75413e+57
          1380.11050	         8.66826e+57
          1380.91680	         8.87662e+57
          1381.72310	         8.43554e+57
          1382.52940	         8.17549e+57
          1383.33570	         7.31039e+57
          1384.14200	         8.84911e+57
          1384.94830	         1.04203e+58
          1385.75460	         1.04612e+58
          1386.56090	         1.05386e+58
          1387.36720	         1.23347e+58
          1388.17350	         1.52456e+58
          1388.97980	         1.21155e+58
          1389.78610	         7.60425e+57
          1390.59240	         7.63162e+57
          1391.39870	         7.20714e+57
          1392.20500	         8.65478e+57
          1393.01130	         8.51689e+57
          1393.81760	         6.81687e+57
          1394.62390	         7.39654e+57
          1395.43020	         7.03214e+57
          1396.23650	         6.44199e+57
          1397.04280	         6.29574e+57
          1397.84910	         8.08453e+57
          1398.65540	         9.35468e+57
          1399.46170	         1.05382e+58
          1400.26800	         9.36128e+57
          1401.07430	         7.04928e+57
          1401.88060	         7.69646e+57
          1402.68690	         9.46905e+57
          1403.49320	         1.00537e+58
          1404.29950	         1.04089e+58
          1405.10580	         1.08355e+58
          1405.91210	         1.16155e+58
          1406.71840	         1.14416e+58
          1407.52470	         1.03331e+58
          1408.33100	         9.64682e+57
          1409.13730	         1.14596e+58
          1409.94360	         1.29584e+58
          1410.74990	         1.28482e+58
          1411.55620	         1.19429e+58
          1412.36250	         9.64877e+57
          1413.16880	         8.02231e+57
          1413.97510	         7.54620e+57
          1414.78140	         8.64301e+57
          1415.58770	         9.99586e+57
          1416.39400	         1.12958e+58
          1417.20030	         1.20589e+58
          1418.00660	         1.17193e+58
          1418.81290	         1.18944e+58
          1419.61920	         1.08354e+58
          1420.42550	         1.16812e+58
          1421.23180	         1.40157e+58
          1422.03810	         1.30964e+58
          1422.84440	         1.25383e+58
          1423.65070	         1.28756e+58
          1424.45700	         1.12901e+58
          1425.26330	         8.99995e+57
          1426.06960	         9.07312e+57
          1426.87590	         1.07421e+58
          1427.68220	         1.06146e+58
          1428.48850	         1.08558e+58
          1429.29480	         1.17145e+58
          1430.10110	         1.10465e+58
          1430.90740	         8.84103e+57
          1431.71370	         9.44657e+57
          1432.52000	         9.17479e+57
          1433.32630	         8.09735e+57
          1434.13260	         8.26339e+57
          1434.93890	         8.63124e+57
          1435.74520	         9.98261e+57
          1436.55150	         1.02093e+58
          1437.35780	         8.97941e+57
          1438.16410	         9.80122e+57
          1438.97040	         9.40078e+57
          1439.77670	         8.94428e+57
          1440.58300	         9.30036e+57
          1441.38930	         9.09392e+57
          1442.19560	         8.51021e+57
          1443.00190	         1.03443e+58
          1443.80820	         1.19364e+58
          1444.61450	         1.08276e+58
          1445.42080	         8.62894e+57
          1446.22710	         1.04983e+58
          1447.03340	         1.09600e+58
          1447.83970	         1.06927e+58
          1448.64600	         1.13844e+58
          1449.45230	         9.95447e+57
          1450.25860	         9.00213e+57
          1451.06490	         8.50186e+57
          1451.87120	         7.83139e+57
          1452.67750	         8.07385e+57
          1453.48380	         8.56018e+57
          1454.29010	         8.02500e+57
          1455.09640	         7.91487e+57
          1455.90270	         9.80364e+57
          1456.70900	         8.42403e+57
          1457.51530	         8.71511e+57
          1458.32160	         1.28739e+58
          1459.12790	         1.34498e+58
          1459.93420	         1.10569e+58
          1460.74050	         8.08383e+57
          1461.54680	         8.41083e+57
          1462.35310	         7.86581e+57
          1463.15940	         9.04181e+57
          1463.96570	         1.15131e+58
          1464.77200	         1.18538e+58
          1465.57830	         1.01098e+58
          1466.38460	         9.61397e+57
          1467.19090	         9.17025e+57
          1467.99720	         8.12282e+57
          1468.80350	         8.17296e+57
          1469.60980	         1.02732e+58
          1470.41610	         1.19589e+58
          1471.22240	         1.11014e+58
          1472.02870	         1.09185e+58
          1472.83500	         1.01916e+58
          1473.64130	         1.01318e+58
          1474.44760	         1.01043e+58
          1475.25390	         1.01561e+58
          1476.06020	         8.71192e+57
          1476.86650	         8.33008e+57
          1477.67280	         8.38306e+57
          1478.47910	         6.66703e+57
          1479.28540	         7.93221e+57
          1480.09170	         9.66493e+57
          1480.89800	         9.61118e+57
          1481.70430	         8.63050e+57
          1482.51060	         7.38148e+57
          1483.31690	         6.98913e+57
          1484.12320	         5.94984e+57
          1484.92950	         6.20773e+57
          1485.73580	         8.91830e+57
          1486.54210	         9.53096e+57
          1487.34840	         8.84844e+57
          1488.15470	         7.71362e+57
          1488.96100	         8.19183e+57
          1489.76730	         9.43259e+57
