#sample_438_stacked_spectrum_rest_UV-bands_median_H-alpha_noDC.txt
#median Lum: 1.72127e+42
#Rest-frame wavelength (A) | Luminosity (erg/s/A)
#
          1110.00000	         0.00000e+00
          1110.80630	        -1.62786e+58
          1111.61260	         2.89020e+59
          1112.41890	         1.64724e+59
          1113.22520	         6.15822e+58
          1114.03150	         1.36810e+59
          1114.83780	         1.36203e+59
          1115.64410	        -4.66857e+58
          1116.45040	        -8.80190e+58
          1117.25670	         1.40844e+58
          1118.06300	         8.68679e+57
          1118.86930	        -5.70846e+57
          1119.67560	         7.46963e+58
          1120.48190	         4.18882e+57
          1121.28820	        -6.29524e+58
          1122.09450	        -2.68001e+57
          1122.90080	        -4.14145e+58
          1123.70710	        -4.23413e+56
          1124.51340	         6.91908e+58
          1125.31970	        -1.68878e+58
          1126.12600	         3.64385e+56
          1126.93230	        -4.02580e+58
          1127.73860	        -8.15600e+58
          1128.54490	        -1.59776e+58
          1129.35120	         2.87964e+58
          1130.15750	        -1.56723e+58
          1130.96380	         2.22436e+58
          1131.77010	         6.61087e+58
          1132.57640	         5.67727e+58
          1133.38270	         5.59213e+58
          1134.18900	         2.02715e+58
          1134.99530	        -1.05272e+58
          1135.80160	         3.68661e+57
          1136.60790	         2.00535e+58
          1137.41420	         4.74961e+57
          1138.22050	         1.78304e+58
          1139.02680	         2.22403e+58
          1139.83310	         2.06484e+58
          1140.63940	         2.04477e+58
          1141.44570	        -1.51188e+58
          1142.25200	        -3.25869e+57
          1143.05830	         1.60167e+58
          1143.86460	         2.62866e+58
          1144.67090	         3.69068e+58
          1145.47720	         2.70695e+58
          1146.28350	         2.02275e+58
          1147.08980	         1.48713e+58
          1147.89610	         1.62232e+58
          1148.70240	         2.19315e+58
          1149.50870	         2.50071e+58
          1150.31500	         2.27342e+58
          1151.12130	         9.74278e+57
          1151.92760	        -5.58330e+54
          1152.73390	         1.20616e+58
          1153.54020	         5.03201e+57
          1154.34650	         2.24581e+58
          1155.15280	         2.46726e+58
          1155.95910	         1.42536e+58
          1156.76540	         2.14616e+57
          1157.57170	        -8.01590e+57
          1158.37800	        -9.04904e+57
          1159.18430	        -1.52755e+56
          1159.99060	         1.28735e+57
          1160.79690	         5.03109e+57
          1161.60320	         1.59520e+58
          1162.40950	         8.99196e+57
          1163.21580	         1.40955e+58
          1164.02210	         1.45228e+58
          1164.82840	         1.05733e+58
          1165.63470	         9.21259e+57
          1166.44100	         2.73934e+58
          1167.24730	         2.90736e+58
          1168.05360	         1.37979e+58
          1168.85990	        -3.64359e+56
          1169.66620	        -8.43621e+56
          1170.47250	         1.43295e+57
          1171.27880	         2.82063e+57
          1172.08510	         1.76281e+58
          1172.89140	         2.40133e+58
          1173.69770	         5.14035e+57
          1174.50400	         9.14221e+57
          1175.31030	         1.75400e+58
          1176.11660	         2.18715e+58
          1176.92290	         1.63312e+58
          1177.72920	         1.29722e+58
          1178.53550	         8.49833e+57
          1179.34180	         1.16056e+57
          1180.14810	         2.24926e+57
          1180.95440	         1.00155e+58
          1181.76070	         1.24256e+58
          1182.56700	         1.26542e+58
          1183.37330	         8.97516e+57
          1184.17960	         1.27496e+58
          1184.98590	         1.30789e+58
          1185.79220	         7.62491e+57
          1186.59850	         8.96257e+57
          1187.40480	         1.18402e+58
          1188.21110	         1.33001e+58
          1189.01740	         6.31719e+57
          1189.82370	         3.68197e+57
          1190.63000	         1.12657e+58
          1191.43630	         1.45371e+58
          1192.24260	         8.78917e+57
          1193.04890	         1.52191e+58
          1193.85520	         1.51303e+58
          1194.66150	         9.39293e+57
          1195.46780	         1.30225e+58
          1196.27410	         1.33881e+58
          1197.08040	         9.57242e+57
          1197.88670	         1.56578e+58
          1198.69300	         1.61416e+58
          1199.49930	         1.49217e+58
          1200.30560	         1.08063e+58
          1201.11190	         9.53653e+57
          1201.91820	         8.15240e+57
          1202.72450	         6.82614e+57
          1203.53080	         1.24057e+58
          1204.33710	         7.58799e+57
          1205.14340	         5.05756e+57
          1205.94970	         3.93289e+57
          1206.75600	         8.38782e+57
          1207.56230	         4.87800e+57
          1208.36860	         4.41761e+57
          1209.17490	         4.51193e+57
          1209.98120	         4.16755e+57
          1210.78750	         7.49607e+57
          1211.59380	         1.01537e+58
          1212.40010	         2.04231e+58
          1213.20640	         1.82738e+58
          1214.01270	         1.82021e+58
          1214.81900	         2.37975e+58
          1215.62530	         4.31008e+58
          1216.43160	         9.00534e+58
          1217.23790	         1.52170e+59
          1218.04420	         1.15092e+59
          1218.85050	         8.21855e+58
          1219.65680	         5.21602e+58
          1220.46310	         3.19530e+58
          1221.26940	         2.36704e+58
          1222.07570	         1.42836e+58
          1222.88200	         9.95009e+57
          1223.68830	         1.01586e+58
          1224.49460	         6.29750e+57
          1225.30090	         5.45334e+57
          1226.10720	         4.69784e+57
          1226.91350	         6.45819e+57
          1227.71980	         8.77603e+57
          1228.52610	         1.20753e+58
          1229.33240	         1.03380e+58
          1230.13870	         1.13277e+58
          1230.94500	         1.22979e+58
          1231.75130	         4.68474e+57
          1232.55760	         9.58737e+57
          1233.36390	         9.48020e+57
          1234.17020	         7.29079e+57
          1234.97650	         7.21286e+57
          1235.78280	         1.06119e+58
          1236.58910	         1.11081e+58
          1237.39540	         1.24258e+58
          1238.20170	         1.11369e+58
          1239.00800	         1.09801e+58
          1239.81430	         1.70549e+58
          1240.62060	         1.35110e+58
          1241.42690	         1.05149e+58
          1242.23320	         1.29491e+58
          1243.03950	         8.44586e+57
          1243.84580	         6.04967e+57
          1244.65210	         9.01026e+57
          1245.45840	         1.07160e+58
          1246.26470	         1.01001e+58
          1247.07100	         7.34656e+57
          1247.87730	         5.01690e+57
          1248.68360	         3.04969e+57
          1249.48990	         1.09768e+58
          1250.29620	         1.45513e+58
          1251.10250	         6.41117e+57
          1251.90880	         3.95191e+57
          1252.71510	         6.18649e+57
          1253.52140	         7.83419e+57
          1254.32770	         8.97425e+57
          1255.13400	         1.21723e+58
          1255.94030	         1.32189e+58
          1256.74660	         1.06124e+58
          1257.55290	         1.01105e+58
          1258.35920	         9.45001e+57
          1259.16550	         8.80656e+57
          1259.97180	         9.33836e+57
          1260.77810	         1.19541e+58
          1261.58440	         1.13238e+58
          1262.39070	         9.38374e+57
          1263.19700	         1.00532e+58
          1264.00330	         1.20623e+58
          1264.80960	         1.24246e+58
          1265.61590	         1.39952e+58
          1266.42220	         1.34204e+58
          1267.22850	         1.15834e+58
          1268.03480	         1.47136e+58
          1268.84110	         1.46443e+58
          1269.64740	         1.19717e+58
          1270.45370	         1.48434e+58
          1271.26000	         1.36614e+58
          1272.06630	         1.44290e+58
          1272.87260	         1.45747e+58
          1273.67890	         1.28566e+58
          1274.48520	         1.33886e+58
          1275.29150	         1.32088e+58
          1276.09780	         1.24269e+58
          1276.90410	         1.65838e+58
          1277.71040	         1.42052e+58
          1278.51670	         1.29563e+58
          1279.32300	         1.41776e+58
          1280.12930	         1.37635e+58
          1280.93560	         1.20392e+58
          1281.74190	         1.28275e+58
          1282.54820	         1.22698e+58
          1283.35450	         1.02559e+58
          1284.16080	         1.18857e+58
          1284.96710	         1.38545e+58
          1285.77340	         1.19717e+58
          1286.57970	         1.23476e+58
          1287.38600	         1.57475e+58
          1288.19230	         1.87522e+58
          1288.99860	         1.83567e+58
          1289.80490	         1.25795e+58
          1290.61120	         1.40422e+58
          1291.41750	         1.63338e+58
          1292.22380	         1.28226e+58
          1293.03010	         1.26506e+58
          1293.83640	         1.36275e+58
          1294.64270	         9.98997e+57
          1295.44900	         6.27993e+57
          1296.25530	         9.09967e+57
          1297.06160	         1.27689e+58
          1297.86790	         1.05851e+58
          1298.67420	         8.83883e+57
          1299.48050	         9.22837e+57
          1300.28680	         1.09170e+58
          1301.09310	         9.00529e+57
          1301.89940	         3.64052e+57
          1302.70570	         5.64520e+57
          1303.51200	         7.81185e+57
          1304.31830	         9.85540e+57
          1305.12460	         1.05918e+58
          1305.93090	         1.09478e+58
          1306.73720	         1.15735e+58
          1307.54350	         1.38185e+58
          1308.34980	         1.65634e+58
          1309.15610	         1.62871e+58
          1309.96240	         1.67247e+58
          1310.76870	         1.32038e+58
          1311.57500	         9.12995e+57
          1312.38130	         1.34985e+58
          1313.18760	         1.68967e+58
          1313.99390	         1.75833e+58
          1314.80020	         1.84534e+58
          1315.60650	         1.54584e+58
          1316.41280	         1.25416e+58
          1317.21910	         1.36306e+58
          1318.02540	         1.37961e+58
          1318.83170	         1.37146e+58
          1319.63800	         1.29215e+58
          1320.44430	         1.15917e+58
          1321.25060	         1.34250e+58
          1322.05690	         1.44866e+58
          1322.86320	         1.28025e+58
          1323.66950	         9.72447e+57
          1324.47580	         9.10546e+57
          1325.28210	         9.42356e+57
          1326.08840	         1.06290e+58
          1326.89470	         1.17260e+58
          1327.70100	         9.99939e+57
          1328.50730	         7.22744e+57
          1329.31360	         8.01982e+57
          1330.11990	         9.96726e+57
          1330.92620	         9.07870e+57
          1331.73250	         9.90376e+57
          1332.53880	         1.08763e+58
          1333.34510	         9.07425e+57
          1334.15140	         8.71907e+57
          1334.95770	         9.43237e+57
          1335.76400	         1.06264e+58
          1336.57030	         1.14511e+58
          1337.37660	         1.01638e+58
          1338.18290	         1.09004e+58
          1338.98920	         1.31215e+58
          1339.79550	         1.24752e+58
          1340.60180	         1.40660e+58
          1341.40810	         1.45998e+58
          1342.21440	         1.20860e+58
          1343.02070	         1.02996e+58
          1343.82700	         1.15073e+58
          1344.63330	         1.16202e+58
          1345.43960	         1.22894e+58
          1346.24590	         1.11210e+58
          1347.05220	         1.14224e+58
          1347.85850	         9.74261e+57
          1348.66480	         1.24609e+58
          1349.47110	         1.33110e+58
          1350.27740	         1.16728e+58
          1351.08370	         1.14419e+58
          1351.89000	         1.10384e+58
          1352.69630	         1.18196e+58
          1353.50260	         1.09846e+58
          1354.30890	         1.16969e+58
          1355.11520	         1.14057e+58
          1355.92150	         1.12392e+58
          1356.72780	         1.04198e+58
          1357.53410	         1.05251e+58
          1358.34040	         1.10645e+58
          1359.14670	         1.19897e+58
          1359.95300	         1.19377e+58
          1360.75930	         1.13524e+58
          1361.56560	         1.11165e+58
          1362.37190	         1.16404e+58
          1363.17820	         1.11280e+58
          1363.98450	         1.12056e+58
          1364.79080	         1.36105e+58
          1365.59710	         1.40231e+58
          1366.40340	         1.32937e+58
          1367.20970	         1.14792e+58
          1368.01600	         9.04230e+57
          1368.82230	         7.91828e+57
          1369.62860	         8.85983e+57
          1370.43490	         9.50445e+57
          1371.24120	         9.97591e+57
          1372.04750	         9.36438e+57
          1372.85380	         1.06457e+58
          1373.66010	         1.15358e+58
          1374.46640	         1.09108e+58
          1375.27270	         1.05652e+58
          1376.07900	         1.02421e+58
          1376.88530	         9.93767e+57
          1377.69160	         8.60475e+57
          1378.49790	         6.76208e+57
          1379.30420	         7.04177e+57
          1380.11050	         8.25810e+57
          1380.91680	         7.89470e+57
          1381.72310	         8.46145e+57
          1382.52940	         9.04352e+57
          1383.33570	         1.00326e+58
          1384.14200	         9.87587e+57
          1384.94830	         1.08393e+58
          1385.75460	         1.21150e+58
          1386.56090	         1.07971e+58
          1387.36720	         1.14282e+58
          1388.17350	         1.31695e+58
          1388.97980	         1.23856e+58
          1389.78610	         7.89880e+57
          1390.59240	         7.20822e+57
          1391.39870	         7.93803e+57
          1392.20500	         8.00844e+57
          1393.01130	         7.92700e+57
          1393.81760	         7.72042e+57
          1394.62390	         7.13665e+57
          1395.43020	         5.81454e+57
          1396.23650	         4.84599e+57
          1397.04280	         6.06447e+57
          1397.84910	         9.36126e+57
          1398.65540	         9.53547e+57
          1399.46170	         1.03556e+58
          1400.26800	         9.47913e+57
          1401.07430	         7.58507e+57
          1401.88060	         7.26116e+57
          1402.68690	         9.18761e+57
          1403.49320	         8.45710e+57
          1404.29950	         7.90349e+57
          1405.10580	         1.04464e+58
          1405.91210	         1.17066e+58
          1406.71840	         1.04913e+58
          1407.52470	         9.59406e+57
          1408.33100	         9.30452e+57
          1409.13730	         1.10439e+58
          1409.94360	         1.10306e+58
          1410.74990	         1.09331e+58
          1411.55620	         1.10563e+58
          1412.36250	         9.37310e+57
          1413.16880	         9.50706e+57
          1413.97510	         8.42231e+57
          1414.78140	         7.88374e+57
          1415.58770	         1.11956e+58
          1416.39400	         1.24742e+58
          1417.20030	         1.14663e+58
          1418.00660	         1.12744e+58
          1418.81290	         1.03808e+58
          1419.61920	         9.44486e+57
          1420.42550	         1.15894e+58
          1421.23180	         1.49728e+58
          1422.03810	         1.31625e+58
          1422.84440	         1.08996e+58
          1423.65070	         1.27782e+58
          1424.45700	         1.16277e+58
          1425.26330	         9.42687e+57
          1426.06960	         9.43937e+57
          1426.87590	         1.11684e+58
          1427.68220	         1.03267e+58
          1428.48850	         1.12873e+58
          1429.29480	         1.26298e+58
          1430.10110	         1.13343e+58
          1430.90740	         9.27250e+57
          1431.71370	         8.26642e+57
          1432.52000	         9.25881e+57
          1433.32630	         8.48092e+57
          1434.13260	         7.56498e+57
          1434.93890	         8.61355e+57
          1435.74520	         9.57748e+57
          1436.55150	         9.29945e+57
          1437.35780	         8.91048e+57
          1438.16410	         9.28123e+57
          1438.97040	         9.64249e+57
          1439.77670	         9.22220e+57
          1440.58300	         1.02336e+58
          1441.38930	         1.10468e+58
          1442.19560	         1.10883e+58
          1443.00190	         1.06032e+58
          1443.80820	         1.11029e+58
          1444.61450	         1.08863e+58
          1445.42080	         8.78182e+57
          1446.22710	         9.22866e+57
          1447.03340	         9.58223e+57
          1447.83970	         1.11898e+58
          1448.64600	         1.12246e+58
          1449.45230	         9.38263e+57
          1450.25860	         1.03120e+58
          1451.06490	         9.50202e+57
          1451.87120	         7.23686e+57
          1452.67750	         7.83180e+57
          1453.48380	         9.61187e+57
          1454.29010	         8.65478e+57
          1455.09640	         7.54533e+57
          1455.90270	         8.25644e+57
          1456.70900	         1.01090e+58
          1457.51530	         1.12662e+58
          1458.32160	         1.21780e+58
          1459.12790	         1.16749e+58
          1459.93420	         1.15272e+58
          1460.74050	         9.20493e+57
          1461.54680	         8.19949e+57
          1462.35310	         8.75754e+57
          1463.15940	         1.08696e+58
          1463.96570	         1.15768e+58
          1464.77200	         1.23241e+58
          1465.57830	         1.12201e+58
          1466.38460	         9.78163e+57
          1467.19090	         9.61736e+57
          1467.99720	         9.30688e+57
          1468.80350	         9.39481e+57
          1469.60980	         9.78631e+57
          1470.41610	         1.08869e+58
          1471.22240	         9.78149e+57
          1472.02870	         9.47231e+57
          1472.83500	         1.04742e+58
          1473.64130	         1.07100e+58
          1474.44760	         9.83564e+57
          1475.25390	         8.90499e+57
          1476.06020	         9.38207e+57
          1476.86650	         1.00086e+58
          1477.67280	         9.05128e+57
          1478.47910	         7.60365e+57
          1479.28540	         6.33941e+57
          1480.09170	         7.07487e+57
          1480.89800	         8.28731e+57
          1481.70430	         9.20876e+57
          1482.51060	         8.96283e+57
          1483.31690	         9.26221e+57
          1484.12320	         8.94820e+57
          1484.92950	         7.66751e+57
          1485.73580	         8.03865e+57
          1486.54210	         8.82775e+57
          1487.34840	         8.52689e+57
          1488.15470	         8.01459e+57
          1488.96100	         8.30558e+57
          1489.76730	         8.48400e+57
