#sample_33_stacked_spectrum_rest_UV-bands_median_H-alpha_noDC.txt
#median Lum: 1.69166e+42
#Rest-frame wavelength (A) | Luminosity (erg/s/A)
#
          1110.00000	         0.00000e+00
          1110.80630	         2.86566e+59
          1111.61260	         1.39113e+59
          1112.41890	         1.08078e+59
          1113.22520	        -3.96161e+57
          1114.03150	         2.14012e+59
          1114.83780	         3.95301e+59
          1115.64410	         8.92555e+58
          1116.45040	         3.42381e+58
          1117.25670	         1.02672e+59
          1118.06300	         5.58986e+58
          1118.86930	         1.62882e+58
          1119.67560	         6.22049e+58
          1120.48190	        -6.63939e+58
          1121.28820	        -1.36417e+59
          1122.09450	        -7.91178e+57
          1122.90080	         2.11774e+58
          1123.70710	         1.19090e+59
          1124.51340	         3.37398e+58
          1125.31970	        -3.40188e+58
          1126.12600	         1.11339e+58
          1126.93230	        -2.78276e+58
          1127.73860	        -2.63601e+58
          1128.54490	        -4.59988e+58
          1129.35120	        -3.27781e+58
          1130.15750	        -3.82885e+58
          1130.96380	        -1.61010e+58
          1131.77010	         2.03106e+58
          1132.57640	         8.03225e+58
          1133.38270	         6.05100e+58
          1134.18900	        -4.03188e+57
          1134.99530	         7.92508e+57
          1135.80160	         1.05404e+58
          1136.60790	         1.94480e+58
          1137.41420	        -1.93022e+58
          1138.22050	         2.06259e+58
          1139.02680	         3.55192e+58
          1139.83310	         1.63346e+58
          1140.63940	         1.81763e+58
          1141.44570	        -1.48367e+58
          1142.25200	        -2.02864e+58
          1143.05830	         3.04125e+58
          1143.86460	         2.35695e+58
          1144.67090	         3.15987e+58
          1145.47720	         1.85010e+58
          1146.28350	         1.72523e+58
          1147.08980	         6.78541e+57
          1147.89610	         8.95879e+57
          1148.70240	         2.49322e+58
          1149.50870	         2.82284e+58
          1150.31500	         7.42283e+57
          1151.12130	        -7.07453e+56
          1151.92760	         3.35936e+57
          1152.73390	         1.12644e+57
          1153.54020	         5.68675e+57
          1154.34650	         1.77110e+58
          1155.15280	         1.80692e+58
          1155.95910	         1.16066e+58
          1156.76540	         1.08169e+58
          1157.57170	        -2.90110e+56
          1158.37800	        -1.09171e+58
          1159.18430	         6.55391e+56
          1159.99060	         7.96740e+57
          1160.79690	         4.37140e+57
          1161.60320	         1.15690e+58
          1162.40950	         1.86641e+58
          1163.21580	         1.05820e+58
          1164.02210	         1.33510e+58
          1164.82840	         3.63497e+57
          1165.63470	         1.99679e+58
          1166.44100	         3.20200e+58
          1167.24730	         2.14196e+58
          1168.05360	         5.22112e+57
          1168.85990	        -6.94568e+56
          1169.66620	         8.61122e+57
          1170.47250	         9.58308e+57
          1171.27880	         1.13931e+58
          1172.08510	         1.67831e+58
          1172.89140	         1.30267e+58
          1173.69770	         8.33729e+57
          1174.50400	         1.65857e+58
          1175.31030	         2.15539e+58
          1176.11660	         1.65691e+58
          1176.92290	         1.48891e+58
          1177.72920	         1.25391e+58
          1178.53550	         1.56927e+58
          1179.34180	         7.25228e+57
          1180.14810	         6.54807e+57
          1180.95440	         8.90991e+57
          1181.76070	         9.50354e+57
          1182.56700	         1.23057e+58
          1183.37330	         8.52108e+57
          1184.17960	         9.87748e+57
          1184.98590	         7.61128e+57
          1185.79220	         8.09658e+57
          1186.59850	         1.05996e+58
          1187.40480	         9.24665e+57
          1188.21110	         1.01042e+58
          1189.01740	         9.10575e+57
          1189.82370	         1.04615e+58
          1190.63000	         1.24615e+58
          1191.43630	         1.20165e+58
          1192.24260	         6.91454e+57
          1193.04890	         9.49275e+57
          1193.85520	         1.36753e+58
          1194.66150	         7.65034e+57
          1195.46780	         6.37215e+57
          1196.27410	         8.64261e+57
          1197.08040	         1.11472e+58
          1197.88670	         1.53163e+58
          1198.69300	         1.58054e+58
          1199.49930	         1.78968e+58
          1200.30560	         1.29111e+58
          1201.11190	         1.08612e+58
          1201.91820	         7.34467e+57
          1202.72450	         5.92105e+57
          1203.53080	         1.29604e+58
          1204.33710	         8.78909e+57
          1205.14340	         9.23832e+57
          1205.94970	         4.94144e+57
          1206.75600	         7.87365e+57
          1207.56230	         9.42559e+57
          1208.36860	         8.93050e+57
          1209.17490	         3.12829e+57
          1209.98120	         5.74624e+57
          1210.78750	         3.48297e+57
          1211.59380	         6.45225e+57
          1212.40010	         1.47344e+58
          1213.20640	         1.88574e+58
          1214.01270	         2.07587e+58
          1214.81900	         2.46986e+58
          1215.62530	         4.34865e+58
          1216.43160	         9.08923e+58
          1217.23790	         1.53438e+59
          1218.04420	         1.18274e+59
          1218.85050	         8.75427e+58
          1219.65680	         5.57963e+58
          1220.46310	         3.05039e+58
          1221.26940	         2.32321e+58
          1222.07570	         1.52914e+58
          1222.88200	         1.19299e+58
          1223.68830	         1.21054e+58
          1224.49460	         7.50283e+57
          1225.30090	         6.96875e+57
          1226.10720	         6.38214e+57
          1226.91350	         5.38325e+57
          1227.71980	         8.88543e+57
          1228.52610	         1.40545e+58
          1229.33240	         7.76763e+57
          1230.13870	         5.33257e+57
          1230.94500	         7.11841e+57
          1231.75130	         5.80922e+57
          1232.55760	         9.74835e+57
          1233.36390	         1.22602e+58
          1234.17020	         8.32089e+57
          1234.97650	         8.73459e+57
          1235.78280	         9.26327e+57
          1236.58910	         8.65202e+57
          1237.39540	         1.09961e+58
          1238.20170	         1.02790e+58
          1239.00800	         1.12561e+58
          1239.81430	         1.73092e+58
          1240.62060	         1.43588e+58
          1241.42690	         1.18174e+58
          1242.23320	         1.00677e+58
          1243.03950	         7.60200e+57
          1243.84580	         7.10989e+57
          1244.65210	         1.06940e+58
          1245.45840	         1.11236e+58
          1246.26470	         9.62221e+57
          1247.07100	         7.63399e+57
          1247.87730	         8.52475e+57
          1248.68360	         5.03873e+57
          1249.48990	         1.09909e+58
          1250.29620	         1.15050e+58
          1251.10250	         6.79990e+57
          1251.90880	         6.79027e+57
          1252.71510	         8.28032e+57
          1253.52140	         7.23129e+57
          1254.32770	         9.77086e+57
          1255.13400	         1.40134e+58
          1255.94030	         1.13907e+58
          1256.74660	         9.65826e+57
          1257.55290	         8.67783e+57
          1258.35920	         6.16584e+57
          1259.16550	         4.51195e+57
          1259.97180	         2.95268e+57
          1260.77810	         6.34649e+57
          1261.58440	         9.47168e+57
          1262.39070	         7.03409e+57
          1263.19700	         7.83197e+57
          1264.00330	         1.03216e+58
          1264.80960	         1.06946e+58
          1265.61590	         1.22876e+58
          1266.42220	         1.28731e+58
          1267.22850	         1.15796e+58
          1268.03480	         1.48868e+58
          1268.84110	         1.53037e+58
          1269.64740	         1.30103e+58
          1270.45370	         1.21948e+58
          1271.26000	         1.02296e+58
          1272.06630	         1.00009e+58
          1272.87260	         1.31620e+58
          1273.67890	         1.48109e+58
          1274.48520	         1.36752e+58
          1275.29150	         1.31842e+58
          1276.09780	         1.02592e+58
          1276.90410	         1.37966e+58
          1277.71040	         1.27356e+58
          1278.51670	         9.36299e+57
          1279.32300	         1.24390e+58
          1280.12930	         1.33549e+58
          1280.93560	         1.01970e+58
          1281.74190	         1.03292e+58
          1282.54820	         1.29430e+58
          1283.35450	         1.05768e+58
          1284.16080	         1.21254e+58
          1284.96710	         1.26652e+58
          1285.77340	         1.12576e+58
          1286.57970	         1.10356e+58
          1287.38600	         1.47570e+58
          1288.19230	         1.89878e+58
          1288.99860	         1.49026e+58
          1289.80490	         9.46807e+57
          1290.61120	         1.30130e+58
          1291.41750	         1.23023e+58
          1292.22380	         9.80162e+57
          1293.03010	         9.77778e+57
          1293.83640	         9.55456e+57
          1294.64270	         8.86623e+57
          1295.44900	         6.22739e+57
          1296.25530	         6.26842e+57
          1297.06160	         8.18086e+57
          1297.86790	         1.00193e+58
          1298.67420	         1.16640e+58
          1299.48050	         1.05068e+58
          1300.28680	         1.01985e+58
          1301.09310	         9.62771e+57
          1301.89940	         4.97159e+57
          1302.70570	         4.21483e+57
          1303.51200	         6.35830e+57
          1304.31830	         1.00517e+58
          1305.12460	         1.17432e+58
          1305.93090	         1.13081e+58
          1306.73720	         1.19745e+58
          1307.54350	         1.46888e+58
          1308.34980	         1.56054e+58
          1309.15610	         1.50623e+58
          1309.96240	         1.47180e+58
          1310.76870	         1.53767e+58
          1311.57500	         1.61249e+58
          1312.38130	         1.23519e+58
          1313.18760	         1.17553e+58
          1313.99390	         1.55516e+58
          1314.80020	         1.65780e+58
          1315.60650	         1.42936e+58
          1316.41280	         1.33783e+58
          1317.21910	         1.10411e+58
          1318.02540	         9.57888e+57
          1318.83170	         1.20138e+58
          1319.63800	         1.21185e+58
          1320.44430	         1.08269e+58
          1321.25060	         1.14634e+58
          1322.05690	         1.34512e+58
          1322.86320	         1.28843e+58
          1323.66950	         1.13845e+58
          1324.47580	         8.65400e+57
          1325.28210	         9.70012e+57
          1326.08840	         1.29618e+58
          1326.89470	         1.34930e+58
          1327.70100	         1.05650e+58
          1328.50730	         7.82786e+57
          1329.31360	         1.00438e+58
          1330.11990	         9.16031e+57
          1330.92620	         6.94822e+57
          1331.73250	         1.03082e+58
          1332.53880	         9.65521e+57
          1333.34510	         7.56085e+57
          1334.15140	         8.37211e+57
          1334.95770	         9.01885e+57
          1335.76400	         1.01108e+58
          1336.57030	         9.92170e+57
          1337.37660	         9.45569e+57
          1338.18290	         9.36341e+57
          1338.98920	         1.13486e+58
          1339.79550	         1.25657e+58
          1340.60180	         1.20703e+58
          1341.40810	         1.23263e+58
          1342.21440	         1.14742e+58
          1343.02070	         1.10646e+58
          1343.82700	         1.32425e+58
          1344.63330	         1.17761e+58
          1345.43960	         1.15313e+58
          1346.24590	         1.16022e+58
          1347.05220	         1.26213e+58
          1347.85850	         9.91546e+57
          1348.66480	         1.05092e+58
          1349.47110	         1.34898e+58
          1350.27740	         1.27101e+58
          1351.08370	         1.16454e+58
          1351.89000	         1.16111e+58
          1352.69630	         1.09464e+58
          1353.50260	         1.11628e+58
          1354.30890	         1.24611e+58
          1355.11520	         1.19502e+58
          1355.92150	         1.01946e+58
          1356.72780	         9.25853e+57
          1357.53410	         1.07219e+58
          1358.34040	         1.21592e+58
          1359.14670	         1.11225e+58
          1359.95300	         1.06458e+58
          1360.75930	         1.01684e+58
          1361.56560	         9.77219e+57
          1362.37190	         1.14118e+58
          1363.17820	         1.12386e+58
          1363.98450	         1.18747e+58
          1364.79080	         1.33980e+58
          1365.59710	         1.26850e+58
          1366.40340	         1.08799e+58
          1367.20970	         9.74012e+57
          1368.01600	         9.23987e+57
          1368.82230	         1.00222e+58
          1369.62860	         1.12494e+58
          1370.43490	         1.09495e+58
          1371.24120	         1.13643e+58
          1372.04750	         9.59229e+57
          1372.85380	         1.09128e+58
          1373.66010	         1.24108e+58
          1374.46640	         1.13833e+58
          1375.27270	         1.16098e+58
          1376.07900	         1.03993e+58
          1376.88530	         9.38623e+57
          1377.69160	         8.82402e+57
          1378.49790	         6.09961e+57
          1379.30420	         7.29126e+57
          1380.11050	         1.05632e+58
          1380.91680	         8.44461e+57
          1381.72310	         7.05449e+57
          1382.52940	         8.14438e+57
          1383.33570	         8.49289e+57
          1384.14200	         9.24039e+57
          1384.94830	         9.48200e+57
          1385.75460	         9.02714e+57
          1386.56090	         9.68533e+57
          1387.36720	         8.76826e+57
          1388.17350	         1.25492e+58
          1388.97980	         1.40011e+58
          1389.78610	         8.94546e+57
          1390.59240	         5.70076e+57
          1391.39870	         6.21080e+57
          1392.20500	         7.14132e+57
          1393.01130	         6.79697e+57
          1393.81760	         7.23121e+57
          1394.62390	         7.67088e+57
          1395.43020	         6.78844e+57
          1396.23650	         6.35018e+57
          1397.04280	         7.09481e+57
          1397.84910	         8.21892e+57
          1398.65540	         8.57480e+57
          1399.46170	         9.34646e+57
          1400.26800	         9.04695e+57
          1401.07430	         8.21179e+57
          1401.88060	         7.43546e+57
          1402.68690	         8.79515e+57
          1403.49320	         1.02751e+58
          1404.29950	         9.51835e+57
          1405.10580	         1.08402e+58
          1405.91210	         1.06302e+58
          1406.71840	         9.97685e+57
          1407.52470	         1.06489e+58
          1408.33100	         1.02933e+58
          1409.13730	         1.05432e+58
          1409.94360	         1.16051e+58
          1410.74990	         1.16332e+58
          1411.55620	         9.50051e+57
          1412.36250	         8.24738e+57
          1413.16880	         9.11417e+57
          1413.97510	         8.83135e+57
          1414.78140	         8.44391e+57
          1415.58770	         9.75985e+57
          1416.39400	         1.01908e+58
          1417.20030	         1.15144e+58
          1418.00660	         1.03497e+58
          1418.81290	         1.00633e+58
          1419.61920	         1.10040e+58
          1420.42550	         1.28378e+58
          1421.23180	         1.28947e+58
          1422.03810	         1.26241e+58
          1422.84440	         1.29812e+58
          1423.65070	         1.28349e+58
          1424.45700	         1.10063e+58
          1425.26330	         9.64017e+57
          1426.06960	         1.00085e+58
          1426.87590	         1.08663e+58
          1427.68220	         9.79336e+57
          1428.48850	         1.04318e+58
          1429.29480	         1.10882e+58
          1430.10110	         1.05789e+58
          1430.90740	         9.14769e+57
          1431.71370	         8.71516e+57
          1432.52000	         8.17138e+57
          1433.32630	         7.62396e+57
          1434.13260	         7.58822e+57
          1434.93890	         8.37622e+57
          1435.74520	         1.01342e+58
          1436.55150	         9.26005e+57
          1437.35780	         8.70837e+57
          1438.16410	         1.03253e+58
          1438.97040	         1.01432e+58
          1439.77670	         8.82843e+57
          1440.58300	         8.76339e+57
          1441.38930	         9.52488e+57
          1442.19560	         9.65004e+57
          1443.00190	         9.25846e+57
          1443.80820	         1.07361e+58
          1444.61450	         1.03823e+58
          1445.42080	         8.92401e+57
          1446.22710	         1.07592e+58
          1447.03340	         1.03614e+58
          1447.83970	         9.84476e+57
          1448.64600	         9.78304e+57
          1449.45230	         9.31164e+57
          1450.25860	         9.93852e+57
          1451.06490	         8.67633e+57
          1451.87120	         7.50457e+57
          1452.67750	         7.84820e+57
          1453.48380	         8.66066e+57
          1454.29010	         7.95520e+57
          1455.09640	         8.11904e+57
          1455.90270	         8.74003e+57
          1456.70900	         8.84488e+57
          1457.51530	         9.72332e+57
          1458.32160	         1.22417e+58
          1459.12790	         1.15969e+58
          1459.93420	         9.40445e+57
          1460.74050	         6.98637e+57
          1461.54680	         7.10603e+57
          1462.35310	         8.14074e+57
          1463.15940	         9.79641e+57
          1463.96570	         1.09502e+58
          1464.77200	         1.15246e+58
          1465.57830	         1.10991e+58
          1466.38460	         8.74393e+57
          1467.19090	         6.68679e+57
          1467.99720	         7.33516e+57
          1468.80350	         9.32819e+57
          1469.60980	         1.05887e+58
          1470.41610	         1.00009e+58
          1471.22240	         8.53369e+57
          1472.02870	         9.30856e+57
          1472.83500	         9.24215e+57
          1473.64130	         8.36656e+57
          1474.44760	         9.68088e+57
          1475.25390	         9.77488e+57
          1476.06020	         9.36814e+57
          1476.86650	         8.79006e+57
          1477.67280	         7.60001e+57
          1478.47910	         7.18728e+57
          1479.28540	         7.14706e+57
          1480.09170	         8.16007e+57
          1480.89800	         8.87021e+57
          1481.70430	         8.38478e+57
          1482.51060	         8.06699e+57
          1483.31690	         7.92320e+57
          1484.12320	         8.29786e+57
          1484.92950	         7.17840e+57
          1485.73580	         7.09922e+57
          1486.54210	         8.82574e+57
          1487.34840	         8.66119e+57
          1488.15470	         8.14082e+57
          1488.96100	         7.99882e+57
          1489.76730	         7.69008e+57
