#sample_151_stacked_spectrum_rest_UV-bands_median_H-alpha_noDC.txt
#median Lum: 1.71110e+42
#Rest-frame wavelength (A) | Luminosity (erg/s/A)
#
          1110.00000	         0.00000e+00
          1110.80630	        -2.07940e+59
          1111.61260	         1.93852e+58
          1112.41890	         2.47372e+59
          1113.22520	         2.23949e+59
          1114.03150	         7.42892e+58
          1114.83780	         1.50770e+59
          1115.64410	         1.54267e+59
          1116.45040	         5.92948e+58
          1117.25670	        -1.86790e+59
          1118.06300	         1.13860e+59
          1118.86930	         4.13388e+58
          1119.67560	         1.45064e+59
          1120.48190	         2.60129e+58
          1121.28820	        -8.18824e+58
          1122.09450	        -7.24535e+57
          1122.90080	         1.81663e+58
          1123.70710	         1.04392e+59
          1124.51340	         9.68926e+58
          1125.31970	         6.78802e+58
          1126.12600	         5.32219e+58
          1126.93230	        -3.46735e+58
          1127.73860	        -9.56673e+58
          1128.54490	         1.26104e+58
          1129.35120	         2.20445e+58
          1130.15750	        -2.40270e+58
          1130.96380	        -1.56130e+58
          1131.77010	         4.20937e+58
          1132.57640	         4.61120e+58
          1133.38270	         1.36689e+58
          1134.18900	         2.03129e+58
          1134.99530	         1.68028e+58
          1135.80160	         3.23426e+58
          1136.60790	         2.33595e+58
          1137.41420	        -1.86082e+58
          1138.22050	         2.41112e+58
          1139.02680	         3.31984e+58
          1139.83310	         1.02582e+58
          1140.63940	         1.49921e+58
          1141.44570	         4.28692e+57
          1142.25200	         4.25511e+57
          1143.05830	         2.77974e+58
          1143.86460	         2.47643e+58
          1144.67090	         3.68682e+58
          1145.47720	         2.99443e+58
          1146.28350	         2.35698e+58
          1147.08980	         1.70869e+58
          1147.89610	         4.45497e+57
          1148.70240	         2.72455e+58
          1149.50870	         2.22370e+58
          1150.31500	        -6.70261e+56
          1151.12130	        -3.83731e+57
          1151.92760	         2.73589e+57
          1152.73390	         1.12622e+58
          1153.54020	         1.07698e+58
          1154.34650	         2.36166e+58
          1155.15280	         1.80034e+58
          1155.95910	         2.32929e+58
          1156.76540	         7.41045e+57
          1157.57170	         1.48533e+56
          1158.37800	         3.15611e+57
          1159.18430	         5.23666e+57
          1159.99060	         1.43309e+58
          1160.79690	         8.74506e+57
          1161.60320	         5.44712e+57
          1162.40950	         2.00333e+58
          1163.21580	         1.70801e+58
          1164.02210	         9.17969e+57
          1164.82840	         1.70966e+58
          1165.63470	         2.55483e+58
          1166.44100	         2.76823e+58
          1167.24730	         1.92231e+58
          1168.05360	         1.04660e+57
          1168.85990	         1.93877e+57
          1169.66620	         5.93379e+57
          1170.47250	         1.28032e+58
          1171.27880	         1.27872e+58
          1172.08510	         1.29997e+58
          1172.89140	         1.56729e+58
          1173.69770	         2.54399e+57
          1174.50400	         6.69140e+57
          1175.31030	         1.16140e+58
          1176.11660	         1.47700e+58
          1176.92290	         1.61952e+58
          1177.72920	         1.46089e+58
          1178.53550	         6.15229e+57
          1179.34180	         4.90151e+57
          1180.14810	         7.17153e+57
          1180.95440	         1.16512e+58
          1181.76070	         6.90810e+57
          1182.56700	         6.63543e+57
          1183.37330	         1.00286e+58
          1184.17960	         1.15050e+58
          1184.98590	         1.04200e+58
          1185.79220	         4.99588e+57
          1186.59850	         1.07634e+58
          1187.40480	         1.34091e+58
          1188.21110	         1.11729e+58
          1189.01740	         7.59275e+57
          1189.82370	         9.15929e+57
          1190.63000	         1.67435e+58
          1191.43630	         1.09535e+58
          1192.24260	         8.12849e+57
          1193.04890	         1.24309e+58
          1193.85520	         1.07540e+58
          1194.66150	         5.87420e+57
          1195.46780	         1.03649e+58
          1196.27410	         1.56114e+58
          1197.08040	         1.27951e+58
          1197.88670	         1.55214e+58
          1198.69300	         1.36217e+58
          1199.49930	         1.22804e+58
          1200.30560	         1.17825e+58
          1201.11190	         7.85933e+57
          1201.91820	         7.98835e+57
          1202.72450	         8.36859e+57
          1203.53080	         1.49345e+58
          1204.33710	         1.08421e+58
          1205.14340	         7.29115e+57
          1205.94970	         4.03818e+57
          1206.75600	         7.23863e+57
          1207.56230	         3.24409e+57
          1208.36860	         5.82114e+57
          1209.17490	         4.98849e+57
          1209.98120	         6.18862e+57
          1210.78750	         1.00954e+58
          1211.59380	         7.90520e+57
          1212.40010	         1.50405e+58
          1213.20640	         2.28023e+58
          1214.01270	         1.98601e+58
          1214.81900	         2.30068e+58
          1215.62530	         4.71066e+58
          1216.43160	         9.16083e+58
          1217.23790	         1.48500e+59
          1218.04420	         1.15865e+59
          1218.85050	         8.96730e+58
          1219.65680	         6.06103e+58
          1220.46310	         3.35640e+58
          1221.26940	         2.34555e+58
          1222.07570	         1.45469e+58
          1222.88200	         1.08808e+58
          1223.68830	         7.83190e+57
          1224.49460	         5.89525e+57
          1225.30090	         8.14388e+57
          1226.10720	         9.26154e+57
          1226.91350	         1.04663e+58
          1227.71980	         1.25975e+58
          1228.52610	         1.52321e+58
          1229.33240	         1.29888e+58
          1230.13870	         8.86654e+57
          1230.94500	         8.86777e+57
          1231.75130	         5.76673e+57
          1232.55760	         7.10278e+57
          1233.36390	         8.00075e+57
          1234.17020	         7.84197e+57
          1234.97650	         9.72485e+57
          1235.78280	         6.79416e+57
          1236.58910	         6.60831e+57
          1237.39540	         9.47782e+57
          1238.20170	         1.15399e+58
          1239.00800	         1.37933e+58
          1239.81430	         1.33566e+58
          1240.62060	         9.98176e+57
          1241.42690	         1.05667e+58
          1242.23320	         1.29368e+58
          1243.03950	         9.48104e+57
          1243.84580	         6.84630e+57
          1244.65210	         6.85128e+57
          1245.45840	         7.37797e+57
          1246.26470	         9.03550e+57
          1247.07100	         8.05800e+57
          1247.87730	         4.67295e+57
          1248.68360	         2.47008e+57
          1249.48990	         6.30637e+57
          1250.29620	         8.69644e+57
          1251.10250	         8.55818e+57
          1251.90880	         7.47500e+57
          1252.71510	         6.90362e+57
          1253.52140	         6.00865e+57
          1254.32770	         8.10319e+57
          1255.13400	         1.26934e+58
          1255.94030	         1.04705e+58
          1256.74660	         8.26324e+57
          1257.55290	         1.06428e+58
          1258.35920	         8.79811e+57
          1259.16550	         6.14418e+57
          1259.97180	         4.56645e+57
          1260.77810	         7.76101e+57
          1261.58440	         1.18112e+58
          1262.39070	         9.26874e+57
          1263.19700	         6.94222e+57
          1264.00330	         9.34481e+57
          1264.80960	         1.01220e+58
          1265.61590	         1.07290e+58
          1266.42220	         1.22720e+58
          1267.22850	         1.23490e+58
          1268.03480	         1.42438e+58
          1268.84110	         1.50855e+58
          1269.64740	         1.37587e+58
          1270.45370	         1.21853e+58
          1271.26000	         1.16949e+58
          1272.06630	         1.12324e+58
          1272.87260	         1.26002e+58
          1273.67890	         1.24763e+58
          1274.48520	         1.31463e+58
          1275.29150	         1.40233e+58
          1276.09780	         1.22858e+58
          1276.90410	         1.49606e+58
          1277.71040	         1.48216e+58
          1278.51670	         1.29462e+58
          1279.32300	         1.42230e+58
          1280.12930	         1.40415e+58
          1280.93560	         1.21417e+58
          1281.74190	         1.21966e+58
          1282.54820	         1.28039e+58
          1283.35450	         1.07912e+58
          1284.16080	         9.87669e+57
          1284.96710	         1.07938e+58
          1285.77340	         1.10467e+58
          1286.57970	         1.18949e+58
          1287.38600	         1.40609e+58
          1288.19230	         1.55764e+58
          1288.99860	         1.33813e+58
          1289.80490	         1.13617e+58
          1290.61120	         1.23731e+58
          1291.41750	         1.37349e+58
          1292.22380	         1.02604e+58
          1293.03010	         8.58328e+57
          1293.83640	         1.19939e+58
          1294.64270	         1.18483e+58
          1295.44900	         8.01188e+57
          1296.25530	         5.69634e+57
          1297.06160	         8.30899e+57
          1297.86790	         1.09400e+58
          1298.67420	         9.65571e+57
          1299.48050	         1.11000e+58
          1300.28680	         1.04646e+58
          1301.09310	         8.17230e+57
          1301.89940	         5.74218e+57
          1302.70570	         6.15861e+57
          1303.51200	         6.32679e+57
          1304.31830	         8.08396e+57
          1305.12460	         8.04930e+57
          1305.93090	         9.49898e+57
          1306.73720	         1.19990e+58
          1307.54350	         1.41289e+58
          1308.34980	         1.49330e+58
          1309.15610	         1.43165e+58
          1309.96240	         1.50055e+58
          1310.76870	         1.23936e+58
          1311.57500	         1.07639e+58
          1312.38130	         1.15431e+58
          1313.18760	         1.17456e+58
          1313.99390	         1.35622e+58
          1314.80020	         1.65232e+58
          1315.60650	         1.50256e+58
          1316.41280	         1.06775e+58
          1317.21910	         9.24758e+57
          1318.02540	         9.77021e+57
          1318.83170	         1.19430e+58
          1319.63800	         1.29922e+58
          1320.44430	         1.21855e+58
          1321.25060	         1.23622e+58
          1322.05690	         1.26539e+58
          1322.86320	         1.24422e+58
          1323.66950	         1.18965e+58
          1324.47580	         9.70842e+57
          1325.28210	         9.43700e+57
          1326.08840	         1.05432e+58
          1326.89470	         1.18797e+58
          1327.70100	         1.04625e+58
          1328.50730	         9.25166e+57
          1329.31360	         9.57525e+57
          1330.11990	         1.01912e+58
          1330.92620	         9.55484e+57
          1331.73250	         1.04962e+58
          1332.53880	         1.08450e+58
          1333.34510	         9.96248e+57
          1334.15140	         9.51519e+57
          1334.95770	         8.46331e+57
          1335.76400	         1.04253e+58
          1336.57030	         1.09385e+58
          1337.37660	         1.13566e+58
          1338.18290	         1.23864e+58
          1338.98920	         1.19986e+58
          1339.79550	         1.06495e+58
          1340.60180	         1.14847e+58
          1341.40810	         1.33499e+58
          1342.21440	         1.18244e+58
          1343.02070	         1.16968e+58
          1343.82700	         1.21491e+58
          1344.63330	         1.17856e+58
          1345.43960	         1.12441e+58
          1346.24590	         1.00043e+58
          1347.05220	         1.37941e+58
          1347.85850	         1.38612e+58
          1348.66480	         1.34576e+58
          1349.47110	         1.19058e+58
          1350.27740	         1.16407e+58
          1351.08370	         1.29164e+58
          1351.89000	         1.25886e+58
          1352.69630	         1.25223e+58
          1353.50260	         1.21438e+58
          1354.30890	         1.20378e+58
          1355.11520	         1.19230e+58
          1355.92150	         1.04895e+58
          1356.72780	         1.06709e+58
          1357.53410	         1.14318e+58
          1358.34040	         1.14373e+58
          1359.14670	         1.09390e+58
          1359.95300	         1.17238e+58
          1360.75930	         1.18524e+58
          1361.56560	         1.11755e+58
          1362.37190	         1.11344e+58
          1363.17820	         1.06118e+58
          1363.98450	         1.13270e+58
          1364.79080	         1.34019e+58
          1365.59710	         1.36667e+58
          1366.40340	         1.10492e+58
          1367.20970	         9.14432e+57
          1368.01600	         8.94971e+57
          1368.82230	         9.23188e+57
          1369.62860	         9.92660e+57
          1370.43490	         9.51277e+57
          1371.24120	         9.11354e+57
          1372.04750	         7.52465e+57
          1372.85380	         9.67003e+57
          1373.66010	         1.07978e+58
          1374.46640	         1.15541e+58
          1375.27270	         1.11901e+58
          1376.07900	         9.76332e+57
          1376.88530	         1.00665e+58
          1377.69160	         9.53100e+57
          1378.49790	         7.81555e+57
          1379.30420	         6.82446e+57
          1380.11050	         7.92497e+57
          1380.91680	         8.92438e+57
          1381.72310	         7.90465e+57
          1382.52940	         8.22210e+57
          1383.33570	         9.45520e+57
          1384.14200	         1.10213e+58
          1384.94830	         1.09667e+58
          1385.75460	         1.02336e+58
          1386.56090	         1.14479e+58
          1387.36720	         1.10426e+58
          1388.17350	         1.21318e+58
          1388.97980	         1.21468e+58
          1389.78610	         1.04306e+58
          1390.59240	         9.98186e+57
          1391.39870	         7.38188e+57
          1392.20500	         6.84212e+57
          1393.01130	         6.29181e+57
          1393.81760	         6.81445e+57
          1394.62390	         6.85993e+57
          1395.43020	         6.23523e+57
          1396.23650	         7.13657e+57
          1397.04280	         8.03189e+57
          1397.84910	         8.50892e+57
          1398.65540	         8.22195e+57
          1399.46170	         9.43086e+57
          1400.26800	         8.92810e+57
          1401.07430	         8.66302e+57
          1401.88060	         8.55509e+57
          1402.68690	         9.13183e+57
          1403.49320	         9.80748e+57
          1404.29950	         8.85897e+57
          1405.10580	         9.65755e+57
          1405.91210	         1.08734e+58
          1406.71840	         1.15337e+58
          1407.52470	         1.13809e+58
          1408.33100	         1.02827e+58
          1409.13730	         1.11830e+58
          1409.94360	         1.04737e+58
          1410.74990	         1.10236e+58
          1411.55620	         1.07908e+58
          1412.36250	         9.78082e+57
          1413.16880	         9.37919e+57
          1413.97510	         9.47312e+57
          1414.78140	         8.91202e+57
          1415.58770	         9.06981e+57
          1416.39400	         8.38833e+57
          1417.20030	         8.98140e+57
          1418.00660	         9.78427e+57
          1418.81290	         1.10276e+58
          1419.61920	         1.07825e+58
          1420.42550	         1.14499e+58
          1421.23180	         1.19867e+58
          1422.03810	         1.26235e+58
          1422.84440	         1.20405e+58
          1423.65070	         1.31834e+58
          1424.45700	         1.11207e+58
          1425.26330	         6.98370e+57
          1426.06960	         6.63519e+57
          1426.87590	         8.30650e+57
          1427.68220	         9.12376e+57
          1428.48850	         9.65911e+57
          1429.29480	         9.89351e+57
          1430.10110	         9.74511e+57
          1430.90740	         8.58827e+57
          1431.71370	         8.61013e+57
          1432.52000	         9.24972e+57
          1433.32630	         8.67887e+57
          1434.13260	         7.64663e+57
          1434.93890	         8.70872e+57
          1435.74520	         9.12628e+57
          1436.55150	         8.80206e+57
          1437.35780	         8.61803e+57
          1438.16410	         8.91083e+57
          1438.97040	         9.58372e+57
          1439.77670	         9.40875e+57
          1440.58300	         9.30971e+57
          1441.38930	         9.25687e+57
          1442.19560	         9.39696e+57
          1443.00190	         9.13930e+57
          1443.80820	         9.57032e+57
          1444.61450	         9.79761e+57
          1445.42080	         8.79695e+57
          1446.22710	         9.66314e+57
          1447.03340	         9.40494e+57
          1447.83970	         9.47495e+57
          1448.64600	         1.05120e+58
          1449.45230	         1.11565e+58
          1450.25860	         1.04987e+58
          1451.06490	         8.94512e+57
          1451.87120	         7.39572e+57
          1452.67750	         7.25808e+57
          1453.48380	         8.41177e+57
          1454.29010	         7.83821e+57
          1455.09640	         7.68587e+57
          1455.90270	         8.63834e+57
          1456.70900	         9.28975e+57
          1457.51530	         1.16056e+58
          1458.32160	         1.32312e+58
          1459.12790	         1.20367e+58
          1459.93420	         1.08153e+58
          1460.74050	         9.05957e+57
          1461.54680	         7.63983e+57
          1462.35310	         6.62009e+57
          1463.15940	         8.98356e+57
          1463.96570	         1.10759e+58
          1464.77200	         1.10725e+58
          1465.57830	         1.00964e+58
          1466.38460	         1.05528e+58
          1467.19090	         1.00684e+58
          1467.99720	         9.26809e+57
          1468.80350	         8.81221e+57
          1469.60980	         9.18841e+57
          1470.41610	         1.02009e+58
          1471.22240	         8.52085e+57
          1472.02870	         8.94801e+57
          1472.83500	         9.00759e+57
          1473.64130	         8.79474e+57
          1474.44760	         9.93601e+57
          1475.25390	         9.40894e+57
          1476.06020	         8.51442e+57
          1476.86650	         8.73032e+57
          1477.67280	         8.46573e+57
          1478.47910	         7.64838e+57
          1479.28540	         6.91061e+57
          1480.09170	         8.49141e+57
          1480.89800	         8.39913e+57
          1481.70430	         9.76279e+57
          1482.51060	         1.06737e+58
          1483.31690	         7.51889e+57
          1484.12320	         6.59545e+57
          1484.92950	         8.18075e+57
          1485.73580	         9.25295e+57
          1486.54210	         9.16168e+57
          1487.34840	         8.13891e+57
          1488.15470	         7.82588e+57
          1488.96100	         8.62134e+57
          1489.76730	         8.91252e+57
