#sample_203_stacked_spectrum_rest_UV-bands_median_H-alpha_noDC.txt
#median Lum: 1.66980e+42
#Rest-frame wavelength (A) | Luminosity (erg/s/A)
#
          1110.00000	         0.00000e+00
          1110.80630	         1.32530e+59
          1111.61260	         4.77933e+59
          1112.41890	         6.64155e+58
          1113.22520	        -1.75394e+59
          1114.03150	         4.61368e+58
          1114.83780	         3.32784e+59
          1115.64410	         2.32701e+59
          1116.45040	         1.45713e+59
          1117.25670	         1.36396e+59
          1118.06300	         6.00692e+58
          1118.86930	         9.63405e+58
          1119.67560	         2.21071e+59
          1120.48190	         3.08650e+58
          1121.28820	        -1.35209e+59
          1122.09450	        -1.40246e+58
          1122.90080	         2.26406e+58
          1123.70710	         6.28003e+58
          1124.51340	         1.60235e+59
          1125.31970	         3.29344e+57
          1126.12600	         2.75770e+58
          1126.93230	        -3.69258e+58
          1127.73860	        -2.26014e+58
          1128.54490	         2.82845e+58
          1129.35120	         7.65019e+57
          1130.15750	        -3.66765e+58
          1130.96380	        -4.42153e+58
          1131.77010	         4.16754e+58
          1132.57640	         7.96449e+58
          1133.38270	         5.83157e+58
          1134.18900	         4.76151e+58
          1134.99530	         4.89559e+58
          1135.80160	         2.98756e+58
          1136.60790	         2.64092e+58
          1137.41420	         2.62131e+58
          1138.22050	         5.85841e+58
          1139.02680	         4.75344e+58
          1139.83310	         3.45503e+58
          1140.63940	         3.73957e+58
          1141.44570	        -9.80354e+57
          1142.25200	         8.60888e+57
          1143.05830	         2.34948e+58
          1143.86460	         2.67082e+58
          1144.67090	         3.20987e+58
          1145.47720	         3.32493e+58
          1146.28350	         1.35578e+58
          1147.08980	         1.28165e+58
          1147.89610	         1.90924e+58
          1148.70240	         1.86853e+58
          1149.50870	         9.38117e+57
          1150.31500	         1.02637e+58
          1151.12130	         1.68630e+58
          1151.92760	         5.13916e+57
          1152.73390	         1.25093e+58
          1153.54020	         7.48068e+56
          1154.34650	         1.52544e+58
          1155.15280	         1.62934e+58
          1155.95910	         4.86385e+57
          1156.76540	         1.09270e+58
          1157.57170	         1.04617e+58
          1158.37800	         2.79719e+57
          1159.18430	        -3.70441e+57
          1159.99060	        -1.09780e+57
          1160.79690	         3.26939e+57
          1161.60320	         1.36979e+58
          1162.40950	         1.92879e+58
          1163.21580	         2.03311e+58
          1164.02210	         8.23041e+57
          1164.82840	         1.33287e+58
          1165.63470	         1.28652e+58
          1166.44100	         3.02957e+58
          1167.24730	         2.20617e+58
          1168.05360	         6.59931e+57
          1168.85990	         3.15463e+57
          1169.66620	         9.36972e+57
          1170.47250	         1.40702e+58
          1171.27880	         4.36724e+57
          1172.08510	         2.15870e+58
          1172.89140	         2.05150e+58
          1173.69770	         4.18813e+57
          1174.50400	         1.03795e+58
          1175.31030	         1.32514e+58
          1176.11660	         1.98880e+58
          1176.92290	         1.14495e+58
          1177.72920	         1.24725e+58
          1178.53550	         1.07455e+58
          1179.34180	         7.99589e+57
          1180.14810	         8.32704e+57
          1180.95440	         1.01259e+58
          1181.76070	         1.08433e+58
          1182.56700	         1.00613e+58
          1183.37330	         2.03358e+57
          1184.17960	         1.18322e+58
          1184.98590	         1.63818e+58
          1185.79220	         7.21413e+57
          1186.59850	         1.19846e+58
          1187.40480	         5.60700e+57
          1188.21110	         1.83769e+58
          1189.01740	         1.28296e+58
          1189.82370	         9.74170e+57
          1190.63000	         1.33842e+58
          1191.43630	         1.45518e+58
          1192.24260	         9.74966e+57
          1193.04890	         1.08711e+58
          1193.85520	         1.06240e+58
          1194.66150	         3.68748e+57
          1195.46780	         1.12415e+58
          1196.27410	         1.27205e+58
          1197.08040	         6.79958e+57
          1197.88670	         1.28896e+58
          1198.69300	         1.52149e+58
          1199.49930	         1.67361e+58
          1200.30560	         1.68561e+58
          1201.11190	         1.26420e+58
          1201.91820	         7.06339e+57
          1202.72450	         1.00237e+58
          1203.53080	         1.53960e+58
          1204.33710	         9.48609e+57
          1205.14340	         6.26811e+57
          1205.94970	         5.38869e+57
          1206.75600	         3.82094e+57
          1207.56230	         5.84916e+57
          1208.36860	         8.93401e+57
          1209.17490	         6.13510e+57
          1209.98120	         8.33004e+57
          1210.78750	         8.22825e+57
          1211.59380	         9.79075e+57
          1212.40010	         1.82965e+58
          1213.20640	         1.69041e+58
          1214.01270	         1.83582e+58
          1214.81900	         2.34786e+58
          1215.62530	         4.25537e+58
          1216.43160	         8.81502e+58
          1217.23790	         1.51656e+59
          1218.04420	         1.17831e+59
          1218.85050	         8.64449e+58
          1219.65680	         5.41073e+58
          1220.46310	         3.24269e+58
          1221.26940	         2.47814e+58
          1222.07570	         1.47711e+58
          1222.88200	         1.20721e+58
          1223.68830	         9.62772e+57
          1224.49460	         8.90067e+57
          1225.30090	         1.15036e+58
          1226.10720	         1.16063e+58
          1226.91350	         7.62146e+57
          1227.71980	         1.02360e+58
          1228.52610	         1.46120e+58
          1229.33240	         1.13583e+58
          1230.13870	         9.92792e+57
          1230.94500	         7.01806e+57
          1231.75130	         7.32473e+57
          1232.55760	         7.50325e+57
          1233.36390	         8.22400e+57
          1234.17020	         8.09300e+57
          1234.97650	         8.72374e+57
          1235.78280	         8.22453e+57
          1236.58910	         9.91426e+57
          1237.39540	         1.18423e+58
          1238.20170	         1.17662e+58
          1239.00800	         1.51794e+58
          1239.81430	         1.63585e+58
          1240.62060	         1.28159e+58
          1241.42690	         1.26030e+58
          1242.23320	         1.19714e+58
          1243.03950	         7.15898e+57
          1243.84580	         8.37511e+57
          1244.65210	         1.17893e+58
          1245.45840	         1.04443e+58
          1246.26470	         6.43733e+57
          1247.07100	         4.76107e+57
          1247.87730	         6.44529e+57
          1248.68360	         4.85044e+57
          1249.48990	         6.86511e+57
          1250.29620	         7.34122e+57
          1251.10250	         5.20866e+57
          1251.90880	         5.49311e+57
          1252.71510	         6.94829e+57
          1253.52140	         6.13793e+57
          1254.32770	         9.85173e+57
          1255.13400	         1.30760e+58
          1255.94030	         1.05317e+58
          1256.74660	         8.96936e+57
          1257.55290	         1.11553e+58
          1258.35920	         8.33271e+57
          1259.16550	         5.26310e+57
          1259.97180	         3.35420e+57
          1260.77810	         7.70355e+57
          1261.58440	         1.01211e+58
          1262.39070	         7.97338e+57
          1263.19700	         8.20317e+57
          1264.00330	         1.16134e+58
          1264.80960	         1.42115e+58
          1265.61590	         1.24980e+58
          1266.42220	         9.96493e+57
          1267.22850	         9.29160e+57
          1268.03480	         1.47232e+58
          1268.84110	         1.71714e+58
          1269.64740	         1.34508e+58
          1270.45370	         1.16702e+58
          1271.26000	         1.29214e+58
          1272.06630	         1.19373e+58
          1272.87260	         1.01905e+58
          1273.67890	         1.06046e+58
          1274.48520	         1.16323e+58
          1275.29150	         1.28153e+58
          1276.09780	         1.19807e+58
          1276.90410	         1.40986e+58
          1277.71040	         1.30052e+58
          1278.51670	         1.21471e+58
          1279.32300	         1.51166e+58
          1280.12930	         1.45834e+58
          1280.93560	         1.15007e+58
          1281.74190	         1.03921e+58
          1282.54820	         1.25853e+58
          1283.35450	         1.06743e+58
          1284.16080	         1.09921e+58
          1284.96710	         1.51701e+58
          1285.77340	         1.30588e+58
          1286.57970	         1.10872e+58
          1287.38600	         1.28300e+58
          1288.19230	         1.44301e+58
          1288.99860	         1.49507e+58
          1289.80490	         1.12688e+58
          1290.61120	         1.30043e+58
          1291.41750	         1.40980e+58
          1292.22380	         1.07633e+58
          1293.03010	         1.09379e+58
          1293.83640	         1.19475e+58
          1294.64270	         1.05360e+58
          1295.44900	         6.06685e+57
          1296.25530	         4.85413e+57
          1297.06160	         7.13202e+57
          1297.86790	         9.43494e+57
          1298.67420	         8.29127e+57
          1299.48050	         8.84175e+57
          1300.28680	         1.19869e+58
          1301.09310	         9.31964e+57
          1301.89940	         3.89639e+57
          1302.70570	         5.51724e+57
          1303.51200	         6.93677e+57
          1304.31830	         8.29571e+57
          1305.12460	         9.81076e+57
          1305.93090	         1.17105e+58
          1306.73720	         1.22712e+58
          1307.54350	         1.42600e+58
          1308.34980	         1.49566e+58
          1309.15610	         1.49835e+58
          1309.96240	         1.49689e+58
          1310.76870	         1.30611e+58
          1311.57500	         1.03277e+58
          1312.38130	         1.08521e+58
          1313.18760	         1.15858e+58
          1313.99390	         1.61774e+58
          1314.80020	         1.73296e+58
          1315.60650	         1.40915e+58
          1316.41280	         1.26820e+58
          1317.21910	         1.07597e+58
          1318.02540	         1.17979e+58
          1318.83170	         1.33433e+58
          1319.63800	         9.97335e+57
          1320.44430	         1.05797e+58
          1321.25060	         1.21050e+58
          1322.05690	         1.26758e+58
          1322.86320	         1.28669e+58
          1323.66950	         1.03504e+58
          1324.47580	         1.02749e+58
          1325.28210	         1.05295e+58
          1326.08840	         1.11850e+58
          1326.89470	         1.18427e+58
          1327.70100	         1.11063e+58
          1328.50730	         8.75117e+57
          1329.31360	         8.83972e+57
          1330.11990	         8.99135e+57
          1330.92620	         8.94963e+57
          1331.73250	         1.02289e+58
          1332.53880	         9.73686e+57
          1333.34510	         8.68687e+57
          1334.15140	         8.51051e+57
          1334.95770	         8.29971e+57
          1335.76400	         8.71159e+57
          1336.57030	         9.39050e+57
          1337.37660	         1.07038e+58
          1338.18290	         1.16316e+58
          1338.98920	         1.23286e+58
          1339.79550	         1.09746e+58
          1340.60180	         1.17980e+58
          1341.40810	         1.42359e+58
          1342.21440	         1.23854e+58
          1343.02070	         1.09506e+58
          1343.82700	         1.37399e+58
          1344.63330	         1.44989e+58
          1345.43960	         1.49112e+58
          1346.24590	         1.32155e+58
          1347.05220	         1.18063e+58
          1347.85850	         1.01739e+58
          1348.66480	         1.11894e+58
          1349.47110	         1.29446e+58
          1350.27740	         1.24915e+58
          1351.08370	         1.21829e+58
          1351.89000	         1.12273e+58
          1352.69630	         1.16929e+58
          1353.50260	         1.19165e+58
          1354.30890	         1.23215e+58
          1355.11520	         1.24344e+58
          1355.92150	         1.12458e+58
          1356.72780	         9.53505e+57
          1357.53410	         1.00365e+58
          1358.34040	         1.14527e+58
          1359.14670	         1.15528e+58
          1359.95300	         1.12108e+58
          1360.75930	         1.12418e+58
          1361.56560	         1.04601e+58
          1362.37190	         1.01989e+58
          1363.17820	         1.00197e+58
          1363.98450	         1.13718e+58
          1364.79080	         1.35470e+58
          1365.59710	         1.36186e+58
          1366.40340	         1.01656e+58
          1367.20970	         9.94274e+57
          1368.01600	         1.13082e+58
          1368.82230	         9.39136e+57
          1369.62860	         9.90501e+57
          1370.43490	         9.77782e+57
          1371.24120	         9.88415e+57
          1372.04750	         8.63927e+57
          1372.85380	         1.13990e+58
          1373.66010	         1.03204e+58
          1374.46640	         1.03199e+58
          1375.27270	         1.12797e+58
          1376.07900	         9.93810e+57
          1376.88530	         9.21915e+57
          1377.69160	         8.95227e+57
          1378.49790	         7.39979e+57
          1379.30420	         9.14188e+57
          1380.11050	         1.06738e+58
          1380.91680	         6.92348e+57
          1381.72310	         6.77844e+57
          1382.52940	         8.16887e+57
          1383.33570	         9.33581e+57
          1384.14200	         1.00349e+58
          1384.94830	         9.01412e+57
          1385.75460	         1.01214e+58
          1386.56090	         1.08344e+58
          1387.36720	         8.91960e+57
          1388.17350	         1.09072e+58
          1388.97980	         1.09464e+58
          1389.78610	         8.59366e+57
          1390.59240	         8.30109e+57
          1391.39870	         6.95141e+57
          1392.20500	         7.20666e+57
          1393.01130	         6.74756e+57
          1393.81760	         8.38634e+57
          1394.62390	         8.24768e+57
          1395.43020	         6.19936e+57
          1396.23650	         6.24046e+57
          1397.04280	         7.85065e+57
          1397.84910	         8.66425e+57
          1398.65540	         8.75749e+57
          1399.46170	         8.83123e+57
          1400.26800	         7.22681e+57
          1401.07430	         7.87120e+57
          1401.88060	         8.42546e+57
          1402.68690	         8.96418e+57
          1403.49320	         8.83657e+57
          1404.29950	         9.06268e+57
          1405.10580	         1.05454e+58
          1405.91210	         1.13879e+58
          1406.71840	         1.14077e+58
          1407.52470	         1.14790e+58
          1408.33100	         1.05900e+58
          1409.13730	         1.09553e+58
          1409.94360	         1.21660e+58
          1410.74990	         1.12218e+58
          1411.55620	         9.85174e+57
          1412.36250	         8.51717e+57
          1413.16880	         8.13019e+57
          1413.97510	         7.45005e+57
          1414.78140	         6.75632e+57
          1415.58770	         9.55864e+57
          1416.39400	         1.01032e+58
          1417.20030	         1.07554e+58
          1418.00660	         1.02370e+58
          1418.81290	         9.49098e+57
          1419.61920	         9.29845e+57
          1420.42550	         1.14405e+58
          1421.23180	         1.32463e+58
          1422.03810	         1.18984e+58
          1422.84440	         1.04679e+58
          1423.65070	         1.16887e+58
          1424.45700	         9.69166e+57
          1425.26330	         9.05994e+57
          1426.06960	         9.96051e+57
          1426.87590	         1.12416e+58
          1427.68220	         1.01127e+58
          1428.48850	         9.14498e+57
          1429.29480	         9.99681e+57
          1430.10110	         1.02975e+58
          1430.90740	         9.29538e+57
          1431.71370	         9.20990e+57
          1432.52000	         8.37692e+57
          1433.32630	         8.42286e+57
          1434.13260	         8.77756e+57
          1434.93890	         8.37756e+57
          1435.74520	         9.37520e+57
          1436.55150	         1.01403e+58
          1437.35780	         1.00265e+58
          1438.16410	         9.61315e+57
          1438.97040	         9.91489e+57
          1439.77670	         9.39697e+57
          1440.58300	         8.93117e+57
          1441.38930	         9.86522e+57
          1442.19560	         1.01429e+58
          1443.00190	         9.89936e+57
          1443.80820	         1.14297e+58
          1444.61450	         1.03273e+58
          1445.42080	         8.39158e+57
          1446.22710	         9.41536e+57
          1447.03340	         1.02979e+58
          1447.83970	         1.06267e+58
          1448.64600	         1.10801e+58
          1449.45230	         9.60436e+57
          1450.25860	         9.27898e+57
          1451.06490	         8.88426e+57
          1451.87120	         8.36507e+57
          1452.67750	         7.36413e+57
          1453.48380	         7.47635e+57
          1454.29010	         8.41395e+57
          1455.09640	         7.75515e+57
          1455.90270	         8.24532e+57
          1456.70900	         8.92420e+57
          1457.51530	         9.65096e+57
          1458.32160	         1.23176e+58
          1459.12790	         1.32407e+58
          1459.93420	         1.06545e+58
          1460.74050	         7.31526e+57
          1461.54680	         6.81044e+57
          1462.35310	         7.14826e+57
          1463.15940	         9.11140e+57
          1463.96570	         1.06877e+58
          1464.77200	         1.15151e+58
          1465.57830	         1.02691e+58
          1466.38460	         8.75596e+57
          1467.19090	         8.93953e+57
          1467.99720	         9.05332e+57
          1468.80350	         9.31089e+57
          1469.60980	         1.00678e+58
          1470.41610	         1.12767e+58
          1471.22240	         9.70720e+57
          1472.02870	         9.02136e+57
          1472.83500	         8.88366e+57
          1473.64130	         9.85374e+57
          1474.44760	         1.02216e+58
          1475.25390	         8.43641e+57
          1476.06020	         8.69211e+57
          1476.86650	         9.70257e+57
          1477.67280	         7.94931e+57
          1478.47910	         7.39941e+57
          1479.28540	         7.43447e+57
          1480.09170	         7.70039e+57
          1480.89800	         7.74455e+57
          1481.70430	         8.58415e+57
          1482.51060	         8.40086e+57
          1483.31690	         8.15176e+57
          1484.12320	         6.87172e+57
          1484.92950	         8.00130e+57
          1485.73580	         8.44434e+57
          1486.54210	         7.89948e+57
          1487.34840	         8.46062e+57
          1488.15470	         8.52658e+57
          1488.96100	         8.94016e+57
          1489.76730	         9.55314e+57
