#sample_377_stacked_spectrum_rest_UV-bands_median_H-alpha_noDC.txt
#median Lum: 1.68597e+42
#Rest-frame wavelength (A) | Luminosity (erg/s/A)
#
          1110.00000	         0.00000e+00
          1110.80630	         6.97613e+57
          1111.61260	        -4.31081e+58
          1112.41890	        -6.86229e+58
          1113.22520	        -5.02051e+58
          1114.03150	        -2.36146e+59
          1114.83780	        -7.17310e+58
          1115.64410	         4.26425e+58
          1116.45040	        -3.33997e+58
          1117.25670	         7.91397e+57
          1118.06300	         2.12733e+59
          1118.86930	         7.38656e+58
          1119.67560	         1.24846e+59
          1120.48190	        -3.18442e+58
          1121.28820	        -6.61945e+58
          1122.09450	         8.08655e+58
          1122.90080	         1.84279e+57
          1123.70710	         3.69636e+58
          1124.51340	         6.07425e+58
          1125.31970	        -8.73023e+57
          1126.12600	        -3.54341e+58
          1126.93230	        -4.90228e+58
          1127.73860	        -1.41474e+58
          1128.54490	        -2.00160e+58
          1129.35120	         1.23824e+58
          1130.15750	        -5.08436e+58
          1130.96380	        -3.18323e+58
          1131.77010	         3.52660e+58
          1132.57640	         4.70391e+58
          1133.38270	         3.94007e+58
          1134.18900	         2.81292e+58
          1134.99530	         1.89613e+58
          1135.80160	         2.09571e+58
          1136.60790	         1.02750e+58
          1137.41420	         2.62822e+57
          1138.22050	         4.02482e+58
          1139.02680	         4.92159e+58
          1139.83310	         4.14622e+58
          1140.63940	         3.21769e+58
          1141.44570	        -7.36221e+57
          1142.25200	         3.01552e+57
          1143.05830	         2.97891e+58
          1143.86460	         2.81999e+58
          1144.67090	         2.14434e+58
          1145.47720	         9.73767e+57
          1146.28350	        -4.78127e+57
          1147.08980	         6.54099e+57
          1147.89610	         2.16104e+58
          1148.70240	         3.07382e+58
          1149.50870	         2.00002e+58
          1150.31500	         1.14554e+58
          1151.12130	         7.69379e+57
          1151.92760	         1.68872e+58
          1152.73390	         1.60007e+58
          1153.54020	         1.19435e+58
          1154.34650	         2.31621e+58
          1155.15280	         1.95079e+58
          1155.95910	        -1.09681e+58
          1156.76540	        -1.41024e+58
          1157.57170	        -1.22207e+57
          1158.37800	         4.03431e+57
          1159.18430	        -1.19157e+57
          1159.99060	         2.02684e+57
          1160.79690	         6.22098e+56
          1161.60320	         1.89742e+58
          1162.40950	         2.04106e+58
          1163.21580	         1.09329e+58
          1164.02210	         3.85397e+57
          1164.82840	         1.22003e+58
          1165.63470	         1.61131e+58
          1166.44100	         2.60422e+58
          1167.24730	         2.37715e+58
          1168.05360	         8.05381e+57
          1168.85990	         8.18932e+57
          1169.66620	         1.12724e+58
          1170.47250	         1.19299e+58
          1171.27880	         6.27422e+57
          1172.08510	         1.92763e+58
          1172.89140	         2.03700e+58
          1173.69770	         1.83957e+58
          1174.50400	         1.47528e+58
          1175.31030	         1.64708e+58
          1176.11660	         2.06991e+58
          1176.92290	         1.47627e+58
          1177.72920	         8.67297e+57
          1178.53550	         5.87859e+57
          1179.34180	        -3.86972e+56
          1180.14810	         8.13641e+57
          1180.95440	         8.90038e+57
          1181.76070	         5.16243e+57
          1182.56700	         6.25138e+57
          1183.37330	         4.79065e+57
          1184.17960	         9.36413e+57
          1184.98590	         7.29845e+57
          1185.79220	         8.57236e+57
          1186.59850	         8.27346e+57
          1187.40480	         1.27955e+58
          1188.21110	         1.80912e+58
          1189.01740	         1.26200e+58
          1189.82370	         1.14074e+58
          1190.63000	         1.24701e+58
          1191.43630	         1.18194e+58
          1192.24260	         8.37131e+57
          1193.04890	         1.28740e+58
          1193.85520	         1.16931e+58
          1194.66150	         7.81929e+57
          1195.46780	         1.25693e+58
          1196.27410	         1.52912e+58
          1197.08040	         7.50475e+57
          1197.88670	         1.26173e+58
          1198.69300	         1.57859e+58
          1199.49930	         1.58165e+58
          1200.30560	         1.09182e+58
          1201.11190	         1.10383e+58
          1201.91820	         7.81742e+57
          1202.72450	         7.51102e+57
          1203.53080	         1.43667e+58
          1204.33710	         1.22424e+58
          1205.14340	         7.94156e+57
          1205.94970	         9.80869e+57
          1206.75600	         6.06841e+57
          1207.56230	         2.10383e+57
          1208.36860	         8.85030e+57
          1209.17490	         5.95695e+57
          1209.98120	         3.40192e+57
          1210.78750	         5.97877e+57
          1211.59380	         8.20286e+57
          1212.40010	         1.65379e+58
          1213.20640	         2.09791e+58
          1214.01270	         2.03674e+58
          1214.81900	         2.45628e+58
          1215.62530	         4.40176e+58
          1216.43160	         9.05655e+58
          1217.23790	         1.52778e+59
          1218.04420	         1.12547e+59
          1218.85050	         8.64548e+58
          1219.65680	         5.88575e+58
          1220.46310	         2.89275e+58
          1221.26940	         1.85216e+58
          1222.07570	         1.30155e+58
          1222.88200	         1.51661e+58
          1223.68830	         1.30580e+58
          1224.49460	         8.72822e+57
          1225.30090	         7.47968e+57
          1226.10720	         6.33417e+57
          1226.91350	         7.24327e+57
          1227.71980	         9.15564e+57
          1228.52610	         9.71583e+57
          1229.33240	         1.01113e+58
          1230.13870	         7.35824e+57
          1230.94500	         6.63796e+57
          1231.75130	         7.16196e+57
          1232.55760	         7.09925e+57
          1233.36390	         9.75254e+57
          1234.17020	         9.42592e+57
          1234.97650	         7.53181e+57
          1235.78280	         9.27999e+57
          1236.58910	         1.16470e+58
          1237.39540	         1.27853e+58
          1238.20170	         9.33342e+57
          1239.00800	         1.16710e+58
          1239.81430	         1.37597e+58
          1240.62060	         1.29424e+58
          1241.42690	         1.25014e+58
          1242.23320	         1.14058e+58
          1243.03950	         8.72187e+57
          1243.84580	         8.69076e+57
          1244.65210	         8.17827e+57
          1245.45840	         9.97445e+57
          1246.26470	         9.08450e+57
          1247.07100	         3.73713e+57
          1247.87730	         4.30891e+57
          1248.68360	         4.13165e+57
          1249.48990	         3.90949e+57
          1250.29620	         1.08908e+58
          1251.10250	         1.04180e+58
          1251.90880	         8.23892e+57
          1252.71510	         8.13398e+57
          1253.52140	         6.73898e+57
          1254.32770	         8.38344e+57
          1255.13400	         1.17941e+58
          1255.94030	         9.81519e+57
          1256.74660	         8.42499e+57
          1257.55290	         9.50139e+57
          1258.35920	         7.95712e+57
          1259.16550	         4.77788e+57
          1259.97180	         5.31260e+57
          1260.77810	         8.23213e+57
          1261.58440	         1.07295e+58
          1262.39070	         8.63932e+57
          1263.19700	         9.41019e+57
          1264.00330	         8.84629e+57
          1264.80960	         8.65041e+57
          1265.61590	         1.26783e+58
          1266.42220	         1.36048e+58
          1267.22850	         1.17532e+58
          1268.03480	         1.44517e+58
          1268.84110	         1.49989e+58
          1269.64740	         1.41664e+58
          1270.45370	         1.28184e+58
          1271.26000	         1.27289e+58
          1272.06630	         1.46623e+58
          1272.87260	         1.40506e+58
          1273.67890	         1.34312e+58
          1274.48520	         1.25518e+58
          1275.29150	         1.22172e+58
          1276.09780	         1.14070e+58
          1276.90410	         1.27137e+58
          1277.71040	         1.13906e+58
          1278.51670	         1.26742e+58
          1279.32300	         1.38394e+58
          1280.12930	         1.09955e+58
          1280.93560	         1.15023e+58
          1281.74190	         1.17330e+58
          1282.54820	         1.06253e+58
          1283.35450	         1.02857e+58
          1284.16080	         1.05192e+58
          1284.96710	         1.21259e+58
          1285.77340	         1.07793e+58
          1286.57970	         1.34642e+58
          1287.38600	         1.66940e+58
          1288.19230	         1.98479e+58
          1288.99860	         1.64865e+58
          1289.80490	         1.13310e+58
          1290.61120	         1.42776e+58
          1291.41750	         1.56346e+58
          1292.22380	         1.30300e+58
          1293.03010	         1.11941e+58
          1293.83640	         1.16143e+58
          1294.64270	         1.06525e+58
          1295.44900	         6.77234e+57
          1296.25530	         6.54074e+57
          1297.06160	         9.96272e+57
          1297.86790	         1.14154e+58
          1298.67420	         9.90489e+57
          1299.48050	         9.15785e+57
          1300.28680	         9.72451e+57
          1301.09310	         8.18370e+57
          1301.89940	         5.78948e+57
          1302.70570	         6.64534e+57
          1303.51200	         8.57780e+57
          1304.31830	         1.12160e+58
          1305.12460	         1.10456e+58
          1305.93090	         1.09597e+58
          1306.73720	         1.20976e+58
          1307.54350	         1.38344e+58
          1308.34980	         1.57127e+58
          1309.15610	         1.65989e+58
          1309.96240	         1.63808e+58
          1310.76870	         1.24100e+58
          1311.57500	         8.88791e+57
          1312.38130	         1.04172e+58
          1313.18760	         1.38510e+58
          1313.99390	         1.64671e+58
          1314.80020	         1.61708e+58
          1315.60650	         1.44943e+58
          1316.41280	         1.29282e+58
          1317.21910	         1.15207e+58
          1318.02540	         1.35306e+58
          1318.83170	         1.42277e+58
          1319.63800	         1.31385e+58
          1320.44430	         1.22502e+58
          1321.25060	         1.27461e+58
          1322.05690	         1.24406e+58
          1322.86320	         1.10547e+58
          1323.66950	         1.00842e+58
          1324.47580	         9.52247e+57
          1325.28210	         8.71252e+57
          1326.08840	         1.05415e+58
          1326.89470	         1.19637e+58
          1327.70100	         1.13720e+58
          1328.50730	         9.95823e+57
          1329.31360	         1.06238e+58
          1330.11990	         9.15445e+57
          1330.92620	         8.45254e+57
          1331.73250	         1.13489e+58
          1332.53880	         1.07327e+58
          1333.34510	         1.00603e+58
          1334.15140	         9.88199e+57
          1334.95770	         1.00961e+58
          1335.76400	         1.01970e+58
          1336.57030	         1.07339e+58
          1337.37660	         1.09662e+58
          1338.18290	         1.10072e+58
          1338.98920	         1.10560e+58
          1339.79550	         1.09262e+58
          1340.60180	         1.14638e+58
          1341.40810	         1.25393e+58
          1342.21440	         1.20003e+58
          1343.02070	         1.38230e+58
          1343.82700	         1.32892e+58
          1344.63330	         1.05586e+58
          1345.43960	         1.15928e+58
          1346.24590	         1.23760e+58
          1347.05220	         1.12057e+58
          1347.85850	         9.01789e+57
          1348.66480	         1.12240e+58
          1349.47110	         1.28500e+58
          1350.27740	         1.17429e+58
          1351.08370	         1.18247e+58
          1351.89000	         1.10843e+58
          1352.69630	         1.14183e+58
          1353.50260	         1.21818e+58
          1354.30890	         1.14729e+58
          1355.11520	         1.10184e+58
          1355.92150	         1.01874e+58
          1356.72780	         9.82711e+57
          1357.53410	         9.68740e+57
          1358.34040	         1.03394e+58
          1359.14670	         1.15542e+58
          1359.95300	         1.07382e+58
          1360.75930	         1.01038e+58
          1361.56560	         1.17386e+58
          1362.37190	         1.29897e+58
          1363.17820	         1.25165e+58
          1363.98450	         1.32242e+58
          1364.79080	         1.39705e+58
          1365.59710	         1.21395e+58
          1366.40340	         1.05491e+58
          1367.20970	         1.07363e+58
          1368.01600	         1.12221e+58
          1368.82230	         1.02453e+58
          1369.62860	         9.76166e+57
          1370.43490	         9.09617e+57
          1371.24120	         8.73677e+57
          1372.04750	         7.85787e+57
          1372.85380	         9.71993e+57
          1373.66010	         1.06768e+58
          1374.46640	         9.39375e+57
          1375.27270	         1.10368e+58
          1376.07900	         1.02013e+58
          1376.88530	         9.17959e+57
          1377.69160	         9.13845e+57
          1378.49790	         7.43749e+57
          1379.30420	         7.50903e+57
          1380.11050	         8.85712e+57
          1380.91680	         9.16449e+57
          1381.72310	         9.51288e+57
          1382.52940	         9.79377e+57
          1383.33570	         7.00461e+57
          1384.14200	         8.67452e+57
          1384.94830	         1.13103e+58
          1385.75460	         1.03441e+58
          1386.56090	         1.05803e+58
          1387.36720	         1.16039e+58
          1388.17350	         1.42588e+58
          1388.97980	         1.16412e+58
          1389.78610	         9.46784e+57
          1390.59240	         7.83911e+57
          1391.39870	         7.10732e+57
          1392.20500	         8.91825e+57
          1393.01130	         8.41076e+57
          1393.81760	         7.00027e+57
          1394.62390	         7.10688e+57
          1395.43020	         6.09881e+57
          1396.23650	         5.41390e+57
          1397.04280	         6.25466e+57
          1397.84910	         7.16423e+57
          1398.65540	         8.24800e+57
          1399.46170	         9.00711e+57
          1400.26800	         6.90106e+57
          1401.07430	         6.32810e+57
          1401.88060	         7.20854e+57
          1402.68690	         9.07727e+57
          1403.49320	         9.79730e+57
          1404.29950	         9.53233e+57
          1405.10580	         1.01190e+58
          1405.91210	         1.12463e+58
          1406.71840	         1.11586e+58
          1407.52470	         1.05331e+58
          1408.33100	         1.09379e+58
          1409.13730	         1.03465e+58
          1409.94360	         1.07980e+58
          1410.74990	         1.18310e+58
          1411.55620	         1.11659e+58
          1412.36250	         9.42700e+57
          1413.16880	         9.01636e+57
          1413.97510	         8.15520e+57
          1414.78140	         8.74988e+57
          1415.58770	         1.02631e+58
          1416.39400	         1.08602e+58
          1417.20030	         1.19434e+58
          1418.00660	         1.19591e+58
          1418.81290	         1.10394e+58
          1419.61920	         9.95147e+57
          1420.42550	         1.19363e+58
          1421.23180	         1.41332e+58
          1422.03810	         1.26083e+58
          1422.84440	         1.13180e+58
          1423.65070	         1.38681e+58
          1424.45700	         1.12891e+58
          1425.26330	         9.19542e+57
          1426.06960	         8.80499e+57
          1426.87590	         9.69288e+57
          1427.68220	         1.11544e+58
          1428.48850	         1.14632e+58
          1429.29480	         1.09027e+58
          1430.10110	         9.85705e+57
          1430.90740	         8.18768e+57
          1431.71370	         8.91103e+57
          1432.52000	         9.21206e+57
          1433.32630	         7.84089e+57
          1434.13260	         8.49575e+57
          1434.93890	         8.83390e+57
          1435.74520	         8.96858e+57
          1436.55150	         9.31710e+57
          1437.35780	         8.63877e+57
          1438.16410	         9.14226e+57
          1438.97040	         9.62942e+57
          1439.77670	         9.33866e+57
          1440.58300	         9.27728e+57
          1441.38930	         9.95739e+57
          1442.19560	         9.74708e+57
          1443.00190	         9.40082e+57
          1443.80820	         1.02723e+58
          1444.61450	         9.17120e+57
          1445.42080	         7.16561e+57
          1446.22710	         8.14112e+57
          1447.03340	         8.67059e+57
          1447.83970	         9.81874e+57
          1448.64600	         1.12929e+58
          1449.45230	         1.00050e+58
          1450.25860	         9.46311e+57
          1451.06490	         9.25192e+57
          1451.87120	         8.32401e+57
          1452.67750	         7.86491e+57
          1453.48380	         8.94810e+57
          1454.29010	         8.01980e+57
          1455.09640	         6.72811e+57
          1455.90270	         8.51700e+57
          1456.70900	         8.49693e+57
          1457.51530	         8.83579e+57
          1458.32160	         1.16656e+58
          1459.12790	         1.16938e+58
          1459.93420	         1.00217e+58
          1460.74050	         7.96679e+57
          1461.54680	         8.63067e+57
          1462.35310	         7.56741e+57
          1463.15940	         8.47034e+57
          1463.96570	         1.00932e+58
          1464.77200	         9.90654e+57
          1465.57830	         9.48773e+57
          1466.38460	         8.50086e+57
          1467.19090	         7.95697e+57
          1467.99720	         7.93307e+57
          1468.80350	         9.06263e+57
          1469.60980	         9.79043e+57
          1470.41610	         1.02713e+58
          1471.22240	         8.73172e+57
          1472.02870	         9.08775e+57
          1472.83500	         9.35943e+57
          1473.64130	         9.06931e+57
          1474.44760	         9.78445e+57
          1475.25390	         8.92736e+57
          1476.06020	         9.01778e+57
          1476.86650	         9.14554e+57
          1477.67280	         7.83712e+57
          1478.47910	         7.70401e+57
          1479.28540	         7.74531e+57
          1480.09170	         8.55941e+57
          1480.89800	         8.09742e+57
          1481.70430	         7.83254e+57
          1482.51060	         8.55802e+57
          1483.31690	         8.83933e+57
          1484.12320	         7.83276e+57
          1484.92950	         7.94229e+57
          1485.73580	         8.19485e+57
          1486.54210	         9.06490e+57
          1487.34840	         9.91904e+57
          1488.15470	         9.10002e+57
          1488.96100	         8.71389e+57
          1489.76730	         8.88597e+57
