#sample_186_stacked_spectrum_rest_UV-bands_median_H-alpha_noDC.txt
#median Lum: 1.68866e+42
#Rest-frame wavelength (A) | Luminosity (erg/s/A)
#
          1110.00000	         0.00000e+00
          1110.80630	         3.07365e+59
          1111.61260	         7.70923e+58
          1112.41890	         6.68433e+58
          1113.22520	         1.19437e+59
          1114.03150	        -7.78905e+58
          1114.83780	         3.36216e+59
          1115.64410	         1.45770e+59
          1116.45040	         1.45301e+59
          1117.25670	        -7.00715e+57
          1118.06300	         4.25547e+58
          1118.86930	         1.16700e+59
          1119.67560	         6.59133e+58
          1120.48190	        -3.82033e+58
          1121.28820	        -9.66793e+58
          1122.09450	        -2.28678e+58
          1122.90080	         5.41676e+58
          1123.70710	         7.95463e+58
          1124.51340	         7.65491e+58
          1125.31970	         8.28702e+57
          1126.12600	         4.16547e+58
          1126.93230	        -1.90965e+58
          1127.73860	        -2.50164e+58
          1128.54490	        -7.03243e+57
          1129.35120	        -1.06893e+58
          1130.15750	        -4.37833e+58
          1130.96380	        -6.06755e+58
          1131.77010	         2.13295e+58
          1132.57640	         3.40985e+58
          1133.38270	         2.71006e+58
          1134.18900	         3.60135e+58
          1134.99530	         2.53818e+58
          1135.80160	         1.56727e+58
          1136.60790	         1.05817e+58
          1137.41420	         1.42293e+58
          1138.22050	         4.29893e+58
          1139.02680	         3.05795e+58
          1139.83310	         3.41267e+58
          1140.63940	         3.60320e+58
          1141.44570	        -2.08411e+57
          1142.25200	        -6.40306e+57
          1143.05830	         1.46210e+57
          1143.86460	         6.15599e+57
          1144.67090	         1.87450e+58
          1145.47720	         1.55265e+58
          1146.28350	         1.66698e+58
          1147.08980	         1.14573e+58
          1147.89610	         1.35770e+58
          1148.70240	         2.62973e+58
          1149.50870	         1.77727e+58
          1150.31500	         1.22061e+58
          1151.12130	         4.78295e+57
          1151.92760	         1.65209e+57
          1152.73390	        -2.04972e+56
          1153.54020	         1.50894e+57
          1154.34650	         2.32461e+58
          1155.15280	         1.55784e+58
          1155.95910	         8.80033e+57
          1156.76540	         1.12998e+58
          1157.57170	         1.67075e+57
          1158.37800	         5.90006e+57
          1159.18430	         5.24832e+57
          1159.99060	         9.14517e+57
          1160.79690	         5.91473e+57
          1161.60320	         8.48544e+57
          1162.40950	         1.81858e+58
          1163.21580	         1.50596e+58
          1164.02210	         1.30170e+58
          1164.82840	         1.20530e+58
          1165.63470	         2.59400e+58
          1166.44100	         3.52788e+58
          1167.24730	         2.36326e+58
          1168.05360	         6.46304e+57
          1168.85990	         6.55237e+57
          1169.66620	         8.28439e+57
          1170.47250	         1.39187e+58
          1171.27880	         1.81926e+58
          1172.08510	         2.08439e+58
          1172.89140	         1.77788e+58
          1173.69770	         6.97972e+57
          1174.50400	         1.75035e+58
          1175.31030	         1.93681e+58
          1176.11660	         1.78314e+58
          1176.92290	         1.56250e+58
          1177.72920	         1.40382e+58
          1178.53550	         8.31609e+57
          1179.34180	         1.86073e+57
          1180.14810	         2.36530e+57
          1180.95440	         8.98325e+57
          1181.76070	         8.12700e+57
          1182.56700	         1.36258e+58
          1183.37330	         9.72056e+57
          1184.17960	         1.26226e+58
          1184.98590	         1.29856e+58
          1185.79220	         6.86408e+57
          1186.59850	         1.04196e+58
          1187.40480	         1.30569e+58
          1188.21110	         1.39045e+58
          1189.01740	         1.62552e+57
          1189.82370	         7.42768e+57
          1190.63000	         1.06687e+58
          1191.43630	         1.49921e+58
          1192.24260	         9.52607e+57
          1193.04890	         1.27653e+58
          1193.85520	         1.25220e+58
          1194.66150	         8.14207e+57
          1195.46780	         1.37423e+58
          1196.27410	         1.67150e+58
          1197.08040	         1.37593e+58
          1197.88670	         1.85521e+58
          1198.69300	         1.80604e+58
          1199.49930	         1.70854e+58
          1200.30560	         1.33214e+58
          1201.11190	         8.32691e+57
          1201.91820	         1.22650e+58
          1202.72450	         1.15884e+58
          1203.53080	         9.73060e+57
          1204.33710	         7.19325e+57
          1205.14340	         6.57402e+57
          1205.94970	         4.66911e+57
          1206.75600	         6.22302e+57
          1207.56230	         2.30175e+57
          1208.36860	         1.08772e+58
          1209.17490	         5.44516e+57
          1209.98120	         6.47504e+57
          1210.78750	         1.02152e+58
          1211.59380	         1.28645e+58
          1212.40010	         1.86680e+58
          1213.20640	         1.96845e+58
          1214.01270	         2.05063e+58
          1214.81900	         2.45674e+58
          1215.62530	         4.31251e+58
          1216.43160	         9.11148e+58
          1217.23790	         1.53368e+59
          1218.04420	         1.19221e+59
          1218.85050	         8.88081e+58
          1219.65680	         6.07276e+58
          1220.46310	         3.80296e+58
          1221.26940	         2.35191e+58
          1222.07570	         1.23098e+58
          1222.88200	         1.04919e+58
          1223.68830	         1.08249e+58
          1224.49460	         8.54392e+57
          1225.30090	         6.24726e+57
          1226.10720	         5.26881e+57
          1226.91350	         7.18074e+57
          1227.71980	         7.66116e+57
          1228.52610	         1.11626e+58
          1229.33240	         1.17247e+58
          1230.13870	         1.04477e+58
          1230.94500	         8.43505e+57
          1231.75130	         7.03698e+57
          1232.55760	         7.49227e+57
          1233.36390	         8.63153e+57
          1234.17020	         8.37961e+57
          1234.97650	         7.92005e+57
          1235.78280	         9.27147e+57
          1236.58910	         9.42569e+57
          1237.39540	         1.00938e+58
          1238.20170	         9.10165e+57
          1239.00800	         1.09262e+58
          1239.81430	         1.30796e+58
          1240.62060	         8.79139e+57
          1241.42690	         8.49170e+57
          1242.23320	         1.03475e+58
          1243.03950	         6.30755e+57
          1243.84580	         7.89705e+57
          1244.65210	         1.10921e+58
          1245.45840	         1.23529e+58
          1246.26470	         1.02557e+58
          1247.07100	         6.16705e+57
          1247.87730	         8.22743e+57
          1248.68360	         4.79570e+57
          1249.48990	         7.65369e+57
          1250.29620	         1.25850e+58
          1251.10250	         8.82922e+57
          1251.90880	         1.83812e+57
          1252.71510	         4.28602e+57
          1253.52140	         7.37088e+57
          1254.32770	         9.82025e+57
          1255.13400	         1.39468e+58
          1255.94030	         1.23321e+58
          1256.74660	         1.06949e+58
          1257.55290	         9.92912e+57
          1258.35920	         8.41418e+57
          1259.16550	         5.76966e+57
          1259.97180	         6.27035e+57
          1260.77810	         8.75799e+57
          1261.58440	         1.06057e+58
          1262.39070	         8.41155e+57
          1263.19700	         8.28846e+57
          1264.00330	         7.50096e+57
          1264.80960	         1.07144e+58
          1265.61590	         1.21713e+58
          1266.42220	         1.21655e+58
          1267.22850	         1.16887e+58
          1268.03480	         1.52929e+58
          1268.84110	         1.60946e+58
          1269.64740	         1.32479e+58
          1270.45370	         1.30308e+58
          1271.26000	         1.25270e+58
          1272.06630	         1.17168e+58
          1272.87260	         1.19106e+58
          1273.67890	         1.26741e+58
          1274.48520	         1.23798e+58
          1275.29150	         1.24042e+58
          1276.09780	         1.17801e+58
          1276.90410	         1.47043e+58
          1277.71040	         1.37353e+58
          1278.51670	         1.24119e+58
          1279.32300	         1.33325e+58
          1280.12930	         1.33932e+58
          1280.93560	         1.30036e+58
          1281.74190	         1.29428e+58
          1282.54820	         1.24538e+58
          1283.35450	         1.07411e+58
          1284.16080	         1.04593e+58
          1284.96710	         1.30723e+58
          1285.77340	         1.33417e+58
          1286.57970	         1.11061e+58
          1287.38600	         1.45215e+58
          1288.19230	         1.97600e+58
          1288.99860	         1.71935e+58
          1289.80490	         1.32220e+58
          1290.61120	         1.30029e+58
          1291.41750	         1.23973e+58
          1292.22380	         1.20960e+58
          1293.03010	         1.12210e+58
          1293.83640	         9.96682e+57
          1294.64270	         9.94984e+57
          1295.44900	         6.85438e+57
          1296.25530	         6.87848e+57
          1297.06160	         1.01110e+58
          1297.86790	         9.47663e+57
          1298.67420	         9.37821e+57
          1299.48050	         1.14973e+58
          1300.28680	         1.08606e+58
          1301.09310	         9.46996e+57
          1301.89940	         5.63041e+57
          1302.70570	         6.94872e+57
          1303.51200	         8.41124e+57
          1304.31830	         1.05869e+58
          1305.12460	         1.14765e+58
          1305.93090	         1.14992e+58
          1306.73720	         1.26608e+58
          1307.54350	         1.36489e+58
          1308.34980	         1.43501e+58
          1309.15610	         1.57004e+58
          1309.96240	         1.67301e+58
          1310.76870	         1.38425e+58
          1311.57500	         1.36627e+58
          1312.38130	         1.17117e+58
          1313.18760	         1.20354e+58
          1313.99390	         1.59435e+58
          1314.80020	         1.72817e+58
          1315.60650	         1.63837e+58
          1316.41280	         1.11399e+58
          1317.21910	         1.06986e+58
          1318.02540	         1.14734e+58
          1318.83170	         1.12579e+58
          1319.63800	         1.24312e+58
          1320.44430	         1.28607e+58
          1321.25060	         1.27092e+58
          1322.05690	         1.18245e+58
          1322.86320	         1.12663e+58
          1323.66950	         1.11451e+58
          1324.47580	         9.11238e+57
          1325.28210	         9.05679e+57
          1326.08840	         1.21662e+58
          1326.89470	         1.34080e+58
          1327.70100	         1.17898e+58
          1328.50730	         9.14571e+57
          1329.31360	         8.79372e+57
          1330.11990	         1.07091e+58
          1330.92620	         1.11812e+58
          1331.73250	         1.06333e+58
          1332.53880	         8.92729e+57
          1333.34510	         9.97748e+57
          1334.15140	         9.60198e+57
          1334.95770	         8.48048e+57
          1335.76400	         1.04996e+58
          1336.57030	         1.20169e+58
          1337.37660	         1.18393e+58
          1338.18290	         1.18052e+58
          1338.98920	         1.35518e+58
          1339.79550	         1.21603e+58
          1340.60180	         1.14342e+58
          1341.40810	         1.37151e+58
          1342.21440	         1.24434e+58
          1343.02070	         1.09585e+58
          1343.82700	         1.14465e+58
          1344.63330	         1.20097e+58
          1345.43960	         1.32774e+58
          1346.24590	         1.18324e+58
          1347.05220	         1.18806e+58
          1347.85850	         1.07837e+58
          1348.66480	         1.07131e+58
          1349.47110	         1.21613e+58
          1350.27740	         1.17684e+58
          1351.08370	         1.03892e+58
          1351.89000	         9.92356e+57
          1352.69630	         1.07408e+58
          1353.50260	         1.13881e+58
          1354.30890	         1.14783e+58
          1355.11520	         1.20700e+58
          1355.92150	         1.08593e+58
          1356.72780	         1.10926e+58
          1357.53410	         1.27952e+58
          1358.34040	         1.31001e+58
          1359.14670	         1.11021e+58
          1359.95300	         1.20308e+58
          1360.75930	         1.22113e+58
          1361.56560	         1.19738e+58
          1362.37190	         1.21742e+58
          1363.17820	         1.15677e+58
          1363.98450	         1.02780e+58
          1364.79080	         1.24081e+58
          1365.59710	         1.31700e+58
          1366.40340	         1.34192e+58
          1367.20970	         1.17413e+58
          1368.01600	         8.91777e+57
          1368.82230	         8.01820e+57
          1369.62860	         1.10573e+58
          1370.43490	         1.05649e+58
          1371.24120	         9.22474e+57
          1372.04750	         9.41379e+57
          1372.85380	         1.01246e+58
          1373.66010	         1.11238e+58
          1374.46640	         1.03888e+58
          1375.27270	         9.74938e+57
          1376.07900	         8.07156e+57
          1376.88530	         8.62512e+57
          1377.69160	         8.89149e+57
          1378.49790	         7.97757e+57
          1379.30420	         7.54547e+57
          1380.11050	         8.40988e+57
          1380.91680	         8.29319e+57
          1381.72310	         7.61319e+57
          1382.52940	         8.42283e+57
          1383.33570	         8.00385e+57
          1384.14200	         9.37308e+57
          1384.94830	         1.07553e+58
          1385.75460	         1.15604e+58
          1386.56090	         1.26073e+58
          1387.36720	         1.06995e+58
          1388.17350	         1.15365e+58
          1388.97980	         1.24236e+58
          1389.78610	         1.02524e+58
          1390.59240	         7.54060e+57
          1391.39870	         7.27863e+57
          1392.20500	         7.77699e+57
          1393.01130	         7.66667e+57
          1393.81760	         7.81411e+57
          1394.62390	         6.96728e+57
          1395.43020	         6.01702e+57
          1396.23650	         6.12346e+57
          1397.04280	         6.33312e+57
          1397.84910	         8.55250e+57
          1398.65540	         9.58334e+57
          1399.46170	         1.03617e+58
          1400.26800	         8.44874e+57
          1401.07430	         6.87022e+57
          1401.88060	         8.16592e+57
          1402.68690	         1.06148e+58
          1403.49320	         9.56897e+57
          1404.29950	         9.09049e+57
          1405.10580	         1.10266e+58
          1405.91210	         1.19533e+58
          1406.71840	         1.10114e+58
          1407.52470	         1.02634e+58
          1408.33100	         9.47350e+57
          1409.13730	         1.06741e+58
          1409.94360	         1.12933e+58
          1410.74990	         1.14932e+58
          1411.55620	         9.56343e+57
          1412.36250	         8.53066e+57
          1413.16880	         8.37933e+57
          1413.97510	         7.02574e+57
          1414.78140	         8.41388e+57
          1415.58770	         1.10382e+58
          1416.39400	         1.09874e+58
          1417.20030	         1.05187e+58
          1418.00660	         1.07793e+58
          1418.81290	         1.15668e+58
          1419.61920	         1.09327e+58
          1420.42550	         1.19963e+58
          1421.23180	         1.34095e+58
          1422.03810	         1.28097e+58
          1422.84440	         1.08072e+58
          1423.65070	         1.25625e+58
          1424.45700	         1.10753e+58
          1425.26330	         8.11562e+57
          1426.06960	         8.40239e+57
          1426.87590	         9.89913e+57
          1427.68220	         9.41716e+57
          1428.48850	         1.08543e+58
          1429.29480	         1.06509e+58
          1430.10110	         9.48590e+57
          1430.90740	         9.27424e+57
          1431.71370	         1.03293e+58
          1432.52000	         9.12907e+57
          1433.32630	         7.56345e+57
          1434.13260	         8.03578e+57
          1434.93890	         8.01508e+57
          1435.74520	         8.72352e+57
          1436.55150	         8.74323e+57
          1437.35780	         8.74294e+57
          1438.16410	         9.44143e+57
          1438.97040	         9.67323e+57
          1439.77670	         9.81437e+57
          1440.58300	         1.01068e+58
          1441.38930	         9.61524e+57
          1442.19560	         9.51119e+57
          1443.00190	         1.01104e+58
          1443.80820	         1.00273e+58
          1444.61450	         8.36058e+57
          1445.42080	         8.70341e+57
          1446.22710	         1.04058e+58
          1447.03340	         1.05830e+58
          1447.83970	         1.01088e+58
          1448.64600	         1.04007e+58
          1449.45230	         1.04673e+58
          1450.25860	         1.07779e+58
          1451.06490	         9.86143e+57
          1451.87120	         7.99901e+57
          1452.67750	         7.54766e+57
          1453.48380	         9.30666e+57
          1454.29010	         8.36824e+57
          1455.09640	         7.37677e+57
          1455.90270	         8.00413e+57
          1456.70900	         8.00968e+57
          1457.51530	         9.04025e+57
          1458.32160	         1.14284e+58
          1459.12790	         1.06355e+58
          1459.93420	         8.92591e+57
          1460.74050	         6.90018e+57
          1461.54680	         6.77018e+57
          1462.35310	         7.11225e+57
          1463.15940	         9.08350e+57
          1463.96570	         1.13168e+58
          1464.77200	         1.23838e+58
          1465.57830	         1.14857e+58
          1466.38460	         8.46789e+57
          1467.19090	         7.55734e+57
          1467.99720	         8.09039e+57
          1468.80350	         9.29701e+57
          1469.60980	         1.04050e+58
          1470.41610	         1.04071e+58
          1471.22240	         9.83609e+57
          1472.02870	         1.06705e+58
          1472.83500	         9.92815e+57
          1473.64130	         9.73917e+57
          1474.44760	         1.01081e+58
          1475.25390	         9.11349e+57
          1476.06020	         9.00685e+57
          1476.86650	         9.05611e+57
          1477.67280	         9.13938e+57
          1478.47910	         7.89354e+57
          1479.28540	         7.10859e+57
          1480.09170	         8.59002e+57
          1480.89800	         8.36792e+57
          1481.70430	         8.02893e+57
          1482.51060	         7.84155e+57
          1483.31690	         6.88427e+57
          1484.12320	         6.99052e+57
          1484.92950	         8.60871e+57
          1485.73580	         8.85955e+57
          1486.54210	         9.09518e+57
          1487.34840	         9.54272e+57
          1488.15470	         8.17599e+57
          1488.96100	         8.05289e+57
          1489.76730	         9.16779e+57
