#sample_138_stacked_spectrum_rest_UV-bands_median_H-alpha_noDC.txt
#median Lum: 1.67304e+42
#Rest-frame wavelength (A) | Luminosity (erg/s/A)
#
          1110.00000	         0.00000e+00
          1110.80630	         2.43691e+59
          1111.61260	         2.27677e+59
          1112.41890	         2.60790e+59
          1113.22520	        -1.96322e+59
          1114.03150	        -1.69038e+59
          1114.83780	         1.54893e+59
          1115.64410	         4.14133e+57
          1116.45040	        -2.54039e+59
          1117.25670	         2.92796e+57
          1118.06300	         2.94358e+59
          1118.86930	         1.52338e+59
          1119.67560	         1.18766e+59
          1120.48190	         2.46789e+57
          1121.28820	        -1.76845e+59
          1122.09450	        -2.55956e+58
          1122.90080	         9.45844e+58
          1123.70710	         7.40984e+58
          1124.51340	         8.44337e+58
          1125.31970	         2.24907e+58
          1126.12600	         6.83143e+57
          1126.93230	        -2.46800e+58
          1127.73860	        -1.32990e+58
          1128.54490	        -1.10138e+58
          1129.35120	         1.62679e+58
          1130.15750	        -9.12834e+57
          1130.96380	        -3.08942e+57
          1131.77010	         5.46057e+58
          1132.57640	         5.98047e+58
          1133.38270	         4.00821e+58
          1134.18900	         1.03361e+58
          1134.99530	         2.23429e+58
          1135.80160	         1.07264e+58
          1136.60790	         2.73719e+58
          1137.41420	        -9.54175e+57
          1138.22050	         1.20575e+57
          1139.02680	         2.62373e+58
          1139.83310	         1.58605e+58
          1140.63940	         3.30586e+58
          1141.44570	        -2.59012e+58
          1142.25200	        -1.67168e+58
          1143.05830	         2.04917e+58
          1143.86460	         1.00814e+58
          1144.67090	         2.52063e+58
          1145.47720	         2.44836e+58
          1146.28350	         2.17400e+58
          1147.08980	         1.97145e+58
          1147.89610	         1.24281e+58
          1148.70240	         1.61586e+58
          1149.50870	         1.53400e+58
          1150.31500	         8.45670e+57
          1151.12130	         9.37182e+57
          1151.92760	         1.27295e+57
          1152.73390	         8.38997e+57
          1153.54020	         3.71587e+57
          1154.34650	         2.05263e+58
          1155.15280	         1.75614e+58
          1155.95910	        -4.10329e+57
          1156.76540	        -4.25175e+57
          1157.57170	        -2.90842e+57
          1158.37800	         6.90611e+57
          1159.18430	        -1.01282e+57
          1159.99060	         3.14040e+57
          1160.79690	         2.71310e+57
          1161.60320	         1.40260e+58
          1162.40950	         1.94239e+58
          1163.21580	         2.30597e+58
          1164.02210	         2.14335e+58
          1164.82840	         1.10819e+58
          1165.63470	         2.26353e+58
          1166.44100	         2.85874e+58
          1167.24730	         2.46851e+58
          1168.05360	         1.45477e+58
          1168.85990	         8.97652e+57
          1169.66620	         5.87759e+57
          1170.47250	         9.59077e+57
          1171.27880	         1.13939e+58
          1172.08510	         1.28796e+58
          1172.89140	         1.27247e+58
          1173.69770	         8.60218e+57
          1174.50400	         1.14765e+58
          1175.31030	         1.16674e+58
          1176.11660	         1.85184e+58
          1176.92290	         2.04887e+58
          1177.72920	         1.44582e+58
          1178.53550	         6.04311e+57
          1179.34180	         4.14208e+57
          1180.14810	         8.05020e+57
          1180.95440	         1.18442e+58
          1181.76070	         8.11983e+57
          1182.56700	         5.22026e+57
          1183.37330	         7.78235e+57
          1184.17960	         1.30455e+58
          1184.98590	         1.29669e+58
          1185.79220	         9.81063e+57
          1186.59850	         1.29664e+58
          1187.40480	         1.30597e+58
          1188.21110	         1.13668e+58
          1189.01740	         1.43272e+58
          1189.82370	         1.18289e+58
          1190.63000	         9.80829e+57
          1191.43630	         1.16548e+58
          1192.24260	         7.60192e+57
          1193.04890	         8.61569e+57
          1193.85520	         9.46261e+57
          1194.66150	         5.84959e+57
          1195.46780	         1.36382e+58
          1196.27410	         1.28519e+58
          1197.08040	         9.77385e+57
          1197.88670	         1.61394e+58
          1198.69300	         1.59612e+58
          1199.49930	         1.77774e+58
          1200.30560	         9.94384e+57
          1201.11190	         8.10170e+57
          1201.91820	         8.97227e+57
          1202.72450	         7.47873e+57
          1203.53080	         1.37010e+58
          1204.33710	         1.07412e+58
          1205.14340	         7.85896e+57
          1205.94970	         8.04026e+57
          1206.75600	         3.98139e+57
          1207.56230	         4.05808e+57
          1208.36860	         1.04676e+58
          1209.17490	         4.21162e+57
          1209.98120	         7.35998e+57
          1210.78750	         8.77317e+57
          1211.59380	         1.35953e+58
          1212.40010	         1.99144e+58
          1213.20640	         1.86507e+58
          1214.01270	         1.92313e+58
          1214.81900	         2.60974e+58
          1215.62530	         4.67833e+58
          1216.43160	         9.20917e+58
          1217.23790	         1.51122e+59
          1218.04420	         1.13837e+59
          1218.85050	         8.54906e+58
          1219.65680	         5.76816e+58
          1220.46310	         3.05457e+58
          1221.26940	         1.65792e+58
          1222.07570	         1.45278e+58
          1222.88200	         1.44074e+58
          1223.68830	         9.90878e+57
          1224.49460	         1.03012e+58
          1225.30090	         9.33422e+57
          1226.10720	         8.99236e+57
          1226.91350	         9.60557e+57
          1227.71980	         8.14197e+57
          1228.52610	         1.21599e+58
          1229.33240	         9.41271e+57
          1230.13870	         1.04662e+58
          1230.94500	         7.10866e+57
          1231.75130	         7.94556e+57
          1232.55760	         7.74923e+57
          1233.36390	         7.90758e+57
          1234.17020	         8.55825e+57
          1234.97650	         7.01231e+57
          1235.78280	         9.44267e+57
          1236.58910	         9.90437e+57
          1237.39540	         8.66350e+57
          1238.20170	         8.43941e+57
          1239.00800	         1.10552e+58
          1239.81430	         1.32130e+58
          1240.62060	         1.27895e+58
          1241.42690	         1.26157e+58
          1242.23320	         1.17324e+58
          1243.03950	         9.37219e+57
          1243.84580	         8.30630e+57
          1244.65210	         9.17822e+57
          1245.45840	         8.89458e+57
          1246.26470	         9.52070e+57
          1247.07100	         6.90182e+57
          1247.87730	         3.54495e+57
          1248.68360	         2.39561e+57
          1249.48990	         8.71476e+57
          1250.29620	         8.28745e+57
          1251.10250	         6.81727e+57
          1251.90880	         7.27585e+57
          1252.71510	         7.48735e+57
          1253.52140	         8.49943e+57
          1254.32770	         8.32631e+57
          1255.13400	         9.95008e+57
          1255.94030	         1.06908e+58
          1256.74660	         9.76580e+57
          1257.55290	         9.52064e+57
          1258.35920	         6.74302e+57
          1259.16550	         4.71973e+57
          1259.97180	         4.75064e+57
          1260.77810	         6.80520e+57
          1261.58440	         1.06525e+58
          1262.39070	         7.94990e+57
          1263.19700	         6.78236e+57
          1264.00330	         8.41724e+57
          1264.80960	         1.01083e+58
          1265.61590	         1.21662e+58
          1266.42220	         1.09457e+58
          1267.22850	         1.01936e+58
          1268.03480	         1.42534e+58
          1268.84110	         1.50103e+58
          1269.64740	         1.23631e+58
          1270.45370	         1.40974e+58
          1271.26000	         1.30543e+58
          1272.06630	         1.01700e+58
          1272.87260	         1.12673e+58
          1273.67890	         1.26028e+58
          1274.48520	         1.45617e+58
          1275.29150	         1.43660e+58
          1276.09780	         1.15598e+58
          1276.90410	         1.42080e+58
          1277.71040	         1.25040e+58
          1278.51670	         1.21668e+58
          1279.32300	         1.46433e+58
          1280.12930	         1.38470e+58
          1280.93560	         1.25982e+58
          1281.74190	         1.29793e+58
          1282.54820	         1.33548e+58
          1283.35450	         1.34718e+58
          1284.16080	         1.23661e+58
          1284.96710	         1.10086e+58
          1285.77340	         1.02518e+58
          1286.57970	         1.16811e+58
          1287.38600	         1.53002e+58
          1288.19230	         1.71150e+58
          1288.99860	         1.27822e+58
          1289.80490	         1.04391e+58
          1290.61120	         1.27040e+58
          1291.41750	         1.54995e+58
          1292.22380	         1.37101e+58
          1293.03010	         1.13168e+58
          1293.83640	         1.23898e+58
          1294.64270	         1.01431e+58
          1295.44900	         7.28898e+57
          1296.25530	         8.00407e+57
          1297.06160	         1.04226e+58
          1297.86790	         1.14185e+58
          1298.67420	         9.59011e+57
          1299.48050	         1.00634e+58
          1300.28680	         1.06376e+58
          1301.09310	         6.59561e+57
          1301.89940	         3.30009e+57
          1302.70570	         4.55039e+57
          1303.51200	         6.50618e+57
          1304.31830	         8.83894e+57
          1305.12460	         1.05461e+58
          1305.93090	         1.00764e+58
          1306.73720	         1.12259e+58
          1307.54350	         1.27235e+58
          1308.34980	         1.41039e+58
          1309.15610	         1.59055e+58
          1309.96240	         1.43420e+58
          1310.76870	         1.28610e+58
          1311.57500	         1.34556e+58
          1312.38130	         1.38602e+58
          1313.18760	         1.41770e+58
          1313.99390	         1.64652e+58
          1314.80020	         1.71382e+58
          1315.60650	         1.53477e+58
          1316.41280	         1.48788e+58
          1317.21910	         1.34335e+58
          1318.02540	         1.22230e+58
          1318.83170	         1.11028e+58
          1319.63800	         1.07263e+58
          1320.44430	         1.15259e+58
          1321.25060	         1.22986e+58
          1322.05690	         1.17789e+58
          1322.86320	         1.21033e+58
          1323.66950	         1.13139e+58
          1324.47580	         9.34850e+57
          1325.28210	         1.08531e+58
          1326.08840	         1.10663e+58
          1326.89470	         1.14064e+58
          1327.70100	         9.47809e+57
          1328.50730	         6.68569e+57
          1329.31360	         7.53806e+57
          1330.11990	         1.03801e+58
          1330.92620	         1.00063e+58
          1331.73250	         1.09607e+58
          1332.53880	         1.03184e+58
          1333.34510	         9.23515e+57
          1334.15140	         9.08488e+57
          1334.95770	         8.87589e+57
          1335.76400	         1.05615e+58
          1336.57030	         1.10099e+58
          1337.37660	         9.46915e+57
          1338.18290	         9.65185e+57
          1338.98920	         1.04273e+58
          1339.79550	         1.02387e+58
          1340.60180	         1.17505e+58
          1341.40810	         1.35722e+58
          1342.21440	         1.18758e+58
          1343.02070	         1.28705e+58
          1343.82700	         1.63357e+58
          1344.63330	         1.31203e+58
          1345.43960	         1.05123e+58
          1346.24590	         8.49109e+57
          1347.05220	         9.03345e+57
          1347.85850	         1.07972e+58
          1348.66480	         1.06820e+58
          1349.47110	         1.10769e+58
          1350.27740	         1.12895e+58
          1351.08370	         1.14141e+58
          1351.89000	         9.76284e+57
          1352.69630	         9.81286e+57
          1353.50260	         1.09405e+58
          1354.30890	         1.12448e+58
          1355.11520	         1.05858e+58
          1355.92150	         9.94672e+57
          1356.72780	         1.18733e+58
          1357.53410	         1.16904e+58
          1358.34040	         1.01960e+58
          1359.14670	         1.05317e+58
          1359.95300	         1.04467e+58
          1360.75930	         1.06549e+58
          1361.56560	         1.00745e+58
          1362.37190	         1.16695e+58
          1363.17820	         1.19491e+58
          1363.98450	         1.16919e+58
          1364.79080	         1.26878e+58
          1365.59710	         1.27882e+58
          1366.40340	         1.16826e+58
          1367.20970	         9.88671e+57
          1368.01600	         9.12841e+57
          1368.82230	         9.47645e+57
          1369.62860	         9.71922e+57
          1370.43490	         1.00833e+58
          1371.24120	         1.07237e+58
          1372.04750	         9.16517e+57
          1372.85380	         1.09095e+58
          1373.66010	         1.00822e+58
          1374.46640	         9.66891e+57
          1375.27270	         1.11032e+58
          1376.07900	         8.60327e+57
          1376.88530	         7.67022e+57
          1377.69160	         9.03073e+57
          1378.49790	         6.57950e+57
          1379.30420	         6.23427e+57
          1380.11050	         8.38229e+57
          1380.91680	         8.35185e+57
          1381.72310	         6.99809e+57
          1382.52940	         7.69873e+57
          1383.33570	         7.50377e+57
          1384.14200	         9.11814e+57
          1384.94830	         1.01100e+58
          1385.75460	         1.10185e+58
          1386.56090	         1.14176e+58
          1387.36720	         1.09593e+58
          1388.17350	         1.23192e+58
          1388.97980	         1.05227e+58
          1389.78610	         9.18799e+57
          1390.59240	         8.43910e+57
          1391.39870	         7.17261e+57
          1392.20500	         8.16255e+57
          1393.01130	         7.35930e+57
          1393.81760	         7.40825e+57
          1394.62390	         7.97728e+57
          1395.43020	         6.14612e+57
          1396.23650	         5.58106e+57
          1397.04280	         7.04763e+57
          1397.84910	         9.33453e+57
          1398.65540	         9.19840e+57
          1399.46170	         9.65494e+57
          1400.26800	         7.26669e+57
          1401.07430	         6.94830e+57
          1401.88060	         7.98599e+57
          1402.68690	         8.80711e+57
          1403.49320	         8.24572e+57
          1404.29950	         8.54089e+57
          1405.10580	         1.06255e+58
          1405.91210	         1.15322e+58
          1406.71840	         1.02279e+58
          1407.52470	         1.00509e+58
          1408.33100	         9.87341e+57
          1409.13730	         1.17539e+58
          1409.94360	         1.17322e+58
          1410.74990	         1.08464e+58
          1411.55620	         1.11989e+58
          1412.36250	         1.00685e+58
          1413.16880	         9.46296e+57
          1413.97510	         7.98648e+57
          1414.78140	         7.82012e+57
          1415.58770	         1.01978e+58
          1416.39400	         1.02658e+58
          1417.20030	         1.17197e+58
          1418.00660	         1.16911e+58
          1418.81290	         1.04637e+58
          1419.61920	         9.43388e+57
          1420.42550	         1.22940e+58
          1421.23180	         1.42491e+58
          1422.03810	         1.17369e+58
          1422.84440	         1.05015e+58
          1423.65070	         1.24937e+58
          1424.45700	         1.16481e+58
          1425.26330	         8.95796e+57
          1426.06960	         9.18501e+57
          1426.87590	         1.09081e+58
          1427.68220	         1.00953e+58
          1428.48850	         1.07091e+58
          1429.29480	         1.08750e+58
          1430.10110	         1.01221e+58
          1430.90740	         8.34805e+57
          1431.71370	         8.02718e+57
          1432.52000	         8.03778e+57
          1433.32630	         7.60326e+57
          1434.13260	         7.47408e+57
          1434.93890	         8.05851e+57
          1435.74520	         8.21262e+57
          1436.55150	         8.97950e+57
          1437.35780	         9.17198e+57
          1438.16410	         9.41505e+57
          1438.97040	         7.99206e+57
          1439.77670	         7.46637e+57
          1440.58300	         8.27147e+57
          1441.38930	         8.57370e+57
          1442.19560	         9.27958e+57
          1443.00190	         9.08422e+57
          1443.80820	         9.85881e+57
          1444.61450	         1.03446e+58
          1445.42080	         7.59290e+57
          1446.22710	         9.09021e+57
          1447.03340	         9.37590e+57
          1447.83970	         1.00321e+58
          1448.64600	         1.12064e+58
          1449.45230	         1.06908e+58
          1450.25860	         8.86539e+57
          1451.06490	         7.98195e+57
          1451.87120	         8.11741e+57
          1452.67750	         7.51711e+57
          1453.48380	         8.09136e+57
          1454.29010	         7.88272e+57
          1455.09640	         8.11236e+57
          1455.90270	         8.86158e+57
          1456.70900	         9.15607e+57
          1457.51530	         9.45547e+57
          1458.32160	         1.18078e+58
          1459.12790	         1.27120e+58
          1459.93420	         9.63951e+57
          1460.74050	         7.17969e+57
          1461.54680	         7.17614e+57
          1462.35310	         8.28859e+57
          1463.15940	         9.62024e+57
          1463.96570	         1.09861e+58
          1464.77200	         1.19059e+58
          1465.57830	         1.11152e+58
          1466.38460	         9.74342e+57
          1467.19090	         8.66760e+57
          1467.99720	         8.55211e+57
          1468.80350	         9.02920e+57
          1469.60980	         9.96612e+57
          1470.41610	         1.11157e+58
          1471.22240	         9.36630e+57
          1472.02870	         8.50467e+57
          1472.83500	         9.04839e+57
          1473.64130	         9.71955e+57
          1474.44760	         1.05476e+58
          1475.25390	         9.90104e+57
          1476.06020	         8.84536e+57
          1476.86650	         8.45961e+57
          1477.67280	         7.56606e+57
          1478.47910	         6.35478e+57
          1479.28540	         6.73871e+57
          1480.09170	         7.78425e+57
          1480.89800	         8.40163e+57
          1481.70430	         9.04927e+57
          1482.51060	         8.72514e+57
          1483.31690	         7.79365e+57
          1484.12320	         7.90304e+57
          1484.92950	         8.89010e+57
          1485.73580	         9.08478e+57
          1486.54210	         8.84220e+57
          1487.34840	         8.58414e+57
          1488.15470	         7.75634e+57
          1488.96100	         8.10851e+57
          1489.76730	         9.80656e+57
