#sample_249_stacked_spectrum_rest_UV-bands_median_H-alpha_noDC.txt
#median Lum: 1.70177e+42
#Rest-frame wavelength (A) | Luminosity (erg/s/A)
#
          1110.00000	         0.00000e+00
          1110.80630	         6.88443e+59
          1111.61260	         4.71635e+59
          1112.41890	         1.47330e+59
          1113.22520	        -7.37303e+58
          1114.03150	        -5.34915e+58
          1114.83780	         1.82322e+59
          1115.64410	         1.02403e+59
          1116.45040	         3.73728e+59
          1117.25670	         3.50091e+58
          1118.06300	         1.16661e+58
          1118.86930	        -3.28930e+58
          1119.67560	         1.30420e+59
          1120.48190	        -1.84807e+58
          1121.28820	        -1.91047e+59
          1122.09450	        -8.44437e+58
          1122.90080	         2.57349e+58
          1123.70710	         8.98063e+58
          1124.51340	         8.62386e+58
          1125.31970	        -1.41257e+57
          1126.12600	         4.16898e+58
          1126.93230	        -4.23115e+58
          1127.73860	        -8.93141e+58
          1128.54490	        -2.09980e+58
          1129.35120	         2.53596e+58
          1130.15750	        -3.34853e+58
          1130.96380	        -5.73992e+58
          1131.77010	         4.61666e+58
          1132.57640	         2.56586e+58
          1133.38270	         4.42020e+57
          1134.18900	         2.06841e+58
          1134.99530	         3.39219e+58
          1135.80160	         3.43414e+58
          1136.60790	         2.12397e+58
          1137.41420	        -1.77304e+57
          1138.22050	         3.60897e+58
          1139.02680	         2.28292e+58
          1139.83310	         1.61510e+58
          1140.63940	         1.99553e+58
          1141.44570	        -3.62453e+57
          1142.25200	        -1.24668e+58
          1143.05830	         1.54751e+58
          1143.86460	         2.40671e+58
          1144.67090	         1.67549e+57
          1145.47720	         4.49771e+57
          1146.28350	         3.88496e+57
          1147.08980	         7.15691e+57
          1147.89610	         1.70325e+58
          1148.70240	         2.20968e+58
          1149.50870	         2.06202e+58
          1150.31500	         1.82250e+58
          1151.12130	         1.73299e+58
          1151.92760	         1.52986e+58
          1152.73390	         1.64822e+58
          1153.54020	         1.60877e+58
          1154.34650	         2.24331e+58
          1155.15280	         2.41852e+58
          1155.95910	         1.43545e+58
          1156.76540	         1.40189e+58
          1157.57170	        -2.16193e+57
          1158.37800	        -6.38421e+57
          1159.18430	        -1.18913e+58
          1159.99060	         2.48203e+57
          1160.79690	         1.51664e+58
          1161.60320	         2.01906e+58
          1162.40950	         1.71133e+58
          1163.21580	         1.63244e+58
          1164.02210	         1.84706e+58
          1164.82840	         4.48303e+57
          1165.63470	         1.06500e+58
          1166.44100	         2.58809e+58
          1167.24730	         2.21133e+58
          1168.05360	         2.48974e+57
          1168.85990	         4.45774e+57
          1169.66620	         8.39048e+57
          1170.47250	         8.96769e+57
          1171.27880	         5.57547e+57
          1172.08510	         1.31681e+58
          1172.89140	         1.16055e+58
          1173.69770	         4.63350e+57
          1174.50400	         7.99659e+57
          1175.31030	         8.73048e+57
          1176.11660	         9.70700e+57
          1176.92290	         1.29136e+58
          1177.72920	         1.33695e+58
          1178.53550	         8.54248e+57
          1179.34180	         4.26122e+57
          1180.14810	         7.77265e+57
          1180.95440	         1.20817e+58
          1181.76070	         8.04205e+57
          1182.56700	         8.56814e+57
          1183.37330	         6.29525e+57
          1184.17960	         9.11139e+57
          1184.98590	         8.39556e+57
          1185.79220	         6.32201e+57
          1186.59850	         1.33988e+58
          1187.40480	         1.53241e+58
          1188.21110	         1.73544e+58
          1189.01740	         1.21606e+58
          1189.82370	         1.53715e+58
          1190.63000	         1.51372e+58
          1191.43630	         1.54354e+58
          1192.24260	         1.11528e+58
          1193.04890	         1.35161e+58
          1193.85520	         9.49635e+57
          1194.66150	         7.83443e+57
          1195.46780	         1.29687e+58
          1196.27410	         9.18468e+57
          1197.08040	         4.40518e+57
          1197.88670	         1.15885e+58
          1198.69300	         1.59575e+58
          1199.49930	         1.44991e+58
          1200.30560	         7.19203e+57
          1201.11190	         7.96538e+57
          1201.91820	         9.02916e+57
          1202.72450	         9.49182e+57
          1203.53080	         1.34897e+58
          1204.33710	         9.71554e+57
          1205.14340	         6.43368e+57
          1205.94970	         6.36279e+57
          1206.75600	         7.61404e+57
          1207.56230	         4.53779e+57
          1208.36860	         9.47174e+57
          1209.17490	         5.07113e+57
          1209.98120	         6.75055e+57
          1210.78750	         1.05767e+58
          1211.59380	         1.26651e+58
          1212.40010	         2.04029e+58
          1213.20640	         2.00040e+58
          1214.01270	         1.93884e+58
          1214.81900	         2.41816e+58
          1215.62530	         4.51002e+58
          1216.43160	         9.25234e+58
          1217.23790	         1.54327e+59
          1218.04420	         1.13966e+59
          1218.85050	         8.31938e+58
          1219.65680	         5.71863e+58
          1220.46310	         3.23995e+58
          1221.26940	         2.13601e+58
          1222.07570	         1.28438e+58
          1222.88200	         1.19857e+58
          1223.68830	         1.06798e+58
          1224.49460	         8.50194e+57
          1225.30090	         9.04789e+57
          1226.10720	         7.82706e+57
          1226.91350	         7.33461e+57
          1227.71980	         6.52519e+57
          1228.52610	         9.89168e+57
          1229.33240	         7.92375e+57
          1230.13870	         8.83089e+57
          1230.94500	         1.05379e+58
          1231.75130	         9.18801e+57
          1232.55760	         1.07402e+58
          1233.36390	         9.06510e+57
          1234.17020	         8.74702e+57
          1234.97650	         8.51935e+57
          1235.78280	         8.05461e+57
          1236.58910	         1.00086e+58
          1237.39540	         1.03421e+58
          1238.20170	         1.11746e+58
          1239.00800	         1.22412e+58
          1239.81430	         1.42363e+58
          1240.62060	         1.00689e+58
          1241.42690	         7.70503e+57
          1242.23320	         1.27590e+58
          1243.03950	         1.00626e+58
          1243.84580	         9.65603e+57
          1244.65210	         1.21030e+58
          1245.45840	         1.14367e+58
          1246.26470	         7.64635e+57
          1247.07100	         8.15893e+57
          1247.87730	         6.17720e+57
          1248.68360	         4.17586e+57
          1249.48990	         7.15611e+57
          1250.29620	         5.46766e+57
          1251.10250	         4.55693e+57
          1251.90880	         6.13094e+57
          1252.71510	         6.59483e+57
          1253.52140	         7.05698e+57
          1254.32770	         8.91695e+57
          1255.13400	         1.24504e+58
          1255.94030	         1.22033e+58
          1256.74660	         9.57379e+57
          1257.55290	         1.09392e+58
          1258.35920	         8.02688e+57
          1259.16550	         4.61420e+57
          1259.97180	         5.40000e+57
          1260.77810	         8.71361e+57
          1261.58440	         1.08313e+58
          1262.39070	         7.58954e+57
          1263.19700	         8.27258e+57
          1264.00330	         1.00653e+58
          1264.80960	         1.08524e+58
          1265.61590	         1.39356e+58
          1266.42220	         1.41352e+58
          1267.22850	         1.18182e+58
          1268.03480	         1.52850e+58
          1268.84110	         1.69000e+58
          1269.64740	         1.34509e+58
          1270.45370	         1.21388e+58
          1271.26000	         8.78185e+57
          1272.06630	         8.94294e+57
          1272.87260	         1.12481e+58
          1273.67890	         1.33806e+58
          1274.48520	         1.38620e+58
          1275.29150	         1.24680e+58
          1276.09780	         1.06853e+58
          1276.90410	         1.37701e+58
          1277.71040	         1.30964e+58
          1278.51670	         1.20525e+58
          1279.32300	         1.30467e+58
          1280.12930	         1.24148e+58
          1280.93560	         1.13910e+58
          1281.74190	         1.35425e+58
          1282.54820	         1.28133e+58
          1283.35450	         9.67785e+57
          1284.16080	         1.02047e+58
          1284.96710	         1.11234e+58
          1285.77340	         1.17886e+58
          1286.57970	         1.17284e+58
          1287.38600	         1.29659e+58
          1288.19230	         1.67997e+58
          1288.99860	         1.64709e+58
          1289.80490	         1.22319e+58
          1290.61120	         1.22751e+58
          1291.41750	         1.38619e+58
          1292.22380	         1.09593e+58
          1293.03010	         1.01272e+58
          1293.83640	         1.19126e+58
          1294.64270	         1.03821e+58
          1295.44900	         8.44542e+57
          1296.25530	         9.85309e+57
          1297.06160	         9.11661e+57
          1297.86790	         8.94489e+57
          1298.67420	         8.51226e+57
          1299.48050	         8.89558e+57
          1300.28680	         1.03269e+58
          1301.09310	         9.49320e+57
          1301.89940	         5.02776e+57
          1302.70570	         7.01188e+57
          1303.51200	         7.30291e+57
          1304.31830	         9.51238e+57
          1305.12460	         1.13126e+58
          1305.93090	         1.17867e+58
          1306.73720	         1.23141e+58
          1307.54350	         1.26376e+58
          1308.34980	         1.27029e+58
          1309.15610	         1.28171e+58
          1309.96240	         1.36689e+58
          1310.76870	         1.34871e+58
          1311.57500	         1.44488e+58
          1312.38130	         1.45790e+58
          1313.18760	         1.43423e+58
          1313.99390	         1.87693e+58
          1314.80020	         1.63520e+58
          1315.60650	         1.48682e+58
          1316.41280	         1.28294e+58
          1317.21910	         1.04678e+58
          1318.02540	         1.15863e+58
          1318.83170	         1.21332e+58
          1319.63800	         1.21790e+58
          1320.44430	         1.08425e+58
          1321.25060	         1.04882e+58
          1322.05690	         1.11769e+58
          1322.86320	         1.16955e+58
          1323.66950	         1.02539e+58
          1324.47580	         8.38584e+57
          1325.28210	         8.54511e+57
          1326.08840	         1.04629e+58
          1326.89470	         1.24740e+58
          1327.70100	         1.05516e+58
          1328.50730	         8.16383e+57
          1329.31360	         9.25650e+57
          1330.11990	         9.46287e+57
          1330.92620	         8.51297e+57
          1331.73250	         1.10935e+58
          1332.53880	         1.06201e+58
          1333.34510	         9.14042e+57
          1334.15140	         8.78998e+57
          1334.95770	         9.35779e+57
          1335.76400	         9.85206e+57
          1336.57030	         1.03531e+58
          1337.37660	         9.56894e+57
          1338.18290	         9.35753e+57
          1338.98920	         1.07647e+58
          1339.79550	         1.12480e+58
          1340.60180	         1.12356e+58
          1341.40810	         1.23865e+58
          1342.21440	         1.12161e+58
          1343.02070	         1.16375e+58
          1343.82700	         1.24221e+58
          1344.63330	         1.01545e+58
          1345.43960	         1.13786e+58
          1346.24590	         1.03116e+58
          1347.05220	         1.13530e+58
          1347.85850	         1.11975e+58
          1348.66480	         1.07460e+58
          1349.47110	         1.19008e+58
          1350.27740	         1.19779e+58
          1351.08370	         1.13106e+58
          1351.89000	         1.08066e+58
          1352.69630	         1.04582e+58
          1353.50260	         1.16909e+58
          1354.30890	         1.15766e+58
          1355.11520	         1.20993e+58
          1355.92150	         1.19984e+58
          1356.72780	         1.08122e+58
          1357.53410	         1.06368e+58
          1358.34040	         1.08473e+58
          1359.14670	         1.13957e+58
          1359.95300	         1.13526e+58
          1360.75930	         1.16114e+58
          1361.56560	         1.01579e+58
          1362.37190	         1.05864e+58
          1363.17820	         1.10604e+58
          1363.98450	         1.18384e+58
          1364.79080	         1.39699e+58
          1365.59710	         1.28245e+58
          1366.40340	         1.02199e+58
          1367.20970	         8.51890e+57
          1368.01600	         8.49381e+57
          1368.82230	         1.00535e+58
          1369.62860	         1.01580e+58
          1370.43490	         9.36469e+57
          1371.24120	         9.47476e+57
          1372.04750	         8.00192e+57
          1372.85380	         1.09429e+58
          1373.66010	         1.17772e+58
          1374.46640	         1.03147e+58
          1375.27270	         9.09269e+57
          1376.07900	         7.75239e+57
          1376.88530	         8.22249e+57
          1377.69160	         8.90174e+57
          1378.49790	         6.56035e+57
          1379.30420	         7.38571e+57
          1380.11050	         1.01643e+58
          1380.91680	         9.42229e+57
          1381.72310	         6.61532e+57
          1382.52940	         5.53428e+57
          1383.33570	         7.53712e+57
          1384.14200	         8.64453e+57
          1384.94830	         8.53277e+57
          1385.75460	         9.96836e+57
          1386.56090	         1.07119e+58
          1387.36720	         1.07362e+58
          1388.17350	         1.19467e+58
          1388.97980	         1.13699e+58
          1389.78610	         9.88610e+57
          1390.59240	         8.98079e+57
          1391.39870	         8.35006e+57
          1392.20500	         7.84620e+57
          1393.01130	         7.07421e+57
          1393.81760	         6.70262e+57
          1394.62390	         6.73496e+57
          1395.43020	         5.99355e+57
          1396.23650	         5.91669e+57
          1397.04280	         6.90704e+57
          1397.84910	         7.94468e+57
          1398.65540	         8.81988e+57
          1399.46170	         1.04694e+58
          1400.26800	         8.86396e+57
          1401.07430	         7.05595e+57
          1401.88060	         7.22322e+57
          1402.68690	         8.41882e+57
          1403.49320	         9.72646e+57
          1404.29950	         1.00739e+58
          1405.10580	         1.01909e+58
          1405.91210	         1.08806e+58
          1406.71840	         1.07619e+58
          1407.52470	         9.80733e+57
          1408.33100	         9.88803e+57
          1409.13730	         1.06570e+58
          1409.94360	         1.16426e+58
          1410.74990	         1.10561e+58
          1411.55620	         9.73128e+57
          1412.36250	         9.09229e+57
          1413.16880	         8.56893e+57
          1413.97510	         6.99856e+57
          1414.78140	         8.71073e+57
          1415.58770	         1.14107e+58
          1416.39400	         1.04989e+58
          1417.20030	         1.04335e+58
          1418.00660	         1.04815e+58
          1418.81290	         1.14354e+58
          1419.61920	         1.16533e+58
          1420.42550	         1.20693e+58
          1421.23180	         1.27317e+58
          1422.03810	         1.25214e+58
          1422.84440	         1.15202e+58
          1423.65070	         1.17158e+58
          1424.45700	         1.09753e+58
          1425.26330	         8.63919e+57
          1426.06960	         9.25458e+57
          1426.87590	         1.03362e+58
          1427.68220	         1.05883e+58
          1428.48850	         1.15501e+58
          1429.29480	         1.13026e+58
          1430.10110	         9.93522e+57
          1430.90740	         9.18827e+57
          1431.71370	         8.53664e+57
          1432.52000	         8.33173e+57
          1433.32630	         8.17212e+57
          1434.13260	         8.62324e+57
          1434.93890	         8.40198e+57
          1435.74520	         8.94802e+57
          1436.55150	         8.76218e+57
          1437.35780	         9.16451e+57
          1438.16410	         1.00292e+58
          1438.97040	         9.31217e+57
          1439.77670	         9.18591e+57
          1440.58300	         9.28957e+57
          1441.38930	         9.15174e+57
          1442.19560	         9.30188e+57
          1443.00190	         9.67161e+57
          1443.80820	         1.07129e+58
          1444.61450	         8.92646e+57
          1445.42080	         7.57527e+57
          1446.22710	         9.95222e+57
          1447.03340	         1.06864e+58
          1447.83970	         1.10408e+58
          1448.64600	         9.93534e+57
          1449.45230	         9.57432e+57
          1450.25860	         8.97979e+57
          1451.06490	         7.51696e+57
          1451.87120	         7.86067e+57
          1452.67750	         7.91275e+57
          1453.48380	         8.28607e+57
          1454.29010	         7.70412e+57
          1455.09640	         7.58100e+57
          1455.90270	         8.64649e+57
          1456.70900	         8.44502e+57
          1457.51530	         9.18341e+57
          1458.32160	         1.14011e+58
          1459.12790	         1.23751e+58
          1459.93420	         1.03983e+58
          1460.74050	         8.76093e+57
          1461.54680	         8.31107e+57
          1462.35310	         7.29342e+57
          1463.15940	         8.35450e+57
          1463.96570	         1.18007e+58
          1464.77200	         1.20505e+58
          1465.57830	         1.05805e+58
          1466.38460	         9.47027e+57
          1467.19090	         9.06203e+57
          1467.99720	         9.01690e+57
          1468.80350	         9.61160e+57
          1469.60980	         1.00628e+58
          1470.41610	         1.08693e+58
          1471.22240	         9.54699e+57
          1472.02870	         9.37247e+57
          1472.83500	         9.94200e+57
          1473.64130	         9.90551e+57
          1474.44760	         1.02451e+58
          1475.25390	         8.68903e+57
          1476.06020	         8.58056e+57
          1476.86650	         8.89354e+57
          1477.67280	         7.94136e+57
          1478.47910	         7.45305e+57
          1479.28540	         7.44286e+57
          1480.09170	         8.80333e+57
          1480.89800	         8.54394e+57
          1481.70430	         8.26057e+57
          1482.51060	         7.88913e+57
          1483.31690	         7.82350e+57
          1484.12320	         7.84648e+57
          1484.92950	         7.72432e+57
          1485.73580	         8.62174e+57
          1486.54210	         8.57915e+57
          1487.34840	         8.94616e+57
          1488.15470	         8.29203e+57
          1488.96100	         7.62648e+57
          1489.76730	         8.72652e+57
