#sample_267_stacked_spectrum_rest_UV-bands_median_H-alpha_noDC.txt
#median Lum: 1.71537e+42
#Rest-frame wavelength (A) | Luminosity (erg/s/A)
#
          1110.00000	         0.00000e+00
          1110.80630	        -3.14925e+58
          1111.61260	         9.91753e+58
          1112.41890	        -5.66090e+58
          1113.22520	        -6.57049e+58
          1114.03150	        -3.70863e+59
          1114.83780	         8.97092e+58
          1115.64410	         1.26816e+59
          1116.45040	         1.66039e+59
          1117.25670	        -6.76220e+57
          1118.06300	         1.38196e+59
          1118.86930	        -1.60767e+58
          1119.67560	         1.16973e+59
          1120.48190	        -2.19219e+58
          1121.28820	        -1.80224e+59
          1122.09450	        -2.67473e+58
          1122.90080	         3.22089e+57
          1123.70710	         5.82331e+58
          1124.51340	         1.98922e+58
          1125.31970	         3.00726e+58
          1126.12600	         4.47007e+58
          1126.93230	        -3.07356e+58
          1127.73860	        -9.47215e+58
          1128.54490	        -1.81108e+58
          1129.35120	         8.53922e+57
          1130.15750	        -7.12039e+57
          1130.96380	        -3.20881e+58
          1131.77010	         3.15990e+58
          1132.57640	         6.03161e+58
          1133.38270	         2.25754e+58
          1134.18900	         1.39586e+58
          1134.99530	         3.06752e+58
          1135.80160	         3.26356e+58
          1136.60790	         8.03874e+57
          1137.41420	         2.39810e+58
          1138.22050	         2.95057e+58
          1139.02680	         4.06109e+58
          1139.83310	         2.67532e+58
          1140.63940	         2.07883e+58
          1141.44570	        -6.73566e+57
          1142.25200	        -9.50552e+57
          1143.05830	         8.50899e+57
          1143.86460	         2.70709e+58
          1144.67090	         1.36663e+58
          1145.47720	         3.36822e+57
          1146.28350	         2.07930e+58
          1147.08980	         6.93957e+57
          1147.89610	         2.20580e+58
          1148.70240	         1.98465e+58
          1149.50870	         3.08435e+58
          1150.31500	         1.69119e+58
          1151.12130	         1.38706e+58
          1151.92760	         2.54730e+57
          1152.73390	         7.05262e+57
          1153.54020	         1.10292e+58
          1154.34650	         2.75717e+58
          1155.15280	         2.18528e+58
          1155.95910	         7.07915e+57
          1156.76540	         8.03933e+56
          1157.57170	         5.12364e+57
          1158.37800	         2.32976e+57
          1159.18430	        -3.61514e+57
          1159.99060	         1.00398e+57
          1160.79690	         1.09762e+57
          1161.60320	         4.04792e+57
          1162.40950	         2.32050e+58
          1163.21580	         1.36118e+58
          1164.02210	         1.87997e+58
          1164.82840	         1.46202e+58
          1165.63470	         2.02434e+58
          1166.44100	         2.46986e+58
          1167.24730	         1.93889e+58
          1168.05360	         8.74867e+57
          1168.85990	         1.67652e+57
          1169.66620	         1.03627e+58
          1170.47250	         2.12553e+58
          1171.27880	         2.00895e+58
          1172.08510	         2.02218e+58
          1172.89140	         2.17102e+58
          1173.69770	         8.38290e+57
          1174.50400	         8.37272e+57
          1175.31030	         1.87648e+58
          1176.11660	         1.89856e+58
          1176.92290	         1.02863e+58
          1177.72920	         6.53329e+57
          1178.53550	         4.55719e+56
          1179.34180	         3.69233e+57
          1180.14810	         8.19577e+57
          1180.95440	         1.15208e+58
          1181.76070	         9.39559e+57
          1182.56700	         9.98993e+57
          1183.37330	         4.97257e+57
          1184.17960	         1.05478e+58
          1184.98590	         1.15665e+58
          1185.79220	         7.71976e+57
          1186.59850	         9.79308e+57
          1187.40480	         1.38224e+58
          1188.21110	         1.11114e+58
          1189.01740	         1.07162e+58
          1189.82370	         1.05028e+58
          1190.63000	         1.22434e+58
          1191.43630	         1.31872e+58
          1192.24260	         1.14433e+58
          1193.04890	         1.19220e+58
          1193.85520	         1.08432e+58
          1194.66150	         5.67283e+57
          1195.46780	         7.61493e+57
          1196.27410	         1.12793e+58
          1197.08040	         1.19160e+58
          1197.88670	         1.51173e+58
          1198.69300	         1.82448e+58
          1199.49930	         1.48492e+58
          1200.30560	         1.36469e+58
          1201.11190	         1.08993e+58
          1201.91820	         6.11623e+57
          1202.72450	         5.57239e+57
          1203.53080	         1.76357e+58
          1204.33710	         8.42604e+57
          1205.14340	         5.65158e+57
          1205.94970	         6.14365e+57
          1206.75600	         7.60803e+57
          1207.56230	         8.80704e+57
          1208.36860	         9.44569e+57
          1209.17490	         4.16188e+57
          1209.98120	         7.38232e+57
          1210.78750	         9.78607e+57
          1211.59380	         1.02375e+58
          1212.40010	         1.40844e+58
          1213.20640	         1.97304e+58
          1214.01270	         1.78678e+58
          1214.81900	         2.50803e+58
          1215.62530	         4.95664e+58
          1216.43160	         9.07536e+58
          1217.23790	         1.51035e+59
          1218.04420	         1.14235e+59
          1218.85050	         8.60938e+58
          1219.65680	         6.06812e+58
          1220.46310	         3.33438e+58
          1221.26940	         1.97439e+58
          1222.07570	         1.39480e+58
          1222.88200	         1.26453e+58
          1223.68830	         1.11003e+58
          1224.49460	         8.08620e+57
          1225.30090	         6.66804e+57
          1226.10720	         5.77595e+57
          1226.91350	         3.96010e+57
          1227.71980	         6.09815e+57
          1228.52610	         1.14769e+58
          1229.33240	         1.04968e+58
          1230.13870	         7.42430e+57
          1230.94500	         5.85209e+57
          1231.75130	         6.65235e+57
          1232.55760	         8.13667e+57
          1233.36390	         1.00831e+58
          1234.17020	         8.96505e+57
          1234.97650	         7.87267e+57
          1235.78280	         8.11972e+57
          1236.58910	         9.24687e+57
          1237.39540	         1.08694e+58
          1238.20170	         1.08319e+58
          1239.00800	         1.14652e+58
          1239.81430	         1.51851e+58
          1240.62060	         1.48781e+58
          1241.42690	         1.10700e+58
          1242.23320	         1.14163e+58
          1243.03950	         9.03354e+57
          1243.84580	         1.03817e+58
          1244.65210	         9.82777e+57
          1245.45840	         8.60395e+57
          1246.26470	         1.06147e+58
          1247.07100	         7.85701e+57
          1247.87730	         6.58512e+57
          1248.68360	         4.40222e+57
          1249.48990	         5.22039e+57
          1250.29620	         8.21857e+57
          1251.10250	         9.74159e+57
          1251.90880	         6.93321e+57
          1252.71510	         6.16633e+57
          1253.52140	         6.94649e+57
          1254.32770	         1.09092e+58
          1255.13400	         1.16623e+58
          1255.94030	         9.30617e+57
          1256.74660	         9.18829e+57
          1257.55290	         1.06295e+58
          1258.35920	         6.76242e+57
          1259.16550	         3.56011e+57
          1259.97180	         4.75368e+57
          1260.77810	         9.57884e+57
          1261.58440	         1.12896e+58
          1262.39070	         8.47068e+57
          1263.19700	         7.73005e+57
          1264.00330	         8.10549e+57
          1264.80960	         1.13195e+58
          1265.61590	         1.48703e+58
          1266.42220	         1.33957e+58
          1267.22850	         1.19181e+58
          1268.03480	         1.55845e+58
          1268.84110	         1.58371e+58
          1269.64740	         1.46844e+58
          1270.45370	         1.44346e+58
          1271.26000	         1.28284e+58
          1272.06630	         1.18298e+58
          1272.87260	         1.27002e+58
          1273.67890	         1.35773e+58
          1274.48520	         1.34479e+58
          1275.29150	         1.47632e+58
          1276.09780	         1.34958e+58
          1276.90410	         1.33736e+58
          1277.71040	         1.25120e+58
          1278.51670	         1.33800e+58
          1279.32300	         1.50313e+58
          1280.12930	         1.37489e+58
          1280.93560	         1.24320e+58
          1281.74190	         1.33446e+58
          1282.54820	         1.28605e+58
          1283.35450	         1.01578e+58
          1284.16080	         1.00113e+58
          1284.96710	         1.16099e+58
          1285.77340	         1.11926e+58
          1286.57970	         1.40045e+58
          1287.38600	         1.79653e+58
          1288.19230	         1.82519e+58
          1288.99860	         1.52253e+58
          1289.80490	         1.14731e+58
          1290.61120	         1.17982e+58
          1291.41750	         1.18434e+58
          1292.22380	         1.14547e+58
          1293.03010	         1.07645e+58
          1293.83640	         1.25698e+58
          1294.64270	         1.08075e+58
          1295.44900	         6.48320e+57
          1296.25530	         5.51130e+57
          1297.06160	         9.32533e+57
          1297.86790	         1.02543e+58
          1298.67420	         8.84128e+57
          1299.48050	         1.09266e+58
          1300.28680	         1.17931e+58
          1301.09310	         8.49478e+57
          1301.89940	         5.33290e+57
          1302.70570	         5.56622e+57
          1303.51200	         6.88591e+57
          1304.31830	         9.69774e+57
          1305.12460	         9.84238e+57
          1305.93090	         1.11070e+58
          1306.73720	         1.27891e+58
          1307.54350	         1.42805e+58
          1308.34980	         1.51110e+58
          1309.15610	         1.42962e+58
          1309.96240	         1.55508e+58
          1310.76870	         1.43269e+58
          1311.57500	         1.13793e+58
          1312.38130	         1.28145e+58
          1313.18760	         1.36883e+58
          1313.99390	         1.48855e+58
          1314.80020	         1.64973e+58
          1315.60650	         1.72914e+58
          1316.41280	         1.38785e+58
          1317.21910	         1.11131e+58
          1318.02540	         1.30897e+58
          1318.83170	         1.32979e+58
          1319.63800	         1.18971e+58
          1320.44430	         1.23480e+58
          1321.25060	         1.27526e+58
          1322.05690	         1.23998e+58
          1322.86320	         1.06718e+58
          1323.66950	         1.11943e+58
          1324.47580	         9.35941e+57
          1325.28210	         9.41367e+57
          1326.08840	         1.17043e+58
          1326.89470	         1.28713e+58
          1327.70100	         1.15033e+58
          1328.50730	         9.64402e+57
          1329.31360	         9.50804e+57
          1330.11990	         1.02744e+58
          1330.92620	         9.21105e+57
          1331.73250	         1.14539e+58
          1332.53880	         1.13426e+58
          1333.34510	         9.23674e+57
          1334.15140	         9.29935e+57
          1334.95770	         9.29028e+57
          1335.76400	         1.03714e+58
          1336.57030	         1.06081e+58
          1337.37660	         9.23835e+57
          1338.18290	         8.73217e+57
          1338.98920	         1.04519e+58
          1339.79550	         1.12531e+58
          1340.60180	         1.06630e+58
          1341.40810	         1.20555e+58
          1342.21440	         1.25558e+58
          1343.02070	         1.43316e+58
          1343.82700	         1.46412e+58
          1344.63330	         1.36565e+58
          1345.43960	         1.30041e+58
          1346.24590	         1.22539e+58
          1347.05220	         1.37401e+58
          1347.85850	         1.13657e+58
          1348.66480	         1.20515e+58
          1349.47110	         1.28788e+58
          1350.27740	         1.17158e+58
          1351.08370	         1.19480e+58
          1351.89000	         1.19674e+58
          1352.69630	         1.17733e+58
          1353.50260	         1.14100e+58
          1354.30890	         1.22931e+58
          1355.11520	         1.24245e+58
          1355.92150	         1.23671e+58
          1356.72780	         9.17005e+57
          1357.53410	         9.02783e+57
          1358.34040	         1.14005e+58
          1359.14670	         1.04214e+58
          1359.95300	         1.16614e+58
          1360.75930	         1.30441e+58
          1361.56560	         1.11762e+58
          1362.37190	         1.06163e+58
          1363.17820	         1.12529e+58
          1363.98450	         1.16512e+58
          1364.79080	         1.33044e+58
          1365.59710	         1.43611e+58
          1366.40340	         1.35455e+58
          1367.20970	         1.08910e+58
          1368.01600	         9.43340e+57
          1368.82230	         9.83941e+57
          1369.62860	         8.92553e+57
          1370.43490	         7.78261e+57
          1371.24120	         8.13836e+57
          1372.04750	         7.55344e+57
          1372.85380	         1.01645e+58
          1373.66010	         1.04881e+58
          1374.46640	         9.93668e+57
          1375.27270	         9.92170e+57
          1376.07900	         8.18828e+57
          1376.88530	         5.96008e+57
          1377.69160	         6.84965e+57
          1378.49790	         6.73352e+57
          1379.30420	         6.87529e+57
          1380.11050	         7.57056e+57
          1380.91680	         8.09071e+57
          1381.72310	         7.69929e+57
          1382.52940	         8.46835e+57
          1383.33570	         9.49441e+57
          1384.14200	         1.04879e+58
          1384.94830	         1.21145e+58
          1385.75460	         1.27725e+58
          1386.56090	         1.20070e+58
          1387.36720	         1.18637e+58
          1388.17350	         1.33725e+58
          1388.97980	         1.18862e+58
          1389.78610	         1.00455e+58
          1390.59240	         7.74872e+57
          1391.39870	         7.72000e+57
          1392.20500	         8.25770e+57
          1393.01130	         6.38048e+57
          1393.81760	         6.58393e+57
          1394.62390	         6.94686e+57
          1395.43020	         4.95562e+57
          1396.23650	         5.47619e+57
          1397.04280	         7.37202e+57
          1397.84910	         8.82617e+57
          1398.65540	         7.67669e+57
          1399.46170	         7.88684e+57
          1400.26800	         8.19149e+57
          1401.07430	         7.74544e+57
          1401.88060	         8.75010e+57
          1402.68690	         9.10435e+57
          1403.49320	         9.46829e+57
          1404.29950	         8.99760e+57
          1405.10580	         9.90325e+57
          1405.91210	         1.09114e+58
          1406.71840	         9.71438e+57
          1407.52470	         9.98722e+57
          1408.33100	         1.02136e+58
          1409.13730	         1.12966e+58
          1409.94360	         1.12856e+58
          1410.74990	         1.10888e+58
          1411.55620	         1.02061e+58
          1412.36250	         8.87580e+57
          1413.16880	         8.33357e+57
          1413.97510	         7.90839e+57
          1414.78140	         8.91094e+57
          1415.58770	         1.00173e+58
          1416.39400	         1.06498e+58
          1417.20030	         1.10008e+58
          1418.00660	         1.07714e+58
          1418.81290	         1.14590e+58
          1419.61920	         1.06842e+58
          1420.42550	         1.11925e+58
          1421.23180	         1.28445e+58
          1422.03810	         1.20092e+58
          1422.84440	         1.20429e+58
          1423.65070	         1.30621e+58
          1424.45700	         1.08440e+58
          1425.26330	         7.80109e+57
          1426.06960	         8.56092e+57
          1426.87590	         9.95105e+57
          1427.68220	         1.04956e+58
          1428.48850	         1.12290e+58
          1429.29480	         1.13812e+58
          1430.10110	         1.11319e+58
          1430.90740	         8.84888e+57
          1431.71370	         8.34979e+57
          1432.52000	         7.91365e+57
          1433.32630	         7.99677e+57
          1434.13260	         8.80995e+57
          1434.93890	         8.82448e+57
          1435.74520	         9.40940e+57
          1436.55150	         1.01709e+58
          1437.35780	         9.17546e+57
          1438.16410	         9.53867e+57
          1438.97040	         9.72959e+57
          1439.77670	         9.46652e+57
          1440.58300	         9.32606e+57
          1441.38930	         8.69657e+57
          1442.19560	         9.57775e+57
          1443.00190	         1.01781e+58
          1443.80820	         1.09839e+58
          1444.61450	         9.45212e+57
          1445.42080	         8.64956e+57
          1446.22710	         1.11254e+58
          1447.03340	         1.13730e+58
          1447.83970	         1.07863e+58
          1448.64600	         1.14543e+58
          1449.45230	         1.06350e+58
          1450.25860	         1.00237e+58
          1451.06490	         9.11809e+57
          1451.87120	         8.11486e+57
          1452.67750	         7.73684e+57
          1453.48380	         7.92693e+57
          1454.29010	         8.02004e+57
          1455.09640	         8.42079e+57
          1455.90270	         8.71208e+57
          1456.70900	         8.94121e+57
          1457.51530	         9.78800e+57
          1458.32160	         1.13790e+58
          1459.12790	         1.12197e+58
          1459.93420	         9.15545e+57
          1460.74050	         6.77949e+57
          1461.54680	         7.52351e+57
          1462.35310	         7.75589e+57
          1463.15940	         8.26963e+57
          1463.96570	         9.57951e+57
          1464.77200	         1.11102e+58
          1465.57830	         1.03937e+58
          1466.38460	         9.48421e+57
          1467.19090	         9.27284e+57
          1467.99720	         9.01329e+57
          1468.80350	         9.31302e+57
          1469.60980	         9.20120e+57
          1470.41610	         1.06486e+58
          1471.22240	         9.80883e+57
          1472.02870	         9.16247e+57
          1472.83500	         9.81406e+57
          1473.64130	         1.01207e+58
          1474.44760	         1.02114e+58
          1475.25390	         1.03143e+58
          1476.06020	         9.56224e+57
          1476.86650	         8.17624e+57
          1477.67280	         7.75294e+57
          1478.47910	         7.39516e+57
          1479.28540	         7.33744e+57
          1480.09170	         8.80216e+57
          1480.89800	         8.95259e+57
          1481.70430	         8.72270e+57
          1482.51060	         8.18132e+57
          1483.31690	         7.77582e+57
          1484.12320	         7.28880e+57
          1484.92950	         7.64800e+57
          1485.73580	         8.33930e+57
          1486.54210	         9.63473e+57
          1487.34840	         9.28078e+57
          1488.15470	         7.44282e+57
          1488.96100	         7.76246e+57
          1489.76730	         8.70021e+57
