#sample_125_stacked_spectrum_rest_UV-bands_median_H-alpha_noDC.txt
#median Lum: 1.69277e+42
#Rest-frame wavelength (A) | Luminosity (erg/s/A)
#
          1110.00000	         0.00000e+00
          1110.80630	        -3.68226e+58
          1111.61260	         1.39263e+59
          1112.41890	         2.27647e+59
          1113.22520	         5.95653e+57
          1114.03150	         6.85625e+58
          1114.83780	         1.75261e+59
          1115.64410	         3.56842e+58
          1116.45040	         2.13693e+59
          1117.25670	        -1.06425e+59
          1118.06300	         1.76032e+59
          1118.86930	         1.15094e+59
          1119.67560	         1.37377e+59
          1120.48190	         3.93760e+58
          1121.28820	        -4.12033e+58
          1122.09450	        -3.41753e+58
          1122.90080	        -5.99388e+58
          1123.70710	         7.30147e+57
          1124.51340	         4.85661e+58
          1125.31970	        -3.19947e+58
          1126.12600	         4.88635e+57
          1126.93230	        -5.00563e+58
          1127.73860	        -6.67778e+58
          1128.54490	        -2.02645e+58
          1129.35120	         3.57801e+58
          1130.15750	         4.09294e+58
          1130.96380	        -1.66131e+58
          1131.77010	         4.69373e+58
          1132.57640	         2.40154e+58
          1133.38270	         8.09871e+57
          1134.18900	         1.57452e+58
          1134.99530	         3.36198e+57
          1135.80160	         4.01043e+58
          1136.60790	         2.36919e+58
          1137.41420	         1.29028e+58
          1138.22050	         5.43343e+58
          1139.02680	         6.20191e+58
          1139.83310	         2.66398e+58
          1140.63940	         1.63672e+58
          1141.44570	         3.48683e+57
          1142.25200	         3.64493e+58
          1143.05830	         3.68833e+58
          1143.86460	         3.09200e+58
          1144.67090	         2.35270e+58
          1145.47720	        -1.51379e+57
          1146.28350	         1.41527e+58
          1147.08980	         7.77394e+57
          1147.89610	         1.15188e+58
          1148.70240	         1.68888e+58
          1149.50870	         2.08965e+58
          1150.31500	         2.76135e+58
          1151.12130	         3.91770e+57
          1151.92760	         1.50214e+58
          1152.73390	         6.19565e+57
          1153.54020	        -2.85001e+57
          1154.34650	         1.67380e+58
          1155.15280	         1.87192e+58
          1155.95910	         5.56708e+57
          1156.76540	         1.51122e+58
          1157.57170	         2.02960e+57
          1158.37800	         2.20644e+57
          1159.18430	         4.58618e+57
          1159.99060	         1.09807e+58
          1160.79690	         1.33324e+58
          1161.60320	         2.24276e+58
          1162.40950	         1.98347e+58
          1163.21580	         1.31370e+58
          1164.02210	         1.48560e+58
          1164.82840	         1.01646e+58
          1165.63470	         1.87426e+58
          1166.44100	         2.86833e+58
          1167.24730	         1.68855e+58
          1168.05360	         6.46355e+57
          1168.85990	         4.73250e+57
          1169.66620	         1.35243e+58
          1170.47250	         1.72933e+58
          1171.27880	         1.92190e+58
          1172.08510	         1.96094e+58
          1172.89140	         9.49087e+57
          1173.69770	         9.40973e+57
          1174.50400	         1.00800e+58
          1175.31030	         1.89266e+58
          1176.11660	         1.96328e+58
          1176.92290	         1.40012e+58
          1177.72920	         1.36282e+58
          1178.53550	         5.31321e+57
          1179.34180	         1.50040e+56
          1180.14810	         5.28590e+57
          1180.95440	         7.67160e+57
          1181.76070	         9.42488e+57
          1182.56700	         8.10706e+57
          1183.37330	         6.52979e+57
          1184.17960	         1.52534e+58
          1184.98590	         1.19731e+58
          1185.79220	         5.28863e+57
          1186.59850	         1.56063e+58
          1187.40480	         1.22796e+58
          1188.21110	         1.15816e+58
          1189.01740	         4.75360e+57
          1189.82370	         1.46031e+57
          1190.63000	         5.23943e+57
          1191.43630	         1.11023e+58
          1192.24260	         7.55685e+57
          1193.04890	         1.20701e+58
          1193.85520	         1.19590e+58
          1194.66150	         3.20797e+57
          1195.46780	         8.67986e+57
          1196.27410	         1.40136e+58
          1197.08040	         5.13219e+57
          1197.88670	         1.33708e+58
          1198.69300	         1.42525e+58
          1199.49930	         1.60205e+58
          1200.30560	         1.23600e+58
          1201.11190	         1.06843e+58
          1201.91820	         1.34788e+58
          1202.72450	         5.14129e+57
          1203.53080	         1.36612e+58
          1204.33710	         1.05626e+58
          1205.14340	         7.42597e+57
          1205.94970	         5.25703e+57
          1206.75600	         9.10838e+57
          1207.56230	         8.19953e+57
          1208.36860	         7.17673e+57
          1209.17490	         3.37858e+57
          1209.98120	         9.46417e+57
          1210.78750	         8.61027e+57
          1211.59380	         1.07996e+58
          1212.40010	         1.73935e+58
          1213.20640	         2.08001e+58
          1214.01270	         2.40597e+58
          1214.81900	         2.83669e+58
          1215.62530	         4.54538e+58
          1216.43160	         8.95857e+58
          1217.23790	         1.48672e+59
          1218.04420	         1.13255e+59
          1218.85050	         8.32404e+58
          1219.65680	         5.60780e+58
          1220.46310	         3.56006e+58
          1221.26940	         2.24584e+58
          1222.07570	         1.69326e+58
          1222.88200	         1.16765e+58
          1223.68830	         1.03425e+58
          1224.49460	         1.01123e+58
          1225.30090	         6.52274e+57
          1226.10720	         4.90572e+57
          1226.91350	         5.41790e+57
          1227.71980	         5.90928e+57
          1228.52610	         1.06025e+58
          1229.33240	         5.69130e+57
          1230.13870	         5.84100e+57
          1230.94500	         7.57666e+57
          1231.75130	         4.87619e+57
          1232.55760	         7.66836e+57
          1233.36390	         9.92440e+57
          1234.17020	         9.02125e+57
          1234.97650	         7.74360e+57
          1235.78280	         6.70037e+57
          1236.58910	         8.36274e+57
          1237.39540	         9.98273e+57
          1238.20170	         1.00590e+58
          1239.00800	         1.01483e+58
          1239.81430	         1.18126e+58
          1240.62060	         9.21700e+57
          1241.42690	         9.80524e+57
          1242.23320	         1.22075e+58
          1243.03950	         9.78264e+57
          1243.84580	         7.71606e+57
          1244.65210	         8.57096e+57
          1245.45840	         6.91901e+57
          1246.26470	         7.43935e+57
          1247.07100	         8.12970e+57
          1247.87730	         6.17298e+57
          1248.68360	         5.02483e+57
          1249.48990	         9.29149e+57
          1250.29620	         1.03820e+58
          1251.10250	         6.51737e+57
          1251.90880	         5.69688e+57
          1252.71510	         6.65085e+57
          1253.52140	         5.53776e+57
          1254.32770	         9.26535e+57
          1255.13400	         1.24278e+58
          1255.94030	         1.29122e+58
          1256.74660	         1.08199e+58
          1257.55290	         9.94862e+57
          1258.35920	         9.75161e+57
          1259.16550	         7.28115e+57
          1259.97180	         5.92248e+57
          1260.77810	         7.71500e+57
          1261.58440	         1.14108e+58
          1262.39070	         9.95508e+57
          1263.19700	         8.16134e+57
          1264.00330	         9.32402e+57
          1264.80960	         1.13594e+58
          1265.61590	         1.30504e+58
          1266.42220	         1.24760e+58
          1267.22850	         9.36654e+57
          1268.03480	         1.18444e+58
          1268.84110	         1.38547e+58
          1269.64740	         1.34865e+58
          1270.45370	         1.29421e+58
          1271.26000	         1.11185e+58
          1272.06630	         1.25154e+58
          1272.87260	         1.39923e+58
          1273.67890	         1.39406e+58
          1274.48520	         1.24196e+58
          1275.29150	         1.36379e+58
          1276.09780	         1.17542e+58
          1276.90410	         1.27818e+58
          1277.71040	         1.25901e+58
          1278.51670	         1.04456e+58
          1279.32300	         1.18608e+58
          1280.12930	         1.11525e+58
          1280.93560	         1.05847e+58
          1281.74190	         1.04814e+58
          1282.54820	         1.17989e+58
          1283.35450	         1.12324e+58
          1284.16080	         1.10887e+58
          1284.96710	         1.29202e+58
          1285.77340	         1.23746e+58
          1286.57970	         1.16122e+58
          1287.38600	         1.37884e+58
          1288.19230	         1.65981e+58
          1288.99860	         1.55483e+58
          1289.80490	         1.16566e+58
          1290.61120	         1.39319e+58
          1291.41750	         1.44093e+58
          1292.22380	         1.20762e+58
          1293.03010	         1.02238e+58
          1293.83640	         1.11984e+58
          1294.64270	         9.28865e+57
          1295.44900	         6.11612e+57
          1296.25530	         6.71053e+57
          1297.06160	         9.48569e+57
          1297.86790	         1.17212e+58
          1298.67420	         9.53398e+57
          1299.48050	         9.14882e+57
          1300.28680	         9.40594e+57
          1301.09310	         6.87919e+57
          1301.89940	         4.57241e+57
          1302.70570	         5.82036e+57
          1303.51200	         6.79924e+57
          1304.31830	         9.28866e+57
          1305.12460	         1.08477e+58
          1305.93090	         1.05141e+58
          1306.73720	         1.09433e+58
          1307.54350	         1.36042e+58
          1308.34980	         1.40883e+58
          1309.15610	         1.34884e+58
          1309.96240	         1.30966e+58
          1310.76870	         1.37822e+58
          1311.57500	         1.18812e+58
          1312.38130	         1.03274e+58
          1313.18760	         1.30181e+58
          1313.99390	         1.63268e+58
          1314.80020	         1.69677e+58
          1315.60650	         1.46984e+58
          1316.41280	         1.12738e+58
          1317.21910	         1.07000e+58
          1318.02540	         1.28062e+58
          1318.83170	         1.31427e+58
          1319.63800	         1.12264e+58
          1320.44430	         1.13770e+58
          1321.25060	         1.22891e+58
          1322.05690	         1.18998e+58
          1322.86320	         1.16781e+58
          1323.66950	         1.12202e+58
          1324.47580	         7.89276e+57
          1325.28210	         8.37837e+57
          1326.08840	         1.26148e+58
          1326.89470	         1.34130e+58
          1327.70100	         1.08352e+58
          1328.50730	         9.37053e+57
          1329.31360	         1.15878e+58
          1330.11990	         1.02817e+58
          1330.92620	         7.96224e+57
          1331.73250	         1.00536e+58
          1332.53880	         1.00826e+58
          1333.34510	         8.87886e+57
          1334.15140	         8.69994e+57
          1334.95770	         8.26498e+57
          1335.76400	         1.00423e+58
          1336.57030	         1.18678e+58
          1337.37660	         1.00705e+58
          1338.18290	         9.41220e+57
          1338.98920	         1.20957e+58
          1339.79550	         1.14446e+58
          1340.60180	         1.17972e+58
          1341.40810	         1.30470e+58
          1342.21440	         1.15776e+58
          1343.02070	         1.12194e+58
          1343.82700	         1.23370e+58
          1344.63330	         1.19953e+58
          1345.43960	         1.12547e+58
          1346.24590	         9.60932e+57
          1347.05220	         1.12752e+58
          1347.85850	         9.28524e+57
          1348.66480	         9.90642e+57
          1349.47110	         1.30578e+58
          1350.27740	         1.12429e+58
          1351.08370	         1.08814e+58
          1351.89000	         1.08729e+58
          1352.69630	         1.16984e+58
          1353.50260	         1.21500e+58
          1354.30890	         1.19933e+58
          1355.11520	         1.24064e+58
          1355.92150	         1.08438e+58
          1356.72780	         9.54471e+57
          1357.53410	         1.08402e+58
          1358.34040	         1.26244e+58
          1359.14670	         1.09012e+58
          1359.95300	         1.00732e+58
          1360.75930	         1.19064e+58
          1361.56560	         1.20310e+58
          1362.37190	         1.20734e+58
          1363.17820	         1.14349e+58
          1363.98450	         1.09761e+58
          1364.79080	         1.11883e+58
          1365.59710	         1.24877e+58
          1366.40340	         1.28819e+58
          1367.20970	         1.06770e+58
          1368.01600	         9.46049e+57
          1368.82230	         9.02514e+57
          1369.62860	         9.94318e+57
          1370.43490	         8.88008e+57
          1371.24120	         9.53515e+57
          1372.04750	         1.06414e+58
          1372.85380	         1.18208e+58
          1373.66010	         1.22995e+58
          1374.46640	         1.19670e+58
          1375.27270	         1.12456e+58
          1376.07900	         8.98534e+57
          1376.88530	         8.17008e+57
          1377.69160	         9.38561e+57
          1378.49790	         7.34323e+57
          1379.30420	         7.88005e+57
          1380.11050	         1.04199e+58
          1380.91680	         9.43165e+57
          1381.72310	         7.93733e+57
          1382.52940	         7.25026e+57
          1383.33570	         7.44375e+57
          1384.14200	         9.72908e+57
          1384.94830	         1.15143e+58
          1385.75460	         1.04981e+58
          1386.56090	         9.84788e+57
          1387.36720	         9.82552e+57
          1388.17350	         1.28698e+58
          1388.97980	         1.12418e+58
          1389.78610	         6.70069e+57
          1390.59240	         6.57979e+57
          1391.39870	         7.35207e+57
          1392.20500	         8.45427e+57
          1393.01130	         7.70291e+57
          1393.81760	         6.46440e+57
          1394.62390	         6.31248e+57
          1395.43020	         5.74140e+57
          1396.23650	         6.13496e+57
          1397.04280	         7.52311e+57
          1397.84910	         9.02507e+57
          1398.65540	         9.71573e+57
          1399.46170	         1.01324e+58
          1400.26800	         8.67397e+57
          1401.07430	         6.90846e+57
          1401.88060	         7.29864e+57
          1402.68690	         8.86766e+57
          1403.49320	         8.95935e+57
          1404.29950	         8.77341e+57
          1405.10580	         9.93537e+57
          1405.91210	         1.18465e+58
          1406.71840	         1.13752e+58
          1407.52470	         1.05761e+58
          1408.33100	         1.09480e+58
          1409.13730	         1.08855e+58
          1409.94360	         1.14908e+58
          1410.74990	         1.15057e+58
          1411.55620	         9.50470e+57
          1412.36250	         7.55573e+57
          1413.16880	         8.26972e+57
          1413.97510	         8.55471e+57
          1414.78140	         8.44072e+57
          1415.58770	         1.00940e+58
          1416.39400	         9.87289e+57
          1417.20030	         1.00199e+58
          1418.00660	         8.84079e+57
          1418.81290	         9.49787e+57
          1419.61920	         1.08383e+58
          1420.42550	         1.19036e+58
          1421.23180	         1.35684e+58
          1422.03810	         1.32419e+58
          1422.84440	         1.11485e+58
          1423.65070	         1.21573e+58
          1424.45700	         1.04239e+58
          1425.26330	         8.67142e+57
          1426.06960	         9.34188e+57
          1426.87590	         1.07835e+58
          1427.68220	         1.06312e+58
          1428.48850	         1.07657e+58
          1429.29480	         1.06024e+58
          1430.10110	         9.44224e+57
          1430.90740	         7.96026e+57
          1431.71370	         8.27033e+57
          1432.52000	         8.81224e+57
          1433.32630	         8.23467e+57
          1434.13260	         7.96902e+57
          1434.93890	         8.19480e+57
          1435.74520	         9.17587e+57
          1436.55150	         9.75607e+57
          1437.35780	         8.46857e+57
          1438.16410	         8.37585e+57
          1438.97040	         9.03644e+57
          1439.77670	         9.32365e+57
          1440.58300	         9.45140e+57
          1441.38930	         9.78369e+57
          1442.19560	         1.02456e+58
          1443.00190	         1.01374e+58
          1443.80820	         1.08524e+58
          1444.61450	         8.72487e+57
          1445.42080	         7.27251e+57
          1446.22710	         9.94379e+57
          1447.03340	         9.23213e+57
          1447.83970	         9.14221e+57
          1448.64600	         9.88333e+57
          1449.45230	         9.71627e+57
          1450.25860	         1.00196e+58
          1451.06490	         9.22172e+57
          1451.87120	         7.47358e+57
          1452.67750	         7.32584e+57
          1453.48380	         7.67042e+57
          1454.29010	         6.49176e+57
          1455.09640	         7.58660e+57
          1455.90270	         8.98479e+57
          1456.70900	         8.28882e+57
          1457.51530	         9.56528e+57
          1458.32160	         1.17570e+58
          1459.12790	         1.13151e+58
          1459.93420	         9.99818e+57
          1460.74050	         8.47295e+57
          1461.54680	         8.38353e+57
          1462.35310	         7.55688e+57
          1463.15940	         8.02885e+57
          1463.96570	         1.05256e+58
          1464.77200	         1.10866e+58
          1465.57830	         9.50986e+57
          1466.38460	         8.69086e+57
          1467.19090	         8.48651e+57
          1467.99720	         8.90996e+57
          1468.80350	         9.96491e+57
          1469.60980	         1.07738e+58
          1470.41610	         1.09688e+58
          1471.22240	         9.38088e+57
          1472.02870	         9.44650e+57
          1472.83500	         1.00139e+58
          1473.64130	         9.57371e+57
          1474.44760	         9.82450e+57
          1475.25390	         9.18428e+57
          1476.06020	         7.85651e+57
          1476.86650	         8.49692e+57
          1477.67280	         7.92009e+57
          1478.47910	         6.57646e+57
          1479.28540	         6.95677e+57
          1480.09170	         8.54748e+57
          1480.89800	         9.16124e+57
          1481.70430	         8.95545e+57
          1482.51060	         8.45641e+57
          1483.31690	         7.32543e+57
          1484.12320	         7.17639e+57
          1484.92950	         7.79402e+57
          1485.73580	         7.50592e+57
          1486.54210	         8.08833e+57
          1487.34840	         7.87220e+57
          1488.15470	         7.15367e+57
          1488.96100	         7.92531e+57
          1489.76730	         8.83155e+57
