#sample_402_stacked_spectrum_rest_UV-bands_median_H-alpha_noDC.txt
#median Lum: 1.70913e+42
#Rest-frame wavelength (A) | Luminosity (erg/s/A)
#
          1110.00000	         0.00000e+00
          1110.80630	         6.78027e+59
          1111.61260	         3.68777e+59
          1112.41890	         2.19921e+59
          1113.22520	        -5.30569e+58
          1114.03150	        -2.22370e+59
          1114.83780	         1.57062e+59
          1115.64410	         5.48790e+58
          1116.45040	         2.40108e+59
          1117.25670	         1.54957e+59
          1118.06300	         1.31544e+59
          1118.86930	        -1.11561e+58
          1119.67560	         7.56373e+58
          1120.48190	        -5.18853e+58
          1121.28820	        -7.26799e+58
          1122.09450	        -1.01718e+58
          1122.90080	         6.43530e+58
          1123.70710	         6.81591e+57
          1124.51340	         6.03515e+58
          1125.31970	         3.27247e+58
          1126.12600	        -2.79038e+58
          1126.93230	        -4.98663e+58
          1127.73860	        -3.33272e+58
          1128.54490	        -5.23842e+57
          1129.35120	         1.19363e+58
          1130.15750	        -1.56684e+58
          1130.96380	        -5.39541e+58
          1131.77010	         1.62606e+58
          1132.57640	         5.77977e+58
          1133.38270	         2.11626e+58
          1134.18900	         6.28861e+57
          1134.99530	         1.34999e+58
          1135.80160	         1.97593e+58
          1136.60790	         2.74496e+58
          1137.41420	         8.85466e+57
          1138.22050	         3.64124e+58
          1139.02680	         3.35427e+58
          1139.83310	         2.68940e+58
          1140.63940	         4.08965e+58
          1141.44570	         5.77522e+57
          1142.25200	         5.41053e+57
          1143.05830	         2.26519e+58
          1143.86460	         3.49082e+58
          1144.67090	         1.32633e+58
          1145.47720	         9.99992e+57
          1146.28350	         2.14403e+58
          1147.08980	         2.07587e+58
          1147.89610	         2.81591e+58
          1148.70240	         2.63030e+58
          1149.50870	         2.40650e+58
          1150.31500	         1.21388e+58
          1151.12130	         6.83808e+57
          1151.92760	         5.68812e+57
          1152.73390	         5.37467e+57
          1153.54020	         1.02275e+58
          1154.34650	         3.26344e+58
          1155.15280	         1.65785e+58
          1155.95910	         4.86055e+57
          1156.76540	         1.10920e+58
          1157.57170	         7.04515e+57
          1158.37800	        -4.22937e+57
          1159.18430	         6.64950e+57
          1159.99060	         4.77467e+57
          1160.79690	         2.50380e+57
          1161.60320	         9.68667e+57
          1162.40950	         1.29087e+58
          1163.21580	         1.72879e+58
          1164.02210	         9.84271e+57
          1164.82840	         7.59910e+57
          1165.63470	         1.57687e+58
          1166.44100	         2.77377e+58
          1167.24730	         2.12524e+58
          1168.05360	         1.19873e+58
          1168.85990	         6.51805e+57
          1169.66620	         5.27260e+57
          1170.47250	         4.49166e+57
          1171.27880	         1.35637e+58
          1172.08510	         2.01316e+58
          1172.89140	         1.59202e+58
          1173.69770	         9.34136e+57
          1174.50400	         1.20374e+58
          1175.31030	         1.59441e+58
          1176.11660	         1.56997e+58
          1176.92290	         1.10497e+58
          1177.72920	         7.54267e+57
          1178.53550	         1.04086e+58
          1179.34180	         4.76843e+57
          1180.14810	         3.33374e+57
          1180.95440	         1.07766e+58
          1181.76070	         7.01124e+57
          1182.56700	         7.68667e+57
          1183.37330	         1.09834e+58
          1184.17960	         1.68125e+58
          1184.98590	         1.57225e+58
          1185.79220	         9.89281e+57
          1186.59850	         7.84612e+57
          1187.40480	         4.62449e+57
          1188.21110	         1.37127e+58
          1189.01740	         8.56113e+57
          1189.82370	         1.16691e+58
          1190.63000	         1.30868e+58
          1191.43630	         1.12922e+58
          1192.24260	         1.09492e+58
          1193.04890	         1.45125e+58
          1193.85520	         1.50256e+58
          1194.66150	         7.62008e+57
          1195.46780	         6.20082e+57
          1196.27410	         1.00622e+58
          1197.08040	         7.45308e+57
          1197.88670	         1.03809e+58
          1198.69300	         1.47766e+58
          1199.49930	         1.38475e+58
          1200.30560	         6.91274e+57
          1201.11190	         9.25506e+57
          1201.91820	         1.03040e+58
          1202.72450	         8.05482e+57
          1203.53080	         1.23849e+58
          1204.33710	         1.05278e+58
          1205.14340	         8.59219e+57
          1205.94970	         6.02024e+57
          1206.75600	         8.45258e+57
          1207.56230	         3.47675e+57
          1208.36860	         8.24852e+57
          1209.17490	         6.02141e+57
          1209.98120	         4.07312e+57
          1210.78750	         6.90567e+57
          1211.59380	         1.38803e+58
          1212.40010	         2.03444e+58
          1213.20640	         1.93816e+58
          1214.01270	         1.74889e+58
          1214.81900	         2.52274e+58
          1215.62530	         4.76578e+58
          1216.43160	         9.42859e+58
          1217.23790	         1.54657e+59
          1218.04420	         1.15574e+59
          1218.85050	         8.77688e+58
          1219.65680	         5.80059e+58
          1220.46310	         3.20087e+58
          1221.26940	         2.46463e+58
          1222.07570	         1.61194e+58
          1222.88200	         1.28357e+58
          1223.68830	         1.12105e+58
          1224.49460	         6.48603e+57
          1225.30090	         5.61618e+57
          1226.10720	         6.56630e+57
          1226.91350	         8.31840e+57
          1227.71980	         1.09469e+58
          1228.52610	         1.11751e+58
          1229.33240	         7.89340e+57
          1230.13870	         1.07206e+58
          1230.94500	         9.96994e+57
          1231.75130	         5.70648e+57
          1232.55760	         7.60622e+57
          1233.36390	         1.00333e+58
          1234.17020	         1.13042e+58
          1234.97650	         1.02709e+58
          1235.78280	         9.84928e+57
          1236.58910	         9.85619e+57
          1237.39540	         1.27928e+58
          1238.20170	         1.26511e+58
          1239.00800	         1.38956e+58
          1239.81430	         1.61571e+58
          1240.62060	         1.13657e+58
          1241.42690	         9.12885e+57
          1242.23320	         1.08325e+58
          1243.03950	         1.08381e+58
          1243.84580	         1.06615e+58
          1244.65210	         9.36978e+57
          1245.45840	         9.60101e+57
          1246.26470	         9.28715e+57
          1247.07100	         5.58868e+57
          1247.87730	         8.46399e+57
          1248.68360	         9.37510e+57
          1249.48990	         8.14980e+57
          1250.29620	         1.30526e+58
          1251.10250	         1.08659e+58
          1251.90880	         5.91382e+57
          1252.71510	         5.72418e+57
          1253.52140	         9.12199e+57
          1254.32770	         1.03372e+58
          1255.13400	         1.22735e+58
          1255.94030	         1.16060e+58
          1256.74660	         1.01723e+58
          1257.55290	         1.11917e+58
          1258.35920	         1.02982e+58
          1259.16550	         5.62235e+57
          1259.97180	         6.49477e+57
          1260.77810	         9.22743e+57
          1261.58440	         1.22894e+58
          1262.39070	         1.02317e+58
          1263.19700	         9.70774e+57
          1264.00330	         1.06780e+58
          1264.80960	         1.09340e+58
          1265.61590	         1.31113e+58
          1266.42220	         1.31983e+58
          1267.22850	         1.16415e+58
          1268.03480	         1.43798e+58
          1268.84110	         1.60331e+58
          1269.64740	         1.51779e+58
          1270.45370	         1.46635e+58
          1271.26000	         1.07931e+58
          1272.06630	         9.83501e+57
          1272.87260	         1.08855e+58
          1273.67890	         1.11158e+58
          1274.48520	         1.25216e+58
          1275.29150	         1.47427e+58
          1276.09780	         1.31181e+58
          1276.90410	         1.48192e+58
          1277.71040	         1.47562e+58
          1278.51670	         1.34863e+58
          1279.32300	         1.56648e+58
          1280.12930	         1.37107e+58
          1280.93560	         1.25601e+58
          1281.74190	         1.37136e+58
          1282.54820	         1.16449e+58
          1283.35450	         1.17842e+58
          1284.16080	         1.32192e+58
          1284.96710	         1.27833e+58
          1285.77340	         1.34115e+58
          1286.57970	         1.28299e+58
          1287.38600	         1.44399e+58
          1288.19230	         1.76587e+58
          1288.99860	         1.51653e+58
          1289.80490	         1.11520e+58
          1290.61120	         1.39185e+58
          1291.41750	         1.55535e+58
          1292.22380	         1.29315e+58
          1293.03010	         1.07325e+58
          1293.83640	         1.07626e+58
          1294.64270	         9.46617e+57
          1295.44900	         6.29459e+57
          1296.25530	         7.69057e+57
          1297.06160	         8.35799e+57
          1297.86790	         8.09764e+57
          1298.67420	         9.49098e+57
          1299.48050	         1.09256e+58
          1300.28680	         1.15758e+58
          1301.09310	         7.60660e+57
          1301.89940	         2.74613e+57
          1302.70570	         4.97951e+57
          1303.51200	         6.99449e+57
          1304.31830	         8.57452e+57
          1305.12460	         1.06652e+58
          1305.93090	         1.26984e+58
          1306.73720	         1.36897e+58
          1307.54350	         1.39150e+58
          1308.34980	         1.33229e+58
          1309.15610	         1.50891e+58
          1309.96240	         1.43536e+58
          1310.76870	         1.02048e+58
          1311.57500	         1.01881e+58
          1312.38130	         1.29943e+58
          1313.18760	         1.33210e+58
          1313.99390	         1.37498e+58
          1314.80020	         1.64271e+58
          1315.60650	         1.65312e+58
          1316.41280	         1.24577e+58
          1317.21910	         1.00503e+58
          1318.02540	         1.11515e+58
          1318.83170	         1.18713e+58
          1319.63800	         1.32222e+58
          1320.44430	         1.32720e+58
          1321.25060	         1.16519e+58
          1322.05690	         1.17432e+58
          1322.86320	         1.14374e+58
          1323.66950	         1.02341e+58
          1324.47580	         9.34534e+57
          1325.28210	         1.01086e+58
          1326.08840	         9.91556e+57
          1326.89470	         1.15266e+58
          1327.70100	         1.09792e+58
          1328.50730	         8.39365e+57
          1329.31360	         8.97709e+57
          1330.11990	         1.00552e+58
          1330.92620	         1.02577e+58
          1331.73250	         1.18818e+58
          1332.53880	         1.21514e+58
          1333.34510	         1.01642e+58
          1334.15140	         8.09411e+57
          1334.95770	         8.12752e+57
          1335.76400	         9.51607e+57
          1336.57030	         1.06056e+58
          1337.37660	         1.05762e+58
          1338.18290	         9.57710e+57
          1338.98920	         1.05748e+58
          1339.79550	         1.19517e+58
          1340.60180	         1.24746e+58
          1341.40810	         1.28326e+58
          1342.21440	         1.17754e+58
          1343.02070	         1.34793e+58
          1343.82700	         1.27660e+58
          1344.63330	         1.13626e+58
          1345.43960	         1.31451e+58
          1346.24590	         1.08242e+58
          1347.05220	         1.23304e+58
          1347.85850	         1.15628e+58
          1348.66480	         1.16847e+58
          1349.47110	         1.27808e+58
          1350.27740	         1.21508e+58
          1351.08370	         1.18920e+58
          1351.89000	         1.13170e+58
          1352.69630	         1.22421e+58
          1353.50260	         1.30534e+58
          1354.30890	         1.26454e+58
          1355.11520	         1.07680e+58
          1355.92150	         1.05887e+58
          1356.72780	         8.80968e+57
          1357.53410	         9.14568e+57
          1358.34040	         1.10177e+58
          1359.14670	         1.06253e+58
          1359.95300	         1.01482e+58
          1360.75930	         1.12836e+58
          1361.56560	         1.24842e+58
          1362.37190	         1.33312e+58
          1363.17820	         9.95232e+57
          1363.98450	         1.04000e+58
          1364.79080	         1.29360e+58
          1365.59710	         1.30946e+58
          1366.40340	         1.29999e+58
          1367.20970	         1.02942e+58
          1368.01600	         1.02337e+58
          1368.82230	         1.14101e+58
          1369.62860	         1.09528e+58
          1370.43490	         9.15729e+57
          1371.24120	         8.90937e+57
          1372.04750	         7.40830e+57
          1372.85380	         1.04289e+58
          1373.66010	         1.20103e+58
          1374.46640	         1.07079e+58
          1375.27270	         9.97442e+57
          1376.07900	         8.63127e+57
          1376.88530	         8.73842e+57
          1377.69160	         9.26987e+57
          1378.49790	         7.92936e+57
          1379.30420	         8.42370e+57
          1380.11050	         9.65315e+57
          1380.91680	         7.65589e+57
          1381.72310	         8.70952e+57
          1382.52940	         1.03060e+58
          1383.33570	         7.83426e+57
          1384.14200	         8.13546e+57
          1384.94830	         1.01354e+58
          1385.75460	         1.06917e+58
          1386.56090	         1.03416e+58
          1387.36720	         1.01375e+58
          1388.17350	         1.25298e+58
          1388.97980	         1.17694e+58
          1389.78610	         9.27719e+57
          1390.59240	         8.37763e+57
          1391.39870	         7.57412e+57
          1392.20500	         8.12687e+57
          1393.01130	         7.68107e+57
          1393.81760	         7.32513e+57
          1394.62390	         8.37742e+57
          1395.43020	         7.44478e+57
          1396.23650	         5.28368e+57
          1397.04280	         7.22589e+57
          1397.84910	         8.31680e+57
          1398.65540	         8.52207e+57
          1399.46170	         9.52965e+57
          1400.26800	         7.56475e+57
          1401.07430	         7.53439e+57
          1401.88060	         7.55879e+57
          1402.68690	         9.39632e+57
          1403.49320	         1.18109e+58
          1404.29950	         9.71509e+57
          1405.10580	         9.16727e+57
          1405.91210	         1.08225e+58
          1406.71840	         1.10777e+58
          1407.52470	         1.10573e+58
          1408.33100	         1.00954e+58
          1409.13730	         1.17462e+58
          1409.94360	         1.13644e+58
          1410.74990	         1.19369e+58
          1411.55620	         9.98272e+57
          1412.36250	         9.03843e+57
          1413.16880	         1.02158e+58
          1413.97510	         8.67294e+57
          1414.78140	         9.60781e+57
          1415.58770	         1.20224e+58
          1416.39400	         1.09538e+58
          1417.20030	         9.87841e+57
          1418.00660	         9.55521e+57
          1418.81290	         1.05808e+58
          1419.61920	         1.11356e+58
          1420.42550	         1.13643e+58
          1421.23180	         1.26230e+58
          1422.03810	         1.18446e+58
          1422.84440	         1.16725e+58
          1423.65070	         1.21837e+58
          1424.45700	         1.08448e+58
          1425.26330	         8.57766e+57
          1426.06960	         9.31542e+57
          1426.87590	         9.71844e+57
          1427.68220	         1.05997e+58
          1428.48850	         1.09065e+58
          1429.29480	         9.90206e+57
          1430.10110	         9.97659e+57
          1430.90740	         9.62110e+57
          1431.71370	         9.10600e+57
          1432.52000	         8.14906e+57
          1433.32630	         7.64703e+57
          1434.13260	         7.50360e+57
          1434.93890	         7.44044e+57
          1435.74520	         8.30989e+57
          1436.55150	         9.26663e+57
          1437.35780	         8.59517e+57
          1438.16410	         8.86385e+57
          1438.97040	         9.14225e+57
          1439.77670	         8.04743e+57
          1440.58300	         8.22240e+57
          1441.38930	         9.23911e+57
          1442.19560	         9.22743e+57
          1443.00190	         9.72742e+57
          1443.80820	         1.05299e+58
          1444.61450	         9.32814e+57
          1445.42080	         9.59133e+57
          1446.22710	         1.14719e+58
          1447.03340	         1.05828e+58
          1447.83970	         9.84635e+57
          1448.64600	         1.02809e+58
          1449.45230	         1.06280e+58
          1450.25860	         1.16959e+58
          1451.06490	         9.54039e+57
          1451.87120	         7.09679e+57
          1452.67750	         7.06165e+57
          1453.48380	         8.52853e+57
          1454.29010	         7.50925e+57
          1455.09640	         8.36133e+57
          1455.90270	         9.08614e+57
          1456.70900	         9.13350e+57
          1457.51530	         9.93127e+57
          1458.32160	         1.18247e+58
          1459.12790	         1.08617e+58
          1459.93420	         9.00304e+57
          1460.74050	         7.15637e+57
          1461.54680	         7.35047e+57
          1462.35310	         8.06047e+57
          1463.15940	         9.69750e+57
          1463.96570	         1.10621e+58
          1464.77200	         1.18803e+58
          1465.57830	         1.05718e+58
          1466.38460	         9.07499e+57
          1467.19090	         8.98730e+57
          1467.99720	         8.20534e+57
          1468.80350	         8.31986e+57
          1469.60980	         8.90733e+57
          1470.41610	         1.02399e+58
          1471.22240	         9.92489e+57
          1472.02870	         9.98276e+57
          1472.83500	         1.03128e+58
          1473.64130	         9.90006e+57
          1474.44760	         1.03100e+58
          1475.25390	         9.82890e+57
          1476.06020	         8.40041e+57
          1476.86650	         7.98501e+57
          1477.67280	         7.77879e+57
          1478.47910	         6.59565e+57
          1479.28540	         6.57051e+57
          1480.09170	         7.85288e+57
          1480.89800	         9.10204e+57
          1481.70430	         9.63984e+57
          1482.51060	         8.91643e+57
          1483.31690	         8.35907e+57
          1484.12320	         8.54591e+57
          1484.92950	         7.85733e+57
          1485.73580	         7.33166e+57
          1486.54210	         8.03257e+57
          1487.34840	         8.51330e+57
          1488.15470	         8.95868e+57
          1488.96100	         9.15486e+57
          1489.76730	         8.47080e+57
