#sample_207_stacked_spectrum_rest_UV-bands_median_H-alpha_noDC.txt
#median Lum: 1.69018e+42
#Rest-frame wavelength (A) | Luminosity (erg/s/A)
#
          1110.00000	         0.00000e+00
          1110.80630	         1.17909e+57
          1111.61260	         1.62473e+59
          1112.41890	         1.18627e+59
          1113.22520	        -1.92630e+58
          1114.03150	         6.23671e+57
          1114.83780	         6.54591e+58
          1115.64410	         3.16203e+59
          1116.45040	         1.61715e+59
          1117.25670	        -1.07694e+59
          1118.06300	         1.31069e+59
          1118.86930	        -6.99016e+58
          1119.67560	        -8.20793e+57
          1120.48190	        -8.53254e+58
          1121.28820	        -1.75972e+59
          1122.09450	        -6.27628e+58
          1122.90080	         7.85489e+58
          1123.70710	         8.55527e+58
          1124.51340	         9.73910e+58
          1125.31970	        -3.30838e+57
          1126.12600	        -1.02509e+57
          1126.93230	        -5.81339e+58
          1127.73860	        -6.20482e+58
          1128.54490	        -4.85235e+58
          1129.35120	        -2.92856e+57
          1130.15750	        -2.72449e+58
          1130.96380	        -1.64196e+58
          1131.77010	         3.85846e+58
          1132.57640	         1.01827e+58
          1133.38270	         5.55479e+57
          1134.18900	        -8.53342e+56
          1134.99530	        -1.00395e+58
          1135.80160	        -1.57881e+58
          1136.60790	         1.15548e+58
          1137.41420	         7.31800e+57
          1138.22050	         4.30421e+58
          1139.02680	         1.27619e+58
          1139.83310	         1.02110e+58
          1140.63940	         1.66481e+58
          1141.44570	         8.70741e+56
          1142.25200	        -1.79162e+57
          1143.05830	         2.77517e+58
          1143.86460	         4.22001e+58
          1144.67090	         1.76257e+58
          1145.47720	         1.00141e+58
          1146.28350	         1.01696e+58
          1147.08980	         7.88993e+57
          1147.89610	         1.91920e+58
          1148.70240	         2.87619e+58
          1149.50870	         2.52407e+58
          1150.31500	         1.47341e+58
          1151.12130	         2.35127e+58
          1151.92760	         1.29657e+58
          1152.73390	         1.02001e+58
          1153.54020	         5.35273e+57
          1154.34650	         2.75685e+58
          1155.15280	         3.07364e+58
          1155.95910	         1.73416e+58
          1156.76540	         1.89624e+58
          1157.57170	        -1.27816e+57
          1158.37800	        -1.17036e+58
          1159.18430	        -2.85836e+56
          1159.99060	         1.69162e+58
          1160.79690	         1.24674e+58
          1161.60320	         9.30032e+57
          1162.40950	         1.53493e+58
          1163.21580	         1.04924e+58
          1164.02210	         1.22284e+58
          1164.82840	         9.40827e+57
          1165.63470	         2.11485e+58
          1166.44100	         3.25968e+58
          1167.24730	         2.31058e+58
          1168.05360	         4.20531e+57
          1168.85990	         7.36760e+57
          1169.66620	         1.46851e+58
          1170.47250	         2.09939e+58
          1171.27880	         1.64795e+58
          1172.08510	         2.25163e+58
          1172.89140	         1.59335e+58
          1173.69770	         9.52584e+57
          1174.50400	         1.20636e+58
          1175.31030	         1.88561e+58
          1176.11660	         1.45992e+58
          1176.92290	         1.34364e+58
          1177.72920	         1.08250e+58
          1178.53550	         9.07078e+57
          1179.34180	         1.98852e+57
          1180.14810	         2.40663e+57
          1180.95440	         4.17431e+57
          1181.76070	         5.72906e+57
          1182.56700	         9.92464e+57
          1183.37330	         7.61739e+57
          1184.17960	         9.87173e+57
          1184.98590	         5.30785e+57
          1185.79220	         1.66418e+57
          1186.59850	         7.12860e+57
          1187.40480	         5.23094e+57
          1188.21110	         8.12629e+57
          1189.01740	         1.12410e+58
          1189.82370	         9.61092e+57
          1190.63000	         7.91704e+57
          1191.43630	         1.08174e+58
          1192.24260	         9.07276e+57
          1193.04890	         9.42884e+57
          1193.85520	         1.15869e+58
          1194.66150	         6.33626e+57
          1195.46780	         1.39124e+58
          1196.27410	         1.33340e+58
          1197.08040	         6.43862e+57
          1197.88670	         1.44995e+58
          1198.69300	         1.87247e+58
          1199.49930	         1.77883e+58
          1200.30560	         1.47482e+58
          1201.11190	         1.36025e+58
          1201.91820	         9.96014e+57
          1202.72450	         8.66582e+57
          1203.53080	         1.71161e+58
          1204.33710	         9.94255e+57
          1205.14340	         6.63936e+57
          1205.94970	         3.89236e+57
          1206.75600	         6.95411e+57
          1207.56230	         3.91751e+57
          1208.36860	         4.60121e+57
          1209.17490	         2.81794e+57
          1209.98120	         5.15039e+57
          1210.78750	         9.95456e+57
          1211.59380	         1.25608e+58
          1212.40010	         1.62162e+58
          1213.20640	         1.99200e+58
          1214.01270	         2.08510e+58
          1214.81900	         2.56203e+58
          1215.62530	         4.26669e+58
          1216.43160	         8.78863e+58
          1217.23790	         1.50805e+59
          1218.04420	         1.13397e+59
          1218.85050	         8.76498e+58
          1219.65680	         5.60338e+58
          1220.46310	         3.12558e+58
          1221.26940	         2.60077e+58
          1222.07570	         1.72931e+58
          1222.88200	         1.29175e+58
          1223.68830	         1.04141e+58
          1224.49460	         8.11812e+57
          1225.30090	         6.28554e+57
          1226.10720	         5.33353e+57
          1226.91350	         3.75599e+57
          1227.71980	         6.37396e+57
          1228.52610	         1.17010e+58
          1229.33240	         8.62397e+57
          1230.13870	         7.12473e+57
          1230.94500	         7.31919e+57
          1231.75130	         7.60909e+57
          1232.55760	         7.01336e+57
          1233.36390	         6.85250e+57
          1234.17020	         8.55332e+57
          1234.97650	         8.47559e+57
          1235.78280	         9.26246e+57
          1236.58910	         9.47530e+57
          1237.39540	         1.06074e+58
          1238.20170	         9.74795e+57
          1239.00800	         1.12317e+58
          1239.81430	         1.68791e+58
          1240.62060	         1.36968e+58
          1241.42690	         1.15151e+58
          1242.23320	         1.27862e+58
          1243.03950	         7.35678e+57
          1243.84580	         7.03195e+57
          1244.65210	         9.38302e+57
          1245.45840	         1.27248e+58
          1246.26470	         1.34568e+58
          1247.07100	         9.10820e+57
          1247.87730	         5.07452e+57
          1248.68360	         4.22550e+57
          1249.48990	         7.69629e+57
          1250.29620	         1.05185e+58
          1251.10250	         1.08376e+58
          1251.90880	         6.11325e+57
          1252.71510	         6.58433e+57
          1253.52140	         7.72987e+57
          1254.32770	         9.61461e+57
          1255.13400	         1.10798e+58
          1255.94030	         1.21403e+58
          1256.74660	         1.36088e+58
          1257.55290	         1.27595e+58
          1258.35920	         8.62268e+57
          1259.16550	         5.37184e+57
          1259.97180	         4.66101e+57
          1260.77810	         7.98598e+57
          1261.58440	         1.03380e+58
          1262.39070	         1.04515e+58
          1263.19700	         9.01639e+57
          1264.00330	         9.40614e+57
          1264.80960	         1.02078e+58
          1265.61590	         1.21300e+58
          1266.42220	         1.19000e+58
          1267.22850	         9.21500e+57
          1268.03480	         1.28301e+58
          1268.84110	         1.36819e+58
          1269.64740	         1.28566e+58
          1270.45370	         1.41962e+58
          1271.26000	         1.14558e+58
          1272.06630	         1.20335e+58
          1272.87260	         1.50108e+58
          1273.67890	         1.36690e+58
          1274.48520	         1.12973e+58
          1275.29150	         1.15000e+58
          1276.09780	         1.20669e+58
          1276.90410	         1.57577e+58
          1277.71040	         1.32523e+58
          1278.51670	         1.11736e+58
          1279.32300	         1.44494e+58
          1280.12930	         1.30601e+58
          1280.93560	         1.16545e+58
          1281.74190	         1.05793e+58
          1282.54820	         1.19834e+58
          1283.35450	         1.22437e+58
          1284.16080	         1.35863e+58
          1284.96710	         1.54617e+58
          1285.77340	         1.35438e+58
          1286.57970	         1.30030e+58
          1287.38600	         1.53943e+58
          1288.19230	         1.91136e+58
          1288.99860	         1.60916e+58
          1289.80490	         9.66215e+57
          1290.61120	         1.21977e+58
          1291.41750	         1.43604e+58
          1292.22380	         1.16843e+58
          1293.03010	         1.04129e+58
          1293.83640	         1.09010e+58
          1294.64270	         9.45807e+57
          1295.44900	         7.64458e+57
          1296.25530	         8.63629e+57
          1297.06160	         9.43650e+57
          1297.86790	         9.90002e+57
          1298.67420	         1.00061e+58
          1299.48050	         9.22134e+57
          1300.28680	         1.12938e+58
          1301.09310	         9.38072e+57
          1301.89940	         4.60598e+57
          1302.70570	         7.39780e+57
          1303.51200	         9.27213e+57
          1304.31830	         1.00358e+58
          1305.12460	         1.05772e+58
          1305.93090	         1.10981e+58
          1306.73720	         1.23350e+58
          1307.54350	         1.38598e+58
          1308.34980	         1.38034e+58
          1309.15610	         1.46568e+58
          1309.96240	         1.60848e+58
          1310.76870	         1.28250e+58
          1311.57500	         1.08702e+58
          1312.38130	         1.44635e+58
          1313.18760	         1.31616e+58
          1313.99390	         1.29609e+58
          1314.80020	         1.55969e+58
          1315.60650	         1.48096e+58
          1316.41280	         1.24214e+58
          1317.21910	         9.96399e+57
          1318.02540	         1.17831e+58
          1318.83170	         1.29445e+58
          1319.63800	         1.17753e+58
          1320.44430	         1.22655e+58
          1321.25060	         1.21296e+58
          1322.05690	         1.17949e+58
          1322.86320	         1.28551e+58
          1323.66950	         1.14754e+58
          1324.47580	         8.23972e+57
          1325.28210	         7.38060e+57
          1326.08840	         1.02774e+58
          1326.89470	         1.24191e+58
          1327.70100	         1.09837e+58
          1328.50730	         9.75662e+57
          1329.31360	         1.10747e+58
          1330.11990	         1.01896e+58
          1330.92620	         9.21735e+57
          1331.73250	         1.02260e+58
          1332.53880	         9.27931e+57
          1333.34510	         9.49402e+57
          1334.15140	         9.31048e+57
          1334.95770	         8.99249e+57
          1335.76400	         9.72835e+57
          1336.57030	         1.05374e+58
          1337.37660	         1.09426e+58
          1338.18290	         1.20032e+58
          1338.98920	         1.27763e+58
          1339.79550	         1.18267e+58
          1340.60180	         1.24530e+58
          1341.40810	         1.43835e+58
          1342.21440	         1.21561e+58
          1343.02070	         1.26132e+58
          1343.82700	         1.30934e+58
          1344.63330	         1.19849e+58
          1345.43960	         1.32693e+58
          1346.24590	         1.32376e+58
          1347.05220	         1.24561e+58
          1347.85850	         1.10939e+58
          1348.66480	         1.14194e+58
          1349.47110	         1.26484e+58
          1350.27740	         1.09218e+58
          1351.08370	         1.06358e+58
          1351.89000	         1.14960e+58
          1352.69630	         1.07409e+58
          1353.50260	         9.32133e+57
          1354.30890	         1.18736e+58
          1355.11520	         1.28942e+58
          1355.92150	         1.10801e+58
          1356.72780	         9.99920e+57
          1357.53410	         9.73058e+57
          1358.34040	         1.06631e+58
          1359.14670	         1.06107e+58
          1359.95300	         1.04714e+58
          1360.75930	         1.12697e+58
          1361.56560	         1.17574e+58
          1362.37190	         1.20911e+58
          1363.17820	         1.12556e+58
          1363.98450	         1.19598e+58
          1364.79080	         1.32876e+58
          1365.59710	         1.28628e+58
          1366.40340	         1.12592e+58
          1367.20970	         9.70579e+57
          1368.01600	         9.58147e+57
          1368.82230	         9.48508e+57
          1369.62860	         1.01375e+58
          1370.43490	         1.08830e+58
          1371.24120	         1.02630e+58
          1372.04750	         9.23761e+57
          1372.85380	         1.17991e+58
          1373.66010	         1.09626e+58
          1374.46640	         1.06283e+58
          1375.27270	         1.07223e+58
          1376.07900	         8.63049e+57
          1376.88530	         9.38524e+57
          1377.69160	         9.11281e+57
          1378.49790	         7.32033e+57
          1379.30420	         7.95111e+57
          1380.11050	         8.92102e+57
          1380.91680	         7.62592e+57
          1381.72310	         8.43335e+57
          1382.52940	         9.89370e+57
          1383.33570	         9.77329e+57
          1384.14200	         9.99959e+57
          1384.94830	         1.11859e+58
          1385.75460	         1.06132e+58
          1386.56090	         1.14397e+58
          1387.36720	         1.07178e+58
          1388.17350	         1.33762e+58
          1388.97980	         1.16320e+58
          1389.78610	         9.90854e+57
          1390.59240	         8.49836e+57
          1391.39870	         7.29825e+57
          1392.20500	         8.16588e+57
          1393.01130	         9.58378e+57
          1393.81760	         9.44647e+57
          1394.62390	         7.49227e+57
          1395.43020	         6.30994e+57
          1396.23650	         7.20908e+57
          1397.04280	         8.08262e+57
          1397.84910	         9.64402e+57
          1398.65540	         9.56292e+57
          1399.46170	         9.16727e+57
          1400.26800	         7.45538e+57
          1401.07430	         7.76477e+57
          1401.88060	         9.72995e+57
          1402.68690	         1.04052e+58
          1403.49320	         1.04948e+58
          1404.29950	         9.77714e+57
          1405.10580	         1.07699e+58
          1405.91210	         1.00759e+58
          1406.71840	         1.12668e+58
          1407.52470	         1.13007e+58
          1408.33100	         1.06454e+58
          1409.13730	         1.21551e+58
          1409.94360	         1.07209e+58
          1410.74990	         1.07653e+58
          1411.55620	         1.05265e+58
          1412.36250	         9.04546e+57
          1413.16880	         8.86230e+57
          1413.97510	         8.56550e+57
          1414.78140	         7.55207e+57
          1415.58770	         8.69394e+57
          1416.39400	         9.10751e+57
          1417.20030	         9.69119e+57
          1418.00660	         1.03645e+58
          1418.81290	         1.08486e+58
          1419.61920	         1.11680e+58
          1420.42550	         1.26190e+58
          1421.23180	         1.41882e+58
          1422.03810	         1.19620e+58
          1422.84440	         1.06737e+58
          1423.65070	         1.25932e+58
          1424.45700	         1.09083e+58
          1425.26330	         7.83117e+57
          1426.06960	         8.41883e+57
          1426.87590	         9.71268e+57
          1427.68220	         9.79136e+57
          1428.48850	         1.03324e+58
          1429.29480	         1.04946e+58
          1430.10110	         9.69590e+57
          1430.90740	         7.85406e+57
          1431.71370	         8.16162e+57
          1432.52000	         9.93114e+57
          1433.32630	         8.76251e+57
          1434.13260	         8.26443e+57
          1434.93890	         8.57077e+57
          1435.74520	         9.86499e+57
          1436.55150	         1.14511e+58
          1437.35780	         9.90553e+57
          1438.16410	         9.83481e+57
          1438.97040	         9.65008e+57
          1439.77670	         8.30350e+57
          1440.58300	         8.90023e+57
          1441.38930	         9.64552e+57
          1442.19560	         9.38970e+57
          1443.00190	         9.39090e+57
          1443.80820	         1.04426e+58
          1444.61450	         1.05602e+58
          1445.42080	         8.12886e+57
          1446.22710	         9.34751e+57
          1447.03340	         1.06470e+58
          1447.83970	         1.06475e+58
          1448.64600	         1.08750e+58
          1449.45230	         9.50254e+57
          1450.25860	         9.44577e+57
          1451.06490	         1.01135e+58
          1451.87120	         8.89583e+57
          1452.67750	         8.26205e+57
          1453.48380	         8.96913e+57
          1454.29010	         8.59014e+57
          1455.09640	         7.74160e+57
          1455.90270	         9.16572e+57
          1456.70900	         9.35748e+57
          1457.51530	         1.04874e+58
          1458.32160	         1.28763e+58
          1459.12790	         1.28220e+58
          1459.93420	         1.08151e+58
          1460.74050	         9.44035e+57
          1461.54680	         8.96268e+57
          1462.35310	         8.66344e+57
          1463.15940	         9.22383e+57
          1463.96570	         1.06105e+58
          1464.77200	         1.16350e+58
          1465.57830	         1.04430e+58
          1466.38460	         8.06628e+57
          1467.19090	         7.45868e+57
          1467.99720	         8.36851e+57
          1468.80350	         9.73311e+57
          1469.60980	         1.09922e+58
          1470.41610	         1.11193e+58
          1471.22240	         1.00142e+58
          1472.02870	         1.05226e+58
          1472.83500	         1.02308e+58
          1473.64130	         1.01508e+58
          1474.44760	         1.04304e+58
          1475.25390	         9.18334e+57
          1476.06020	         7.51921e+57
          1476.86650	         7.98541e+57
          1477.67280	         8.55671e+57
          1478.47910	         7.49294e+57
          1479.28540	         6.66306e+57
          1480.09170	         7.55343e+57
          1480.89800	         9.00494e+57
          1481.70430	         9.28877e+57
          1482.51060	         8.77652e+57
          1483.31690	         8.11854e+57
          1484.12320	         7.27728e+57
          1484.92950	         7.05274e+57
          1485.73580	         8.05910e+57
          1486.54210	         9.49645e+57
          1487.34840	         9.66891e+57
          1488.15470	         8.63165e+57
          1488.96100	         9.24258e+57
          1489.76730	         9.38188e+57
