#sample_471_stacked_spectrum_rest_UV-bands_median_H-alpha_noDC.txt
#median Lum: 1.68276e+42
#Rest-frame wavelength (A) | Luminosity (erg/s/A)
#
          1110.00000	         0.00000e+00
          1110.80630	         9.52565e+58
          1111.61260	         3.57340e+59
          1112.41890	        -1.66775e+58
          1113.22520	        -2.64165e+57
          1114.03150	        -1.54764e+59
          1114.83780	         2.94119e+59
          1115.64410	         1.60624e+59
          1116.45040	         1.46939e+59
          1117.25670	        -8.36497e+58
          1118.06300	         1.51106e+59
          1118.86930	         4.26490e+58
          1119.67560	         1.66626e+59
          1120.48190	         2.13933e+58
          1121.28820	        -8.16954e+58
          1122.09450	        -1.26337e+58
          1122.90080	         3.71876e+58
          1123.70710	         5.89871e+58
          1124.51340	         7.19666e+58
          1125.31970	        -2.45215e+58
          1126.12600	        -5.83312e+58
          1126.93230	        -5.76962e+58
          1127.73860	        -5.89903e+58
          1128.54490	         1.58664e+57
          1129.35120	         3.59165e+58
          1130.15750	        -2.73166e+58
          1130.96380	        -6.97203e+58
          1131.77010	         4.65139e+58
          1132.57640	         4.78766e+58
          1133.38270	         3.32972e+58
          1134.18900	         1.75394e+58
          1134.99530	        -2.36433e+57
          1135.80160	         4.82683e+58
          1136.60790	         4.37318e+58
          1137.41420	        -9.60907e+57
          1138.22050	         4.12908e+58
          1139.02680	         2.59908e+58
          1139.83310	         1.29705e+58
          1140.63940	         1.38037e+58
          1141.44570	        -6.59598e+57
          1142.25200	        -1.51467e+58
          1143.05830	         2.50393e+58
          1143.86460	         4.80702e+58
          1144.67090	         2.09547e+58
          1145.47720	         2.77056e+58
          1146.28350	         1.42752e+58
          1147.08980	         1.75356e+58
          1147.89610	         2.83873e+58
          1148.70240	         3.43727e+58
          1149.50870	         3.02395e+58
          1150.31500	         1.68269e+58
          1151.12130	         1.74460e+58
          1151.92760	         1.45511e+58
          1152.73390	         3.18294e+57
          1153.54020	         1.19009e+58
          1154.34650	         3.20593e+58
          1155.15280	         3.22193e+58
          1155.95910	         1.37509e+58
          1156.76540	         1.38895e+58
          1157.57170	         1.34574e+58
          1158.37800	        -1.06661e+58
          1159.18430	        -5.96784e+57
          1159.99060	         4.97455e+57
          1160.79690	         4.57979e+57
          1161.60320	         1.05574e+58
          1162.40950	         1.64444e+58
          1163.21580	         2.03346e+58
          1164.02210	         1.29289e+58
          1164.82840	         8.99307e+57
          1165.63470	         1.02592e+58
          1166.44100	         2.78986e+58
          1167.24730	         1.35129e+58
          1168.05360	         6.55240e+57
          1168.85990	         8.74537e+57
          1169.66620	         3.33835e+57
          1170.47250	         1.17354e+58
          1171.27880	         1.67199e+58
          1172.08510	         1.80127e+58
          1172.89140	         1.50060e+58
          1173.69770	         1.15474e+58
          1174.50400	         1.29774e+58
          1175.31030	         1.51426e+58
          1176.11660	         1.46080e+58
          1176.92290	         1.66858e+58
          1177.72920	         1.19166e+58
          1178.53550	         8.56886e+57
          1179.34180	         5.63609e+57
          1180.14810	         7.73069e+57
          1180.95440	         5.13416e+57
          1181.76070	         3.06926e+57
          1182.56700	         2.78227e+57
          1183.37330	         2.60830e+57
          1184.17960	         1.23387e+58
          1184.98590	         8.13256e+57
          1185.79220	         4.41707e+57
          1186.59850	         1.47227e+58
          1187.40480	         1.25570e+58
          1188.21110	         1.98608e+58
          1189.01740	         1.35742e+58
          1189.82370	         1.00620e+58
          1190.63000	         1.33004e+58
          1191.43630	         1.29190e+58
          1192.24260	         7.31892e+57
          1193.04890	         1.17393e+58
          1193.85520	         1.40921e+58
          1194.66150	         5.24331e+57
          1195.46780	         1.40056e+58
          1196.27410	         1.65413e+58
          1197.08040	         1.02278e+58
          1197.88670	         1.05673e+58
          1198.69300	         1.39024e+58
          1199.49930	         1.51028e+58
          1200.30560	         1.25255e+58
          1201.11190	         9.96201e+57
          1201.91820	         7.60979e+57
          1202.72450	         1.03981e+58
          1203.53080	         1.61463e+58
          1204.33710	         7.03571e+57
          1205.14340	         7.51737e+57
          1205.94970	         6.36501e+57
          1206.75600	         6.70958e+57
          1207.56230	         4.33569e+57
          1208.36860	         5.40010e+57
          1209.17490	         4.94597e+57
          1209.98120	         6.21390e+57
          1210.78750	         7.13327e+57
          1211.59380	         9.91836e+57
          1212.40010	         1.66019e+58
          1213.20640	         2.09126e+58
          1214.01270	         2.13280e+58
          1214.81900	         2.49383e+58
          1215.62530	         4.09624e+58
          1216.43160	         8.86378e+58
          1217.23790	         1.47289e+59
          1218.04420	         1.11165e+59
          1218.85050	         8.33704e+58
          1219.65680	         5.71944e+58
          1220.46310	         3.34830e+58
          1221.26940	         2.13849e+58
          1222.07570	         1.33768e+58
          1222.88200	         1.27821e+58
          1223.68830	         1.26676e+58
          1224.49460	         7.17405e+57
          1225.30090	         4.14021e+57
          1226.10720	         5.44361e+57
          1226.91350	         8.15447e+57
          1227.71980	         1.09407e+58
          1228.52610	         1.27660e+58
          1229.33240	         9.77800e+57
          1230.13870	         6.25658e+57
          1230.94500	         6.69330e+57
          1231.75130	         6.86317e+57
          1232.55760	         8.68741e+57
          1233.36390	         9.09853e+57
          1234.17020	         8.31777e+57
          1234.97650	         5.26558e+57
          1235.78280	         6.33078e+57
          1236.58910	         8.08711e+57
          1237.39540	         1.07515e+58
          1238.20170	         7.51484e+57
          1239.00800	         8.89157e+57
          1239.81430	         1.30128e+58
          1240.62060	         1.09662e+58
          1241.42690	         9.78208e+57
          1242.23320	         1.13604e+58
          1243.03950	         7.19233e+57
          1243.84580	         6.69305e+57
          1244.65210	         1.02245e+58
          1245.45840	         1.14305e+58
          1246.26470	         1.03058e+58
          1247.07100	         9.92329e+57
          1247.87730	         4.65759e+57
          1248.68360	         2.51606e+57
          1249.48990	         6.84845e+57
          1250.29620	         6.86607e+57
          1251.10250	         3.85287e+57
          1251.90880	         2.58290e+57
          1252.71510	         4.09308e+57
          1253.52140	         5.04162e+57
          1254.32770	         8.96356e+57
          1255.13400	         1.34605e+58
          1255.94030	         1.13059e+58
          1256.74660	         8.94665e+57
          1257.55290	         1.07841e+58
          1258.35920	         8.73289e+57
          1259.16550	         4.51583e+57
          1259.97180	         6.57964e+57
          1260.77810	         9.71836e+57
          1261.58440	         8.89421e+57
          1262.39070	         6.72410e+57
          1263.19700	         9.40641e+57
          1264.00330	         9.92265e+57
          1264.80960	         1.14029e+58
          1265.61590	         1.32672e+58
          1266.42220	         1.32231e+58
          1267.22850	         1.20891e+58
          1268.03480	         1.45598e+58
          1268.84110	         1.92924e+58
          1269.64740	         1.60617e+58
          1270.45370	         1.32687e+58
          1271.26000	         1.17002e+58
          1272.06630	         1.02075e+58
          1272.87260	         1.02451e+58
          1273.67890	         1.00976e+58
          1274.48520	         1.21505e+58
          1275.29150	         1.26161e+58
          1276.09780	         9.52900e+57
          1276.90410	         1.34683e+58
          1277.71040	         1.36411e+58
          1278.51670	         1.02412e+58
          1279.32300	         1.24791e+58
          1280.12930	         1.23717e+58
          1280.93560	         1.11134e+58
          1281.74190	         1.26941e+58
          1282.54820	         1.32184e+58
          1283.35450	         1.19940e+58
          1284.16080	         1.07186e+58
          1284.96710	         1.17720e+58
          1285.77340	         1.07529e+58
          1286.57970	         8.68797e+57
          1287.38600	         1.22440e+58
          1288.19230	         1.58449e+58
          1288.99860	         1.50391e+58
          1289.80490	         1.07705e+58
          1290.61120	         1.28300e+58
          1291.41750	         1.50633e+58
          1292.22380	         1.14957e+58
          1293.03010	         9.66518e+57
          1293.83640	         1.12358e+58
          1294.64270	         1.05659e+58
          1295.44900	         5.02360e+57
          1296.25530	         6.54797e+57
          1297.06160	         8.90442e+57
          1297.86790	         9.11019e+57
          1298.67420	         9.85643e+57
          1299.48050	         9.32634e+57
          1300.28680	         8.66344e+57
          1301.09310	         8.87064e+57
          1301.89940	         5.46925e+57
          1302.70570	         5.11463e+57
          1303.51200	         7.43739e+57
          1304.31830	         1.01742e+58
          1305.12460	         1.13363e+58
          1305.93090	         1.04498e+58
          1306.73720	         1.09518e+58
          1307.54350	         1.43671e+58
          1308.34980	         1.58920e+58
          1309.15610	         1.56727e+58
          1309.96240	         1.56279e+58
          1310.76870	         1.43300e+58
          1311.57500	         1.13377e+58
          1312.38130	         1.11198e+58
          1313.18760	         1.36349e+58
          1313.99390	         1.61356e+58
          1314.80020	         1.56399e+58
          1315.60650	         1.62092e+58
          1316.41280	         1.40177e+58
          1317.21910	         9.95359e+57
          1318.02540	         1.12331e+58
          1318.83170	         1.35382e+58
          1319.63800	         1.15904e+58
          1320.44430	         1.20161e+58
          1321.25060	         1.20028e+58
          1322.05690	         1.11877e+58
          1322.86320	         1.15607e+58
          1323.66950	         1.06663e+58
          1324.47580	         8.26275e+57
          1325.28210	         8.95617e+57
          1326.08840	         1.03798e+58
          1326.89470	         1.06908e+58
          1327.70100	         1.00496e+58
          1328.50730	         8.66488e+57
          1329.31360	         9.95861e+57
          1330.11990	         1.03139e+58
          1330.92620	         8.62714e+57
          1331.73250	         9.59019e+57
          1332.53880	         9.13499e+57
          1333.34510	         8.24946e+57
          1334.15140	         8.32398e+57
          1334.95770	         8.86968e+57
          1335.76400	         1.09479e+58
          1336.57030	         1.13256e+58
          1337.37660	         1.08469e+58
          1338.18290	         1.16557e+58
          1338.98920	         1.16008e+58
          1339.79550	         1.09451e+58
          1340.60180	         1.18196e+58
          1341.40810	         1.35627e+58
          1342.21440	         1.25447e+58
          1343.02070	         1.02993e+58
          1343.82700	         1.12193e+58
          1344.63330	         1.10648e+58
          1345.43960	         1.15254e+58
          1346.24590	         9.86424e+57
          1347.05220	         9.59069e+57
          1347.85850	         1.04771e+58
          1348.66480	         1.40130e+58
          1349.47110	         1.35240e+58
          1350.27740	         1.14667e+58
          1351.08370	         1.22654e+58
          1351.89000	         1.21809e+58
          1352.69630	         1.24424e+58
          1353.50260	         1.25112e+58
          1354.30890	         1.17318e+58
          1355.11520	         1.15295e+58
          1355.92150	         1.18712e+58
          1356.72780	         1.08202e+58
          1357.53410	         9.77194e+57
          1358.34040	         1.17053e+58
          1359.14670	         1.20309e+58
          1359.95300	         1.15517e+58
          1360.75930	         1.06056e+58
          1361.56560	         9.95957e+57
          1362.37190	         1.04935e+58
          1363.17820	         1.09030e+58
          1363.98450	         1.22820e+58
          1364.79080	         1.24273e+58
          1365.59710	         1.13648e+58
          1366.40340	         1.12652e+58
          1367.20970	         1.11706e+58
          1368.01600	         8.92997e+57
          1368.82230	         7.92997e+57
          1369.62860	         1.03118e+58
          1370.43490	         9.02969e+57
          1371.24120	         9.86778e+57
          1372.04750	         9.58791e+57
          1372.85380	         9.89233e+57
          1373.66010	         1.16404e+58
          1374.46640	         1.17566e+58
          1375.27270	         1.04088e+58
          1376.07900	         9.34916e+57
          1376.88530	         8.95022e+57
          1377.69160	         8.13831e+57
          1378.49790	         6.50279e+57
          1379.30420	         7.11492e+57
          1380.11050	         9.28011e+57
          1380.91680	         7.74728e+57
          1381.72310	         6.02592e+57
          1382.52940	         7.96284e+57
          1383.33570	         8.83570e+57
          1384.14200	         9.85922e+57
          1384.94830	         1.15367e+58
          1385.75460	         1.03417e+58
          1386.56090	         1.06663e+58
          1387.36720	         1.04290e+58
          1388.17350	         1.21270e+58
          1388.97980	         1.23218e+58
          1389.78610	         9.29556e+57
          1390.59240	         8.74484e+57
          1391.39870	         8.21883e+57
          1392.20500	         8.75226e+57
          1393.01130	         7.53420e+57
          1393.81760	         7.65940e+57
          1394.62390	         9.31738e+57
          1395.43020	         7.60702e+57
          1396.23650	         7.26130e+57
          1397.04280	         8.30353e+57
          1397.84910	         8.82125e+57
          1398.65540	         7.40250e+57
          1399.46170	         9.35463e+57
          1400.26800	         8.76466e+57
          1401.07430	         7.39579e+57
          1401.88060	         7.69617e+57
          1402.68690	         8.06204e+57
          1403.49320	         8.81235e+57
          1404.29950	         9.45803e+57
          1405.10580	         9.84526e+57
          1405.91210	         1.10906e+58
          1406.71840	         1.07820e+58
          1407.52470	         9.66257e+57
          1408.33100	         1.02810e+58
          1409.13730	         1.18738e+58
          1409.94360	         1.13527e+58
          1410.74990	         1.02850e+58
          1411.55620	         9.11119e+57
          1412.36250	         9.17558e+57
          1413.16880	         9.76864e+57
          1413.97510	         8.25179e+57
          1414.78140	         8.32111e+57
          1415.58770	         1.00533e+58
          1416.39400	         1.01795e+58
          1417.20030	         1.01796e+58
          1418.00660	         8.71987e+57
          1418.81290	         1.03402e+58
          1419.61920	         1.15206e+58
          1420.42550	         1.14542e+58
          1421.23180	         1.19226e+58
          1422.03810	         1.15786e+58
          1422.84440	         1.02108e+58
          1423.65070	         1.20630e+58
          1424.45700	         1.08701e+58
          1425.26330	         9.28349e+57
          1426.06960	         9.51300e+57
          1426.87590	         9.79648e+57
          1427.68220	         9.99627e+57
          1428.48850	         1.09803e+58
          1429.29480	         1.02762e+58
          1430.10110	         9.21918e+57
          1430.90740	         9.17554e+57
          1431.71370	         9.67627e+57
          1432.52000	         9.35535e+57
          1433.32630	         7.77107e+57
          1434.13260	         7.73597e+57
          1434.93890	         7.67517e+57
          1435.74520	         8.49021e+57
          1436.55150	         9.34661e+57
          1437.35780	         8.95799e+57
          1438.16410	         9.12021e+57
          1438.97040	         9.18833e+57
          1439.77670	         8.64943e+57
          1440.58300	         9.40155e+57
          1441.38930	         9.76369e+57
          1442.19560	         9.75788e+57
          1443.00190	         9.90387e+57
          1443.80820	         1.07999e+58
          1444.61450	         1.04888e+58
          1445.42080	         8.81771e+57
          1446.22710	         1.03111e+58
          1447.03340	         9.99163e+57
          1447.83970	         9.85651e+57
          1448.64600	         1.01636e+58
          1449.45230	         8.83488e+57
          1450.25860	         8.43673e+57
          1451.06490	         8.52372e+57
          1451.87120	         6.88508e+57
          1452.67750	         6.91186e+57
          1453.48380	         8.37577e+57
          1454.29010	         6.79165e+57
          1455.09640	         6.91887e+57
          1455.90270	         9.42065e+57
          1456.70900	         8.86610e+57
          1457.51530	         8.49264e+57
          1458.32160	         1.24436e+58
          1459.12790	         1.21395e+58
          1459.93420	         1.04901e+58
          1460.74050	         8.67164e+57
          1461.54680	         7.55358e+57
          1462.35310	         6.44838e+57
          1463.15940	         8.10904e+57
          1463.96570	         1.03210e+58
          1464.77200	         1.15551e+58
          1465.57830	         1.11259e+58
          1466.38460	         8.42465e+57
          1467.19090	         7.68682e+57
          1467.99720	         8.42218e+57
          1468.80350	         8.93941e+57
          1469.60980	         9.92814e+57
          1470.41610	         1.02683e+58
          1471.22240	         8.43960e+57
          1472.02870	         8.31888e+57
          1472.83500	         9.74658e+57
          1473.64130	         1.00494e+58
          1474.44760	         9.42009e+57
          1475.25390	         9.38712e+57
          1476.06020	         9.46054e+57
          1476.86650	         8.08060e+57
          1477.67280	         7.70723e+57
          1478.47910	         7.25647e+57
          1479.28540	         7.54089e+57
          1480.09170	         9.13688e+57
          1480.89800	         9.29215e+57
          1481.70430	         8.89345e+57
          1482.51060	         8.09602e+57
          1483.31690	         7.36528e+57
          1484.12320	         7.93869e+57
          1484.92950	         8.37474e+57
          1485.73580	         8.50131e+57
          1486.54210	         8.80751e+57
          1487.34840	         8.92153e+57
          1488.15470	         8.50571e+57
          1488.96100	         8.27873e+57
          1489.76730	         8.89278e+57
