#sample_140_stacked_spectrum_rest_UV-bands_median_H-alpha_noDC.txt
#median Lum: 1.70492e+42
#Rest-frame wavelength (A) | Luminosity (erg/s/A)
#
          1110.00000	         0.00000e+00
          1110.80630	         3.18245e+58
          1111.61260	         1.71522e+59
          1112.41890	         3.60086e+59
          1113.22520	         2.07362e+59
          1114.03150	        -3.29408e+58
          1114.83780	         1.27856e+59
          1115.64410	         2.64878e+58
          1116.45040	         1.72709e+59
          1117.25670	         2.29142e+58
          1118.06300	         3.94855e+58
          1118.86930	        -1.17380e+58
          1119.67560	         6.63960e+58
          1120.48190	         3.44147e+58
          1121.28820	        -7.27831e+58
          1122.09450	        -5.81658e+58
          1122.90080	        -4.91362e+58
          1123.70710	         2.77235e+58
          1124.51340	         1.43215e+59
          1125.31970	         4.50691e+58
          1126.12600	         1.10384e+59
          1126.93230	        -4.05149e+57
          1127.73860	        -3.62787e+58
          1128.54490	         4.36485e+58
          1129.35120	         5.01730e+58
          1130.15750	        -3.66522e+57
          1130.96380	        -3.68174e+58
          1131.77010	         6.40755e+58
          1132.57640	         5.38812e+58
          1133.38270	         4.43633e+58
          1134.18900	         2.15858e+58
          1134.99530	         1.98873e+58
          1135.80160	         1.82011e+58
          1136.60790	         6.78050e+57
          1137.41420	        -1.79782e+58
          1138.22050	         2.35489e+58
          1139.02680	         3.30971e+58
          1139.83310	         1.37514e+58
          1140.63940	         1.40353e+56
          1141.44570	        -3.12941e+58
          1142.25200	        -1.16578e+58
          1143.05830	         9.69489e+56
          1143.86460	         8.88160e+57
          1144.67090	         1.52372e+58
          1145.47720	         1.17151e+58
          1146.28350	         1.87216e+58
          1147.08980	         1.92470e+57
          1147.89610	         1.62639e+57
          1148.70240	         3.02932e+58
          1149.50870	         2.31659e+58
          1150.31500	         9.23467e+57
          1151.12130	         6.51723e+57
          1151.92760	         9.46725e+57
          1152.73390	         3.36663e+57
          1153.54020	        -5.52037e+57
          1154.34650	         1.74642e+58
          1155.15280	         2.12796e+58
          1155.95910	         1.34851e+58
          1156.76540	         2.18595e+58
          1157.57170	         4.87302e+57
          1158.37800	        -1.35434e+57
          1159.18430	        -9.85858e+57
          1159.99060	        -3.45206e+57
          1160.79690	         7.33476e+57
          1161.60320	         1.35082e+58
          1162.40950	         1.81191e+58
          1163.21580	         2.55674e+58
          1164.02210	         1.20394e+58
          1164.82840	         1.42736e+58
          1165.63470	         2.05154e+58
          1166.44100	         2.16554e+58
          1167.24730	         1.28873e+58
          1168.05360	         2.64752e+57
          1168.85990	         1.84712e+57
          1169.66620	         5.91506e+57
          1170.47250	         1.54000e+58
          1171.27880	         9.61582e+57
          1172.08510	         7.33472e+57
          1172.89140	         1.00879e+58
          1173.69770	         4.41127e+57
          1174.50400	         9.07489e+57
          1175.31030	         1.95126e+58
          1176.11660	         1.90153e+58
          1176.92290	         1.50461e+58
          1177.72920	         1.33388e+58
          1178.53550	         9.99244e+57
          1179.34180	         6.10946e+57
          1180.14810	         6.69947e+57
          1180.95440	         7.59914e+57
          1181.76070	         8.88384e+57
          1182.56700	         1.17626e+58
          1183.37330	         6.68427e+57
          1184.17960	         1.34971e+58
          1184.98590	         1.25134e+58
          1185.79220	         9.27467e+57
          1186.59850	         1.30380e+58
          1187.40480	         8.24992e+57
          1188.21110	         1.51249e+58
          1189.01740	         9.11008e+57
          1189.82370	         1.30301e+58
          1190.63000	         1.48884e+58
          1191.43630	         1.56273e+58
          1192.24260	         1.24015e+58
          1193.04890	         1.30402e+58
          1193.85520	         1.21501e+58
          1194.66150	         1.07403e+58
          1195.46780	         1.13983e+58
          1196.27410	         1.13252e+58
          1197.08040	         1.04811e+58
          1197.88670	         1.54899e+58
          1198.69300	         1.33418e+58
          1199.49930	         1.36489e+58
          1200.30560	         1.05724e+58
          1201.11190	         8.78274e+57
          1201.91820	         8.57195e+57
          1202.72450	         7.81380e+57
          1203.53080	         1.86422e+58
          1204.33710	         1.24292e+58
          1205.14340	         8.63561e+57
          1205.94970	         9.70889e+57
          1206.75600	         6.63615e+57
          1207.56230	         3.53197e+57
          1208.36860	         9.04693e+57
          1209.17490	         6.13061e+57
          1209.98120	         3.99552e+57
          1210.78750	         3.93296e+57
          1211.59380	         9.02986e+57
          1212.40010	         1.72195e+58
          1213.20640	         2.19488e+58
          1214.01270	         1.91345e+58
          1214.81900	         2.39507e+58
          1215.62530	         4.34783e+58
          1216.43160	         8.68168e+58
          1217.23790	         1.52249e+59
          1218.04420	         1.13039e+59
          1218.85050	         8.45211e+58
          1219.65680	         5.42605e+58
          1220.46310	         3.50867e+58
          1221.26940	         2.36568e+58
          1222.07570	         1.19466e+58
          1222.88200	         1.05580e+58
          1223.68830	         9.92661e+57
          1224.49460	         4.60077e+57
          1225.30090	         5.79650e+57
          1226.10720	         6.85153e+57
          1226.91350	         7.54462e+57
          1227.71980	         9.16220e+57
          1228.52610	         1.31609e+58
          1229.33240	         1.38692e+58
          1230.13870	         1.16146e+58
          1230.94500	         8.39308e+57
          1231.75130	         6.78061e+57
          1232.55760	         8.83529e+57
          1233.36390	         9.90507e+57
          1234.17020	         8.53859e+57
          1234.97650	         7.10401e+57
          1235.78280	         7.40329e+57
          1236.58910	         8.08611e+57
          1237.39540	         9.70765e+57
          1238.20170	         8.84885e+57
          1239.00800	         1.02437e+58
          1239.81430	         1.33878e+58
          1240.62060	         1.22883e+58
          1241.42690	         1.26289e+58
          1242.23320	         1.34780e+58
          1243.03950	         1.00339e+58
          1243.84580	         8.28809e+57
          1244.65210	         9.17447e+57
          1245.45840	         9.12320e+57
          1246.26470	         8.34350e+57
          1247.07100	         6.54467e+57
          1247.87730	         5.86530e+57
          1248.68360	         4.08999e+57
          1249.48990	         5.27337e+57
          1250.29620	         8.87905e+57
          1251.10250	         8.34388e+57
          1251.90880	         6.06549e+57
          1252.71510	         8.49888e+57
          1253.52140	         8.69565e+57
          1254.32770	         9.64374e+57
          1255.13400	         1.15377e+58
          1255.94030	         1.15521e+58
          1256.74660	         1.10241e+58
          1257.55290	         1.15248e+58
          1258.35920	         8.64187e+57
          1259.16550	         4.85761e+57
          1259.97180	         6.25180e+57
          1260.77810	         1.03721e+58
          1261.58440	         1.29779e+58
          1262.39070	         8.44193e+57
          1263.19700	         7.87822e+57
          1264.00330	         9.39650e+57
          1264.80960	         1.05630e+58
          1265.61590	         1.28542e+58
          1266.42220	         1.30339e+58
          1267.22850	         9.15338e+57
          1268.03480	         1.13368e+58
          1268.84110	         1.34461e+58
          1269.64740	         1.36771e+58
          1270.45370	         1.46198e+58
          1271.26000	         1.18897e+58
          1272.06630	         1.27964e+58
          1272.87260	         1.33202e+58
          1273.67890	         1.19061e+58
          1274.48520	         1.08583e+58
          1275.29150	         1.23231e+58
          1276.09780	         1.22969e+58
          1276.90410	         1.40713e+58
          1277.71040	         1.27610e+58
          1278.51670	         1.22366e+58
          1279.32300	         1.37581e+58
          1280.12930	         1.24732e+58
          1280.93560	         1.05489e+58
          1281.74190	         1.26498e+58
          1282.54820	         1.38274e+58
          1283.35450	         1.06428e+58
          1284.16080	         1.04040e+58
          1284.96710	         1.32235e+58
          1285.77340	         1.17054e+58
          1286.57970	         1.03784e+58
          1287.38600	         1.50156e+58
          1288.19230	         1.76129e+58
          1288.99860	         1.53528e+58
          1289.80490	         1.24162e+58
          1290.61120	         1.42485e+58
          1291.41750	         1.57078e+58
          1292.22380	         1.40917e+58
          1293.03010	         1.17699e+58
          1293.83640	         1.20059e+58
          1294.64270	         1.11776e+58
          1295.44900	         7.79460e+57
          1296.25530	         6.46208e+57
          1297.06160	         9.74481e+57
          1297.86790	         1.05767e+58
          1298.67420	         9.08985e+57
          1299.48050	         1.08244e+58
          1300.28680	         1.05841e+58
          1301.09310	         9.17636e+57
          1301.89940	         5.79899e+57
          1302.70570	         7.79507e+57
          1303.51200	         9.21696e+57
          1304.31830	         1.14963e+58
          1305.12460	         1.35708e+58
          1305.93090	         1.42337e+58
          1306.73720	         1.38555e+58
          1307.54350	         1.50760e+58
          1308.34980	         1.56086e+58
          1309.15610	         1.55652e+58
          1309.96240	         1.43572e+58
          1310.76870	         1.50815e+58
          1311.57500	         1.25655e+58
          1312.38130	         1.05733e+58
          1313.18760	         1.38930e+58
          1313.99390	         1.72146e+58
          1314.80020	         1.71184e+58
          1315.60650	         1.50890e+58
          1316.41280	         1.27080e+58
          1317.21910	         1.06543e+58
          1318.02540	         1.17924e+58
          1318.83170	         1.35679e+58
          1319.63800	         1.40147e+58
          1320.44430	         1.32894e+58
          1321.25060	         1.29667e+58
          1322.05690	         1.30177e+58
          1322.86320	         1.18314e+58
          1323.66950	         1.14691e+58
          1324.47580	         1.06097e+58
          1325.28210	         1.05105e+58
          1326.08840	         1.09333e+58
          1326.89470	         1.17128e+58
          1327.70100	         1.10726e+58
          1328.50730	         9.90957e+57
          1329.31360	         1.08655e+58
          1330.11990	         1.09168e+58
          1330.92620	         9.40635e+57
          1331.73250	         1.15872e+58
          1332.53880	         1.20601e+58
          1333.34510	         1.02116e+58
          1334.15140	         9.66305e+57
          1334.95770	         9.03511e+57
          1335.76400	         1.03057e+58
          1336.57030	         1.13396e+58
          1337.37660	         1.24927e+58
          1338.18290	         1.25659e+58
          1338.98920	         1.15556e+58
          1339.79550	         1.17030e+58
          1340.60180	         1.25511e+58
          1341.40810	         1.35985e+58
          1342.21440	         1.19747e+58
          1343.02070	         1.06944e+58
          1343.82700	         1.24624e+58
          1344.63330	         1.23698e+58
          1345.43960	         1.29213e+58
          1346.24590	         1.10799e+58
          1347.05220	         1.20449e+58
          1347.85850	         1.12393e+58
          1348.66480	         1.20952e+58
          1349.47110	         1.44150e+58
          1350.27740	         1.33093e+58
          1351.08370	         1.25517e+58
          1351.89000	         1.29030e+58
          1352.69630	         1.21926e+58
          1353.50260	         1.20827e+58
          1354.30890	         1.14442e+58
          1355.11520	         1.13983e+58
          1355.92150	         1.12909e+58
          1356.72780	         1.00547e+58
          1357.53410	         9.82828e+57
          1358.34040	         9.84215e+57
          1359.14670	         9.52778e+57
          1359.95300	         1.08190e+58
          1360.75930	         1.17877e+58
          1361.56560	         1.22018e+58
          1362.37190	         1.17297e+58
          1363.17820	         1.13899e+58
          1363.98450	         1.14175e+58
          1364.79080	         1.24791e+58
          1365.59710	         1.35079e+58
          1366.40340	         1.34867e+58
          1367.20970	         1.17880e+58
          1368.01600	         9.70205e+57
          1368.82230	         9.93026e+57
          1369.62860	         1.08630e+58
          1370.43490	         9.88338e+57
          1371.24120	         1.00774e+58
          1372.04750	         9.75187e+57
          1372.85380	         1.12863e+58
          1373.66010	         1.20894e+58
          1374.46640	         1.23977e+58
          1375.27270	         1.06491e+58
          1376.07900	         9.31726e+57
          1376.88530	         9.03770e+57
          1377.69160	         7.71275e+57
          1378.49790	         7.30324e+57
          1379.30420	         7.96706e+57
          1380.11050	         1.01856e+58
          1380.91680	         1.01604e+58
          1381.72310	         7.54201e+57
          1382.52940	         7.47640e+57
          1383.33570	         8.11831e+57
          1384.14200	         1.01297e+58
          1384.94830	         1.17967e+58
          1385.75460	         1.11020e+58
          1386.56090	         1.20205e+58
          1387.36720	         1.22341e+58
          1388.17350	         1.41024e+58
          1388.97980	         1.09220e+58
          1389.78610	         8.78756e+57
          1390.59240	         1.06463e+58
          1391.39870	         7.96074e+57
          1392.20500	         6.74137e+57
          1393.01130	         6.63915e+57
          1393.81760	         7.79291e+57
          1394.62390	         7.33495e+57
          1395.43020	         6.11341e+57
          1396.23650	         5.88508e+57
          1397.04280	         7.13231e+57
          1397.84910	         9.87276e+57
          1398.65540	         1.00318e+58
          1399.46170	         9.83754e+57
          1400.26800	         8.65790e+57
          1401.07430	         7.44093e+57
          1401.88060	         8.35754e+57
          1402.68690	         8.93548e+57
          1403.49320	         9.51439e+57
          1404.29950	         1.10740e+58
          1405.10580	         1.05420e+58
          1405.91210	         1.06493e+58
          1406.71840	         1.16997e+58
          1407.52470	         1.22023e+58
          1408.33100	         1.13308e+58
          1409.13730	         1.15513e+58
          1409.94360	         1.15427e+58
          1410.74990	         1.26128e+58
          1411.55620	         1.18501e+58
          1412.36250	         8.57807e+57
          1413.16880	         7.76453e+57
          1413.97510	         7.69985e+57
          1414.78140	         8.80802e+57
          1415.58770	         1.07828e+58
          1416.39400	         1.08991e+58
          1417.20030	         1.00028e+58
          1418.00660	         8.09856e+57
          1418.81290	         9.43638e+57
          1419.61920	         1.07356e+58
          1420.42550	         1.35134e+58
          1421.23180	         1.33000e+58
          1422.03810	         1.26385e+58
          1422.84440	         1.12684e+58
          1423.65070	         1.14590e+58
          1424.45700	         1.07550e+58
          1425.26330	         9.18572e+57
          1426.06960	         9.14870e+57
          1426.87590	         9.80411e+57
          1427.68220	         1.00896e+58
          1428.48850	         1.10680e+58
          1429.29480	         1.15010e+58
          1430.10110	         1.09016e+58
          1430.90740	         8.79098e+57
          1431.71370	         7.96987e+57
          1432.52000	         8.45596e+57
          1433.32630	         8.54818e+57
          1434.13260	         8.27865e+57
          1434.93890	         8.85301e+57
          1435.74520	         1.01940e+58
          1436.55150	         9.99208e+57
          1437.35780	         9.43984e+57
          1438.16410	         8.71013e+57
          1438.97040	         8.59933e+57
          1439.77670	         9.42780e+57
          1440.58300	         9.51361e+57
          1441.38930	         9.28968e+57
          1442.19560	         1.03479e+58
          1443.00190	         1.00965e+58
          1443.80820	         1.10828e+58
          1444.61450	         9.77641e+57
          1445.42080	         7.52184e+57
          1446.22710	         9.62134e+57
          1447.03340	         9.37854e+57
          1447.83970	         8.95188e+57
          1448.64600	         1.07799e+58
          1449.45230	         1.08535e+58
          1450.25860	         1.01188e+58
          1451.06490	         8.60048e+57
          1451.87120	         7.51004e+57
          1452.67750	         8.16541e+57
          1453.48380	         8.90164e+57
          1454.29010	         7.27019e+57
          1455.09640	         7.20407e+57
          1455.90270	         9.48203e+57
          1456.70900	         9.57077e+57
          1457.51530	         9.58680e+57
          1458.32160	         1.09259e+58
          1459.12790	         1.09499e+58
          1459.93420	         1.03660e+58
          1460.74050	         8.80692e+57
          1461.54680	         9.27481e+57
          1462.35310	         9.31625e+57
          1463.15940	         9.36749e+57
          1463.96570	         1.06162e+58
          1464.77200	         1.18069e+58
          1465.57830	         1.09185e+58
          1466.38460	         1.04292e+58
          1467.19090	         9.90052e+57
          1467.99720	         8.59448e+57
          1468.80350	         9.47319e+57
          1469.60980	         9.34300e+57
          1470.41610	         9.36806e+57
          1471.22240	         8.70016e+57
          1472.02870	         9.25588e+57
          1472.83500	         1.01011e+58
          1473.64130	         1.02193e+58
          1474.44760	         8.70423e+57
          1475.25390	         8.54914e+57
          1476.06020	         8.38837e+57
          1476.86650	         8.14154e+57
          1477.67280	         7.96360e+57
          1478.47910	         6.77329e+57
          1479.28540	         6.92355e+57
          1480.09170	         7.68101e+57
          1480.89800	         7.87599e+57
          1481.70430	         9.41002e+57
          1482.51060	         9.46305e+57
          1483.31690	         8.15263e+57
          1484.12320	         6.88000e+57
          1484.92950	         6.67705e+57
          1485.73580	         8.45738e+57
          1486.54210	         8.63775e+57
          1487.34840	         9.26363e+57
          1488.15470	         8.96437e+57
          1488.96100	         9.39499e+57
          1489.76730	         1.04927e+58
