#sample_188_stacked_spectrum_rest_UV-bands_median_H-alpha_noDC.txt
#median Lum: 1.69164e+42
#Rest-frame wavelength (A) | Luminosity (erg/s/A)
#
          1110.00000	         0.00000e+00
          1110.80630	        -3.56785e+59
          1111.61260	        -1.29581e+56
          1112.41890	         2.58274e+59
          1113.22520	         3.53765e+59
          1114.03150	         1.35415e+59
          1114.83780	        -1.28719e+58
          1115.64410	         1.23664e+58
          1116.45040	         2.27896e+59
          1117.25670	        -6.45315e+58
          1118.06300	         9.43013e+58
          1118.86930	        -9.22574e+58
          1119.67560	         5.47923e+58
          1120.48190	         2.92767e+58
          1121.28820	        -6.60033e+58
          1122.09450	        -4.65474e+57
          1122.90080	         3.68914e+58
          1123.70710	         5.12382e+58
          1124.51340	         3.99559e+58
          1125.31970	        -2.83245e+58
          1126.12600	        -6.62234e+58
          1126.93230	        -7.95276e+58
          1127.73860	        -1.00206e+59
          1128.54490	        -3.56731e+58
          1129.35120	        -1.92107e+58
          1130.15750	         1.52466e+58
          1130.96380	        -1.06437e+57
          1131.77010	         6.71923e+58
          1132.57640	        -1.30348e+58
          1133.38270	         2.61923e+58
          1134.18900	         3.19259e+58
          1134.99530	         4.43362e+58
          1135.80160	         2.25652e+58
          1136.60790	         1.85730e+58
          1137.41420	        -7.34815e+57
          1138.22050	         3.13230e+58
          1139.02680	         1.66221e+58
          1139.83310	         2.51192e+58
          1140.63940	         2.35086e+58
          1141.44570	         2.15317e+58
          1142.25200	        -8.18760e+57
          1143.05830	         2.34732e+57
          1143.86460	         1.62706e+58
          1144.67090	         3.13885e+58
          1145.47720	         4.75305e+57
          1146.28350	         3.47311e+58
          1147.08980	         2.09442e+58
          1147.89610	         2.23564e+58
          1148.70240	         3.49639e+58
          1149.50870	         2.96792e+58
          1150.31500	         1.36701e+58
          1151.12130	         9.98110e+57
          1151.92760	         1.88660e+57
          1152.73390	         7.05416e+57
          1153.54020	         3.62243e+57
          1154.34650	         2.12624e+58
          1155.15280	         2.62036e+58
          1155.95910	         6.41209e+57
          1156.76540	         1.60448e+57
          1157.57170	        -5.20498e+57
          1158.37800	        -7.64586e+57
          1159.18430	        -1.46202e+57
          1159.99060	         1.52257e+58
          1160.79690	         5.36018e+57
          1161.60320	         1.94475e+58
          1162.40950	         1.63583e+58
          1163.21580	         1.91308e+58
          1164.02210	         1.59466e+58
          1164.82840	         7.19613e+56
          1165.63470	         9.16497e+57
          1166.44100	         2.77442e+58
          1167.24730	         2.57157e+58
          1168.05360	         9.94874e+57
          1168.85990	         1.15923e+58
          1169.66620	         1.37401e+58
          1170.47250	         9.67393e+57
          1171.27880	        -6.06838e+56
          1172.08510	         6.77389e+57
          1172.89140	         1.03804e+58
          1173.69770	         9.83469e+57
          1174.50400	         1.00316e+58
          1175.31030	         1.67855e+58
          1176.11660	         1.98967e+58
          1176.92290	         1.50600e+58
          1177.72920	         1.24296e+58
          1178.53550	         9.92134e+57
          1179.34180	         5.48375e+57
          1180.14810	         8.62708e+57
          1180.95440	         8.18775e+57
          1181.76070	         3.23499e+57
          1182.56700	         9.48055e+57
          1183.37330	         6.74748e+57
          1184.17960	         1.27055e+58
          1184.98590	         1.01523e+58
          1185.79220	         2.62891e+57
          1186.59850	         1.19765e+58
          1187.40480	         1.40811e+58
          1188.21110	         1.39970e+58
          1189.01740	         1.57268e+58
          1189.82370	         1.18194e+58
          1190.63000	         1.42064e+58
          1191.43630	         1.35699e+58
          1192.24260	         6.71031e+57
          1193.04890	         9.98526e+57
          1193.85520	         1.06294e+58
          1194.66150	         7.66859e+57
          1195.46780	         1.35814e+58
          1196.27410	         1.39529e+58
          1197.08040	         1.18363e+58
          1197.88670	         1.61589e+58
          1198.69300	         1.46439e+58
          1199.49930	         1.42479e+58
          1200.30560	         1.12071e+58
          1201.11190	         9.83622e+57
          1201.91820	         1.01880e+58
          1202.72450	         6.83529e+57
          1203.53080	         1.33540e+58
          1204.33710	         1.01165e+58
          1205.14340	         9.07441e+57
          1205.94970	         7.16772e+57
          1206.75600	         7.86773e+57
          1207.56230	         5.97149e+57
          1208.36860	         8.72394e+57
          1209.17490	         4.39964e+57
          1209.98120	         5.50315e+57
          1210.78750	         1.08039e+58
          1211.59380	         1.31449e+58
          1212.40010	         2.13838e+58
          1213.20640	         2.21003e+58
          1214.01270	         2.23650e+58
          1214.81900	         2.51752e+58
          1215.62530	         4.38275e+58
          1216.43160	         9.19090e+58
          1217.23790	         1.52754e+59
          1218.04420	         1.11599e+59
          1218.85050	         8.79618e+58
          1219.65680	         5.78941e+58
          1220.46310	         3.26869e+58
          1221.26940	         2.18632e+58
          1222.07570	         1.48740e+58
          1222.88200	         9.05390e+57
          1223.68830	         6.78924e+57
          1224.49460	         5.84980e+57
          1225.30090	         8.01143e+57
          1226.10720	         7.83399e+57
          1226.91350	         6.45919e+57
          1227.71980	         1.04634e+58
          1228.52610	         1.07717e+58
          1229.33240	         7.65383e+57
          1230.13870	         5.52913e+57
          1230.94500	         5.31489e+57
          1231.75130	         5.38740e+57
          1232.55760	         7.98078e+57
          1233.36390	         1.08336e+58
          1234.17020	         1.05356e+58
          1234.97650	         1.20061e+58
          1235.78280	         1.01512e+58
          1236.58910	         9.38192e+57
          1237.39540	         1.21718e+58
          1238.20170	         1.17416e+58
          1239.00800	         1.08042e+58
          1239.81430	         1.31321e+58
          1240.62060	         1.08412e+58
          1241.42690	         9.43764e+57
          1242.23320	         1.29707e+58
          1243.03950	         1.00307e+58
          1243.84580	         8.47575e+57
          1244.65210	         1.04631e+58
          1245.45840	         9.66768e+57
          1246.26470	         8.19141e+57
          1247.07100	         8.07586e+57
          1247.87730	         3.20432e+57
          1248.68360	         1.00212e+57
          1249.48990	         8.89068e+57
          1250.29620	         1.08472e+58
          1251.10250	         9.69856e+57
          1251.90880	         7.35392e+57
          1252.71510	         7.62857e+57
          1253.52140	         5.73145e+57
          1254.32770	         8.18349e+57
          1255.13400	         1.16531e+58
          1255.94030	         1.01909e+58
          1256.74660	         8.60822e+57
          1257.55290	         1.15752e+58
          1258.35920	         9.11484e+57
          1259.16550	         4.65482e+57
          1259.97180	         6.28693e+57
          1260.77810	         9.89363e+57
          1261.58440	         1.03919e+58
          1262.39070	         7.23445e+57
          1263.19700	         7.61411e+57
          1264.00330	         7.71099e+57
          1264.80960	         1.04969e+58
          1265.61590	         1.28071e+58
          1266.42220	         1.08010e+58
          1267.22850	         1.15797e+58
          1268.03480	         1.51767e+58
          1268.84110	         1.30594e+58
          1269.64740	         1.21157e+58
          1270.45370	         1.34154e+58
          1271.26000	         1.27991e+58
          1272.06630	         1.20782e+58
          1272.87260	         1.15901e+58
          1273.67890	         1.31383e+58
          1274.48520	         1.35694e+58
          1275.29150	         1.36593e+58
          1276.09780	         1.30147e+58
          1276.90410	         1.42198e+58
          1277.71040	         1.37368e+58
          1278.51670	         1.34586e+58
          1279.32300	         1.47122e+58
          1280.12930	         1.26471e+58
          1280.93560	         1.19349e+58
          1281.74190	         1.15484e+58
          1282.54820	         1.13930e+58
          1283.35450	         1.13740e+58
          1284.16080	         1.18423e+58
          1284.96710	         1.14277e+58
          1285.77340	         1.17391e+58
          1286.57970	         1.11993e+58
          1287.38600	         1.15472e+58
          1288.19230	         1.34728e+58
          1288.99860	         1.34301e+58
          1289.80490	         9.79795e+57
          1290.61120	         1.23492e+58
          1291.41750	         1.38234e+58
          1292.22380	         1.08819e+58
          1293.03010	         1.07319e+58
          1293.83640	         1.27509e+58
          1294.64270	         1.11984e+58
          1295.44900	         7.07975e+57
          1296.25530	         6.32453e+57
          1297.06160	         7.20618e+57
          1297.86790	         8.09758e+57
          1298.67420	         8.16212e+57
          1299.48050	         7.15165e+57
          1300.28680	         9.67980e+57
          1301.09310	         9.31166e+57
          1301.89940	         4.12738e+57
          1302.70570	         6.59414e+57
          1303.51200	         5.90378e+57
          1304.31830	         7.86251e+57
          1305.12460	         1.13159e+58
          1305.93090	         1.21944e+58
          1306.73720	         1.17074e+58
          1307.54350	         1.40133e+58
          1308.34980	         1.58600e+58
          1309.15610	         1.48435e+58
          1309.96240	         1.43554e+58
          1310.76870	         1.31423e+58
          1311.57500	         1.14738e+58
          1312.38130	         1.18873e+58
          1313.18760	         1.36252e+58
          1313.99390	         1.57654e+58
          1314.80020	         1.74935e+58
          1315.60650	         1.58496e+58
          1316.41280	         1.34741e+58
          1317.21910	         1.37716e+58
          1318.02540	         1.22223e+58
          1318.83170	         1.19708e+58
          1319.63800	         1.19260e+58
          1320.44430	         1.17803e+58
          1321.25060	         1.30376e+58
          1322.05690	         1.27849e+58
          1322.86320	         1.10197e+58
          1323.66950	         1.01958e+58
          1324.47580	         9.34033e+57
          1325.28210	         9.68073e+57
          1326.08840	         1.15053e+58
          1326.89470	         1.34976e+58
          1327.70100	         1.03898e+58
          1328.50730	         7.67383e+57
          1329.31360	         8.84004e+57
          1330.11990	         9.92625e+57
          1330.92620	         9.47595e+57
          1331.73250	         9.83138e+57
          1332.53880	         9.46576e+57
          1333.34510	         9.01346e+57
          1334.15140	         9.15181e+57
          1334.95770	         8.23970e+57
          1335.76400	         9.57344e+57
          1336.57030	         1.19441e+58
          1337.37660	         1.09881e+58
          1338.18290	         1.06879e+58
          1338.98920	         1.21883e+58
          1339.79550	         1.22412e+58
          1340.60180	         1.22240e+58
          1341.40810	         1.33146e+58
          1342.21440	         1.27925e+58
          1343.02070	         1.24530e+58
          1343.82700	         1.31137e+58
          1344.63330	         1.38820e+58
          1345.43960	         1.35766e+58
          1346.24590	         1.15681e+58
          1347.05220	         1.20666e+58
          1347.85850	         8.96412e+57
          1348.66480	         1.00007e+58
          1349.47110	         1.16827e+58
          1350.27740	         1.07928e+58
          1351.08370	         1.13905e+58
          1351.89000	         1.19568e+58
          1352.69630	         1.22169e+58
          1353.50260	         1.20031e+58
          1354.30890	         1.09925e+58
          1355.11520	         1.14336e+58
          1355.92150	         1.17871e+58
          1356.72780	         1.11005e+58
          1357.53410	         1.03494e+58
          1358.34040	         1.02920e+58
          1359.14670	         9.59570e+57
          1359.95300	         1.08672e+58
          1360.75930	         1.16073e+58
          1361.56560	         1.02460e+58
          1362.37190	         1.07438e+58
          1363.17820	         1.22159e+58
          1363.98450	         1.08535e+58
          1364.79080	         1.22547e+58
          1365.59710	         1.30676e+58
          1366.40340	         1.18609e+58
          1367.20970	         9.55377e+57
          1368.01600	         8.53833e+57
          1368.82230	         7.34455e+57
          1369.62860	         9.55241e+57
          1370.43490	         9.77117e+57
          1371.24120	         8.49957e+57
          1372.04750	         6.10114e+57
          1372.85380	         9.91369e+57
          1373.66010	         1.10636e+58
          1374.46640	         9.48776e+57
          1375.27270	         1.14610e+58
          1376.07900	         1.00692e+58
          1376.88530	         9.67832e+57
          1377.69160	         9.79244e+57
          1378.49790	         7.13830e+57
          1379.30420	         7.22942e+57
          1380.11050	         1.06559e+58
          1380.91680	         1.04024e+58
          1381.72310	         8.37854e+57
          1382.52940	         8.15823e+57
          1383.33570	         9.06327e+57
          1384.14200	         9.55818e+57
          1384.94830	         9.84042e+57
          1385.75460	         9.63924e+57
          1386.56090	         1.02407e+58
          1387.36720	         1.07457e+58
          1388.17350	         1.35333e+58
          1388.97980	         1.16660e+58
          1389.78610	         8.62801e+57
          1390.59240	         8.41254e+57
          1391.39870	         6.79069e+57
          1392.20500	         8.33235e+57
          1393.01130	         8.20608e+57
          1393.81760	         6.59619e+57
          1394.62390	         8.22477e+57
          1395.43020	         6.83765e+57
          1396.23650	         6.01039e+57
          1397.04280	         7.89404e+57
          1397.84910	         8.95602e+57
          1398.65540	         8.62928e+57
          1399.46170	         9.58071e+57
          1400.26800	         8.55267e+57
          1401.07430	         8.15857e+57
          1401.88060	         8.48117e+57
          1402.68690	         8.64801e+57
          1403.49320	         8.17238e+57
          1404.29950	         7.57960e+57
          1405.10580	         1.00176e+58
          1405.91210	         1.08532e+58
          1406.71840	         1.00930e+58
          1407.52470	         1.13974e+58
          1408.33100	         1.09327e+58
          1409.13730	         1.17399e+58
          1409.94360	         1.30871e+58
          1410.74990	         1.11841e+58
          1411.55620	         8.50235e+57
          1412.36250	         8.15325e+57
          1413.16880	         7.35818e+57
          1413.97510	         6.66093e+57
          1414.78140	         8.41901e+57
          1415.58770	         1.04755e+58
          1416.39400	         1.11849e+58
          1417.20030	         1.18098e+58
          1418.00660	         1.10601e+58
          1418.81290	         9.96787e+57
          1419.61920	         1.09076e+58
          1420.42550	         1.24288e+58
          1421.23180	         1.29777e+58
          1422.03810	         1.16499e+58
          1422.84440	         9.71433e+57
          1423.65070	         1.21990e+58
          1424.45700	         1.04797e+58
          1425.26330	         8.24613e+57
          1426.06960	         7.84607e+57
          1426.87590	         9.81351e+57
          1427.68220	         1.08196e+58
          1428.48850	         1.15201e+58
          1429.29480	         1.12681e+58
          1430.10110	         9.86556e+57
          1430.90740	         9.06375e+57
          1431.71370	         8.87280e+57
          1432.52000	         7.09096e+57
          1433.32630	         7.65352e+57
          1434.13260	         8.59562e+57
          1434.93890	         8.36294e+57
          1435.74520	         8.49476e+57
          1436.55150	         8.71977e+57
          1437.35780	         8.77946e+57
          1438.16410	         9.55416e+57
          1438.97040	         9.31176e+57
          1439.77670	         9.33082e+57
          1440.58300	         9.71684e+57
          1441.38930	         9.22191e+57
          1442.19560	         8.89449e+57
          1443.00190	         1.03223e+58
          1443.80820	         1.10924e+58
          1444.61450	         9.38534e+57
          1445.42080	         8.76280e+57
          1446.22710	         1.09995e+58
          1447.03340	         1.04019e+58
          1447.83970	         1.10325e+58
          1448.64600	         1.05780e+58
          1449.45230	         9.85464e+57
          1450.25860	         1.02527e+58
          1451.06490	         8.50349e+57
          1451.87120	         7.43380e+57
          1452.67750	         7.00602e+57
          1453.48380	         9.03401e+57
          1454.29010	         8.93531e+57
          1455.09640	         7.77886e+57
          1455.90270	         8.94660e+57
          1456.70900	         9.15371e+57
          1457.51530	         1.01186e+58
          1458.32160	         1.07227e+58
          1459.12790	         1.01085e+58
          1459.93420	         1.02740e+58
          1460.74050	         9.17638e+57
          1461.54680	         8.16862e+57
          1462.35310	         9.21746e+57
          1463.15940	         1.19762e+58
          1463.96570	         1.22365e+58
          1464.77200	         1.14225e+58
          1465.57830	         1.10780e+58
          1466.38460	         1.02000e+58
          1467.19090	         9.12144e+57
          1467.99720	         9.27253e+57
          1468.80350	         9.55771e+57
          1469.60980	         9.80958e+57
          1470.41610	         1.06393e+58
          1471.22240	         9.55740e+57
          1472.02870	         9.58380e+57
          1472.83500	         1.11206e+58
          1473.64130	         1.14352e+58
          1474.44760	         9.02921e+57
          1475.25390	         8.19551e+57
          1476.06020	         8.33693e+57
          1476.86650	         7.76092e+57
          1477.67280	         7.80695e+57
          1478.47910	         7.49434e+57
          1479.28540	         8.41316e+57
          1480.09170	         9.58758e+57
          1480.89800	         8.59039e+57
          1481.70430	         7.92035e+57
          1482.51060	         8.88845e+57
          1483.31690	         8.24860e+57
          1484.12320	         7.93313e+57
          1484.92950	         8.56924e+57
          1485.73580	         8.47708e+57
          1486.54210	         8.62114e+57
          1487.34840	         9.30839e+57
          1488.15470	         8.62592e+57
          1488.96100	         7.90876e+57
          1489.76730	         9.13601e+57
