#sample_146_stacked_spectrum_rest_UV-bands_median_H-alpha_noDC.txt
#median Lum: 1.73392e+42
#Rest-frame wavelength (A) | Luminosity (erg/s/A)
#
          1110.00000	         0.00000e+00
          1110.80630	         3.02612e+59
          1111.61260	        -3.23854e+58
          1112.41890	        -8.65823e+58
          1113.22520	        -3.74022e+58
          1114.03150	        -6.57868e+58
          1114.83780	         2.50925e+59
          1115.64410	        -1.36694e+57
          1116.45040	        -1.40107e+58
          1117.25670	         3.04547e+58
          1118.06300	         2.22859e+59
          1118.86930	        -9.17795e+57
          1119.67560	         1.46626e+59
          1120.48190	        -5.58501e+57
          1121.28820	        -1.19711e+59
          1122.09450	        -1.00215e+59
          1122.90080	         5.94669e+57
          1123.70710	         8.71410e+58
          1124.51340	         1.22027e+59
          1125.31970	         4.55961e+58
          1126.12600	         3.06880e+58
          1126.93230	         1.98293e+56
          1127.73860	        -5.34655e+58
          1128.54490	        -1.05814e+58
          1129.35120	         2.29652e+58
          1130.15750	        -4.17451e+58
          1130.96380	        -6.01980e+58
          1131.77010	         6.12935e+58
          1132.57640	        -1.38881e+58
          1133.38270	         2.93934e+58
          1134.18900	         4.86931e+58
          1134.99530	         3.70918e+58
          1135.80160	         2.58156e+58
          1136.60790	         1.37736e+57
          1137.41420	        -6.69659e+57
          1138.22050	         4.76777e+58
          1139.02680	         4.24777e+58
          1139.83310	         2.94785e+58
          1140.63940	         1.88559e+58
          1141.44570	         2.89568e+57
          1142.25200	         1.57691e+58
          1143.05830	        -4.46700e+57
          1143.86460	         1.16749e+58
          1144.67090	         3.46438e+58
          1145.47720	         1.46330e+58
          1146.28350	         5.27243e+57
          1147.08980	         1.37949e+58
          1147.89610	         1.54454e+58
          1148.70240	         1.70839e+58
          1149.50870	         2.63626e+58
          1150.31500	         2.59001e+58
          1151.12130	         1.08335e+58
          1151.92760	         4.73114e+57
          1152.73390	        -7.08035e+56
          1153.54020	         7.18244e+57
          1154.34650	         2.82108e+58
          1155.15280	         1.88636e+58
          1155.95910	         1.06308e+58
          1156.76540	         6.89261e+57
          1157.57170	        -1.36486e+57
          1158.37800	         2.49202e+57
          1159.18430	        -3.39021e+57
          1159.99060	        -2.62066e+57
          1160.79690	        -1.22071e+57
          1161.60320	         1.54789e+58
          1162.40950	         1.54200e+58
          1163.21580	         1.93821e+58
          1164.02210	         6.12011e+57
          1164.82840	         7.38601e+57
          1165.63470	         1.93842e+58
          1166.44100	         2.63505e+58
          1167.24730	         1.37762e+58
          1168.05360	         8.95302e+57
          1168.85990	         7.67102e+57
          1169.66620	         9.44956e+57
          1170.47250	         7.28251e+57
          1171.27880	         7.81680e+57
          1172.08510	         1.17442e+58
          1172.89140	         3.30619e+57
          1173.69770	         7.44378e+57
          1174.50400	         6.80965e+57
          1175.31030	         1.16946e+58
          1176.11660	         1.97992e+58
          1176.92290	         1.59811e+58
          1177.72920	         1.04099e+58
          1178.53550	         1.22314e+58
          1179.34180	         5.57595e+57
          1180.14810	         1.10002e+58
          1180.95440	         1.40658e+58
          1181.76070	         1.10314e+58
          1182.56700	         8.23910e+57
          1183.37330	         4.99246e+57
          1184.17960	         1.02430e+58
          1184.98590	         1.27356e+58
          1185.79220	         4.95642e+57
          1186.59850	         9.39239e+57
          1187.40480	         1.48267e+58
          1188.21110	         1.61156e+58
          1189.01740	         1.09784e+58
          1189.82370	         8.33300e+57
          1190.63000	         8.67088e+57
          1191.43630	         1.51961e+58
          1192.24260	         1.20794e+58
          1193.04890	         1.14645e+58
          1193.85520	         1.36464e+58
          1194.66150	         1.19671e+57
          1195.46780	         7.86324e+57
          1196.27410	         1.91663e+58
          1197.08040	         1.24207e+58
          1197.88670	         1.09951e+58
          1198.69300	         1.41638e+58
          1199.49930	         1.52998e+58
          1200.30560	         7.11825e+57
          1201.11190	         1.04583e+58
          1201.91820	         8.22910e+57
          1202.72450	         4.81257e+57
          1203.53080	         1.39829e+58
          1204.33710	         6.55198e+57
          1205.14340	         4.13839e+57
          1205.94970	         8.28282e+57
          1206.75600	         9.46165e+57
          1207.56230	         6.57829e+57
          1208.36860	         6.10618e+57
          1209.17490	         4.02566e+57
          1209.98120	         7.88568e+57
          1210.78750	         1.36299e+58
          1211.59380	         1.35338e+58
          1212.40010	         1.59591e+58
          1213.20640	         2.24693e+58
          1214.01270	         2.12530e+58
          1214.81900	         2.76881e+58
          1215.62530	         4.63209e+58
          1216.43160	         9.08058e+58
          1217.23790	         1.49790e+59
          1218.04420	         1.16084e+59
          1218.85050	         8.79228e+58
          1219.65680	         5.83554e+58
          1220.46310	         3.42885e+58
          1221.26940	         2.02728e+58
          1222.07570	         1.05925e+58
          1222.88200	         7.17590e+57
          1223.68830	         6.67982e+57
          1224.49460	         7.49408e+57
          1225.30090	         7.86577e+57
          1226.10720	         6.06772e+57
          1226.91350	         6.68822e+57
          1227.71980	         1.00989e+58
          1228.52610	         1.12348e+58
          1229.33240	         9.07726e+57
          1230.13870	         1.04150e+58
          1230.94500	         1.04411e+58
          1231.75130	         6.93496e+57
          1232.55760	         7.71792e+57
          1233.36390	         6.16582e+57
          1234.17020	         9.60277e+57
          1234.97650	         1.08388e+58
          1235.78280	         1.02174e+58
          1236.58910	         8.48276e+57
          1237.39540	         9.31546e+57
          1238.20170	         1.14685e+58
          1239.00800	         1.18971e+58
          1239.81430	         1.39073e+58
          1240.62060	         1.24386e+58
          1241.42690	         1.12801e+58
          1242.23320	         9.91823e+57
          1243.03950	         7.12855e+57
          1243.84580	         8.55609e+57
          1244.65210	         8.00899e+57
          1245.45840	         7.37923e+57
          1246.26470	         9.30470e+57
          1247.07100	         5.59931e+57
          1247.87730	         5.23315e+57
          1248.68360	         4.70234e+57
          1249.48990	         8.41802e+57
          1250.29620	         6.96974e+57
          1251.10250	         5.99647e+57
          1251.90880	         6.40371e+57
          1252.71510	         5.60808e+57
          1253.52140	         6.57913e+57
          1254.32770	         1.02492e+58
          1255.13400	         1.26412e+58
          1255.94030	         1.32425e+58
          1256.74660	         1.18137e+58
          1257.55290	         1.10283e+58
          1258.35920	         8.36597e+57
          1259.16550	         7.04718e+57
          1259.97180	         6.28472e+57
          1260.77810	         9.12016e+57
          1261.58440	         1.30952e+58
          1262.39070	         8.90757e+57
          1263.19700	         8.11915e+57
          1264.00330	         8.36813e+57
          1264.80960	         9.59578e+57
          1265.61590	         1.22594e+58
          1266.42220	         1.26528e+58
          1267.22850	         1.07823e+58
          1268.03480	         1.25884e+58
          1268.84110	         1.51932e+58
          1269.64740	         1.41105e+58
          1270.45370	         1.21735e+58
          1271.26000	         1.00659e+58
          1272.06630	         1.12170e+58
          1272.87260	         1.35056e+58
          1273.67890	         1.45612e+58
          1274.48520	         1.19602e+58
          1275.29150	         1.28048e+58
          1276.09780	         1.39991e+58
          1276.90410	         1.50166e+58
          1277.71040	         1.12385e+58
          1278.51670	         1.12855e+58
          1279.32300	         1.26393e+58
          1280.12930	         1.19559e+58
          1280.93560	         1.02255e+58
          1281.74190	         1.13450e+58
          1282.54820	         1.29773e+58
          1283.35450	         1.10566e+58
          1284.16080	         1.30169e+58
          1284.96710	         1.53976e+58
          1285.77340	         1.18865e+58
          1286.57970	         9.95067e+57
          1287.38600	         1.50747e+58
          1288.19230	         1.76638e+58
          1288.99860	         1.58017e+58
          1289.80490	         1.28224e+58
          1290.61120	         1.52203e+58
          1291.41750	         1.61627e+58
          1292.22380	         1.34655e+58
          1293.03010	         1.29292e+58
          1293.83640	         1.21660e+58
          1294.64270	         8.18085e+57
          1295.44900	         5.75393e+57
          1296.25530	         9.33848e+57
          1297.06160	         1.09809e+58
          1297.86790	         1.08534e+58
          1298.67420	         1.00512e+58
          1299.48050	         1.05591e+58
          1300.28680	         1.05800e+58
          1301.09310	         8.37998e+57
          1301.89940	         4.32742e+57
          1302.70570	         6.43961e+57
          1303.51200	         7.67114e+57
          1304.31830	         1.00814e+58
          1305.12460	         1.02869e+58
          1305.93090	         1.03533e+58
          1306.73720	         1.13467e+58
          1307.54350	         1.25316e+58
          1308.34980	         1.42532e+58
          1309.15610	         1.50730e+58
          1309.96240	         1.50740e+58
          1310.76870	         1.30387e+58
          1311.57500	         1.17973e+58
          1312.38130	         1.10554e+58
          1313.18760	         1.06230e+58
          1313.99390	         1.42990e+58
          1314.80020	         1.83418e+58
          1315.60650	         1.78677e+58
          1316.41280	         1.36013e+58
          1317.21910	         1.09524e+58
          1318.02540	         1.21417e+58
          1318.83170	         1.44999e+58
          1319.63800	         1.24124e+58
          1320.44430	         1.30708e+58
          1321.25060	         1.46895e+58
          1322.05690	         1.40621e+58
          1322.86320	         1.24151e+58
          1323.66950	         1.07811e+58
          1324.47580	         8.76718e+57
          1325.28210	         1.00043e+58
          1326.08840	         1.17505e+58
          1326.89470	         1.36533e+58
          1327.70100	         1.17442e+58
          1328.50730	         7.80201e+57
          1329.31360	         8.33351e+57
          1330.11990	         9.11480e+57
          1330.92620	         8.52319e+57
          1331.73250	         1.05518e+58
          1332.53880	         9.84228e+57
          1333.34510	         8.06179e+57
          1334.15140	         9.23425e+57
          1334.95770	         8.97300e+57
          1335.76400	         9.09955e+57
          1336.57030	         9.17155e+57
          1337.37660	         9.06957e+57
          1338.18290	         1.00755e+58
          1338.98920	         1.10850e+58
          1339.79550	         1.12538e+58
          1340.60180	         1.23591e+58
          1341.40810	         1.39384e+58
          1342.21440	         1.21754e+58
          1343.02070	         1.17496e+58
          1343.82700	         1.46048e+58
          1344.63330	         1.37191e+58
          1345.43960	         1.34461e+58
          1346.24590	         1.20771e+58
          1347.05220	         1.27082e+58
          1347.85850	         1.03688e+58
          1348.66480	         1.05201e+58
          1349.47110	         1.17997e+58
          1350.27740	         1.07852e+58
          1351.08370	         1.22776e+58
          1351.89000	         1.21965e+58
          1352.69630	         1.31007e+58
          1353.50260	         1.25366e+58
          1354.30890	         1.27881e+58
          1355.11520	         1.20784e+58
          1355.92150	         1.13763e+58
          1356.72780	         1.07236e+58
          1357.53410	         1.05397e+58
          1358.34040	         1.15600e+58
          1359.14670	         1.00222e+58
          1359.95300	         1.05487e+58
          1360.75930	         1.16027e+58
          1361.56560	         1.14732e+58
          1362.37190	         1.19560e+58
          1363.17820	         1.16263e+58
          1363.98450	         1.27763e+58
          1364.79080	         1.44600e+58
          1365.59710	         1.40716e+58
          1366.40340	         1.29130e+58
          1367.20970	         1.13759e+58
          1368.01600	         1.13992e+58
          1368.82230	         9.65388e+57
          1369.62860	         8.16120e+57
          1370.43490	         7.26139e+57
          1371.24120	         8.15931e+57
          1372.04750	         7.03727e+57
          1372.85380	         1.02472e+58
          1373.66010	         1.15860e+58
          1374.46640	         1.15320e+58
          1375.27270	         1.00111e+58
          1376.07900	         8.72771e+57
          1376.88530	         8.07879e+57
          1377.69160	         8.02731e+57
          1378.49790	         6.62030e+57
          1379.30420	         6.51769e+57
          1380.11050	         8.66071e+57
          1380.91680	         8.47300e+57
          1381.72310	         7.80209e+57
          1382.52940	         8.64748e+57
          1383.33570	         8.61990e+57
          1384.14200	         8.79767e+57
          1384.94830	         1.14108e+58
          1385.75460	         1.25143e+58
          1386.56090	         1.11016e+58
          1387.36720	         1.07895e+58
          1388.17350	         1.15119e+58
          1388.97980	         1.08950e+58
          1389.78610	         8.88493e+57
          1390.59240	         8.74106e+57
          1391.39870	         8.73600e+57
          1392.20500	         9.09522e+57
          1393.01130	         8.55429e+57
          1393.81760	         7.24860e+57
          1394.62390	         6.75751e+57
          1395.43020	         5.87795e+57
          1396.23650	         6.45109e+57
          1397.04280	         7.32587e+57
          1397.84910	         9.50997e+57
          1398.65540	         9.32404e+57
          1399.46170	         9.50741e+57
          1400.26800	         9.20621e+57
          1401.07430	         7.04437e+57
          1401.88060	         6.43973e+57
          1402.68690	         8.83147e+57
          1403.49320	         9.92454e+57
          1404.29950	         9.15203e+57
          1405.10580	         1.07924e+58
          1405.91210	         1.16168e+58
          1406.71840	         1.09591e+58
          1407.52470	         9.62435e+57
          1408.33100	         9.37172e+57
          1409.13730	         1.14953e+58
          1409.94360	         1.26300e+58
          1410.74990	         1.20563e+58
          1411.55620	         1.00625e+58
          1412.36250	         9.05375e+57
          1413.16880	         9.93845e+57
          1413.97510	         8.77395e+57
          1414.78140	         8.44908e+57
          1415.58770	         1.13050e+58
          1416.39400	         1.12678e+58
          1417.20030	         1.10510e+58
          1418.00660	         1.08154e+58
          1418.81290	         1.19429e+58
          1419.61920	         1.14791e+58
          1420.42550	         1.13124e+58
          1421.23180	         1.32989e+58
          1422.03810	         1.24685e+58
          1422.84440	         1.16993e+58
          1423.65070	         1.18143e+58
          1424.45700	         1.08383e+58
          1425.26330	         8.90974e+57
          1426.06960	         8.96867e+57
          1426.87590	         1.02634e+58
          1427.68220	         9.42614e+57
          1428.48850	         1.05723e+58
          1429.29480	         1.10328e+58
          1430.10110	         1.02264e+58
          1430.90740	         9.09501e+57
          1431.71370	         9.54059e+57
          1432.52000	         9.39731e+57
          1433.32630	         8.57125e+57
          1434.13260	         7.57191e+57
          1434.93890	         8.32731e+57
          1435.74520	         9.90979e+57
          1436.55150	         9.99725e+57
          1437.35780	         9.99358e+57
          1438.16410	         9.27537e+57
          1438.97040	         9.37006e+57
          1439.77670	         8.71363e+57
          1440.58300	         8.78991e+57
          1441.38930	         8.78156e+57
          1442.19560	         1.00104e+58
          1443.00190	         1.01505e+58
          1443.80820	         1.07818e+58
          1444.61450	         9.30476e+57
          1445.42080	         8.34516e+57
          1446.22710	         1.00384e+58
          1447.03340	         9.83174e+57
          1447.83970	         1.07487e+58
          1448.64600	         1.02532e+58
          1449.45230	         9.37891e+57
          1450.25860	         1.01374e+58
          1451.06490	         8.65902e+57
          1451.87120	         7.09265e+57
          1452.67750	         7.47143e+57
          1453.48380	         9.01655e+57
          1454.29010	         9.21319e+57
          1455.09640	         7.84797e+57
          1455.90270	         9.78982e+57
          1456.70900	         9.21070e+57
          1457.51530	         8.62000e+57
          1458.32160	         1.25253e+58
          1459.12790	         1.26637e+58
          1459.93420	         1.06515e+58
          1460.74050	         8.78911e+57
          1461.54680	         7.59706e+57
          1462.35310	         6.44041e+57
          1463.15940	         9.65445e+57
          1463.96570	         1.23857e+58
          1464.77200	         1.18347e+58
          1465.57830	         1.08026e+58
          1466.38460	         1.08510e+58
          1467.19090	         9.55194e+57
          1467.99720	         8.83308e+57
          1468.80350	         9.39000e+57
          1469.60980	         1.05721e+58
          1470.41610	         1.11474e+58
          1471.22240	         1.01257e+58
          1472.02870	         1.02021e+58
          1472.83500	         1.07096e+58
          1473.64130	         9.69928e+57
          1474.44760	         7.90415e+57
          1475.25390	         7.13031e+57
          1476.06020	         8.36102e+57
          1476.86650	         1.06023e+58
          1477.67280	         9.70891e+57
          1478.47910	         7.44823e+57
          1479.28540	         7.32166e+57
          1480.09170	         7.77539e+57
          1480.89800	         8.75421e+57
          1481.70430	         8.15890e+57
          1482.51060	         7.36571e+57
          1483.31690	         8.81649e+57
          1484.12320	         8.92020e+57
          1484.92950	         7.99329e+57
          1485.73580	         9.06209e+57
          1486.54210	         9.54458e+57
          1487.34840	         8.81882e+57
          1488.15470	         9.03087e+57
          1488.96100	         8.79653e+57
          1489.76730	         8.67718e+57
