#sample_310_stacked_spectrum_rest_UV-bands_median_H-alpha_noDC.txt
#median Lum: 1.67868e+42
#Rest-frame wavelength (A) | Luminosity (erg/s/A)
#
          1110.00000	         0.00000e+00
          1110.80630	        -3.25504e+59
          1111.61260	         2.41213e+59
          1112.41890	         3.63038e+59
          1113.22520	         8.27727e+57
          1114.03150	        -7.84317e+58
          1114.83780	         2.13053e+59
          1115.64410	         9.79110e+58
          1116.45040	         9.68688e+58
          1117.25670	        -3.93493e+58
          1118.06300	         1.60123e+59
          1118.86930	        -3.60664e+57
          1119.67560	         7.31166e+58
          1120.48190	         9.45227e+57
          1121.28820	        -9.01771e+58
          1122.09450	        -1.29162e+58
          1122.90080	        -6.00257e+58
          1123.70710	         2.10695e+58
          1124.51340	         7.75746e+58
          1125.31970	        -2.97342e+58
          1126.12600	        -3.54621e+58
          1126.93230	        -7.26155e+58
          1127.73860	        -1.36613e+59
          1128.54490	        -4.35427e+58
          1129.35120	         2.15681e+58
          1130.15750	        -1.28347e+58
          1130.96380	         5.30972e+57
          1131.77010	         4.30920e+58
          1132.57640	         2.16501e+58
          1133.38270	         6.78552e+57
          1134.18900	         1.83326e+58
          1134.99530	         2.16802e+58
          1135.80160	         2.47778e+58
          1136.60790	         1.91682e+58
          1137.41420	        -9.64623e+57
          1138.22050	         2.75115e+58
          1139.02680	         2.88565e+58
          1139.83310	         2.01917e+58
          1140.63940	         1.76315e+58
          1141.44570	        -3.27795e+58
          1142.25200	        -6.50594e+57
          1143.05830	         1.33543e+58
          1143.86460	         2.17937e+58
          1144.67090	         2.09087e+58
          1145.47720	         1.16714e+58
          1146.28350	         1.20364e+58
          1147.08980	         2.32432e+58
          1147.89610	         8.41809e+57
          1148.70240	         1.37243e+58
          1149.50870	         3.01878e+58
          1150.31500	         2.15556e+58
          1151.12130	         1.44520e+58
          1151.92760	         9.20484e+57
          1152.73390	         1.06924e+57
          1153.54020	         1.84165e+57
          1154.34650	         2.42369e+58
          1155.15280	         2.70249e+58
          1155.95910	         1.93594e+58
          1156.76540	         1.20465e+58
          1157.57170	        -5.24355e+57
          1158.37800	        -5.44371e+57
          1159.18430	        -5.70774e+57
          1159.99060	         3.68827e+57
          1160.79690	         1.62841e+58
          1161.60320	         2.00934e+58
          1162.40950	         1.10765e+58
          1163.21580	         1.43941e+58
          1164.02210	         9.69612e+57
          1164.82840	         1.97749e+58
          1165.63470	         2.61505e+58
          1166.44100	         2.27247e+58
          1167.24730	         1.47428e+58
          1168.05360	         1.10965e+58
          1168.85990	         1.45088e+58
          1169.66620	         1.16523e+58
          1170.47250	         8.63664e+57
          1171.27880	         3.07928e+57
          1172.08510	         3.88263e+57
          1172.89140	         3.31677e+57
          1173.69770	         1.97317e+57
          1174.50400	         1.29303e+58
          1175.31030	         1.49963e+58
          1176.11660	         1.50088e+58
          1176.92290	         1.58060e+58
          1177.72920	         8.47065e+57
          1178.53550	         4.67564e+57
          1179.34180	         3.70065e+57
          1180.14810	         4.97223e+57
          1180.95440	         5.34868e+57
          1181.76070	         7.60547e+57
          1182.56700	         5.79890e+57
          1183.37330	         3.26824e+57
          1184.17960	         1.24295e+58
          1184.98590	         1.69729e+58
          1185.79220	         1.06367e+58
          1186.59850	         1.02718e+58
          1187.40480	         1.13261e+58
          1188.21110	         1.51120e+58
          1189.01740	         8.72558e+57
          1189.82370	         1.12276e+58
          1190.63000	         7.07276e+57
          1191.43630	         8.76245e+57
          1192.24260	         6.07457e+57
          1193.04890	         1.33115e+58
          1193.85520	         9.54574e+57
          1194.66150	         8.91604e+57
          1195.46780	         1.29068e+58
          1196.27410	         1.43860e+58
          1197.08040	         7.83467e+57
          1197.88670	         1.19309e+58
          1198.69300	         1.61138e+58
          1199.49930	         1.83492e+58
          1200.30560	         1.62292e+58
          1201.11190	         1.05803e+58
          1201.91820	         9.32099e+57
          1202.72450	         1.21090e+58
          1203.53080	         1.42506e+58
          1204.33710	         6.97341e+57
          1205.14340	         9.52025e+57
          1205.94970	         6.34895e+57
          1206.75600	         5.70956e+57
          1207.56230	         9.76041e+57
          1208.36860	         1.54977e+58
          1209.17490	         6.20241e+57
          1209.98120	         2.80658e+57
          1210.78750	         8.11829e+57
          1211.59380	         1.23437e+58
          1212.40010	         1.80660e+58
          1213.20640	         2.22508e+58
          1214.01270	         1.92308e+58
          1214.81900	         2.43825e+58
          1215.62530	         4.53390e+58
          1216.43160	         8.98083e+58
          1217.23790	         1.52929e+59
          1218.04420	         1.14079e+59
          1218.85050	         8.56920e+58
          1219.65680	         5.54070e+58
          1220.46310	         3.51014e+58
          1221.26940	         2.31193e+58
          1222.07570	         1.25012e+58
          1222.88200	         9.13355e+57
          1223.68830	         7.61615e+57
          1224.49460	         6.19062e+57
          1225.30090	         6.69228e+57
          1226.10720	         7.72570e+57
          1226.91350	         6.38430e+57
          1227.71980	         7.66505e+57
          1228.52610	         8.42607e+57
          1229.33240	         6.85774e+57
          1230.13870	         7.66974e+57
          1230.94500	         9.02272e+57
          1231.75130	         6.54006e+57
          1232.55760	         7.33023e+57
          1233.36390	         7.83361e+57
          1234.17020	         1.03199e+58
          1234.97650	         9.44406e+57
          1235.78280	         9.99114e+57
          1236.58910	         1.01180e+58
          1237.39540	         1.07767e+58
          1238.20170	         1.06386e+58
          1239.00800	         1.39379e+58
          1239.81430	         1.49875e+58
          1240.62060	         1.17266e+58
          1241.42690	         1.19108e+58
          1242.23320	         1.10655e+58
          1243.03950	         8.66974e+57
          1243.84580	         9.70600e+57
          1244.65210	         9.63040e+57
          1245.45840	         7.92673e+57
          1246.26470	         8.94059e+57
          1247.07100	         5.92474e+57
          1247.87730	         2.83294e+57
          1248.68360	         4.30298e+57
          1249.48990	         7.80107e+57
          1250.29620	         7.90813e+57
          1251.10250	         7.53306e+57
          1251.90880	         6.84012e+57
          1252.71510	         5.32280e+57
          1253.52140	         5.27875e+57
          1254.32770	         9.62238e+57
          1255.13400	         1.13544e+58
          1255.94030	         1.10935e+58
          1256.74660	         1.09233e+58
          1257.55290	         1.15329e+58
          1258.35920	         7.48887e+57
          1259.16550	         4.97707e+57
          1259.97180	         5.74443e+57
          1260.77810	         9.37240e+57
          1261.58440	         1.31873e+58
          1262.39070	         1.03343e+58
          1263.19700	         8.43201e+57
          1264.00330	         9.84706e+57
          1264.80960	         1.08636e+58
          1265.61590	         1.37409e+58
          1266.42220	         1.36435e+58
          1267.22850	         1.15773e+58
          1268.03480	         1.30724e+58
          1268.84110	         1.50815e+58
          1269.64740	         1.49074e+58
          1270.45370	         1.36350e+58
          1271.26000	         1.01092e+58
          1272.06630	         9.73308e+57
          1272.87260	         1.13654e+58
          1273.67890	         1.28224e+58
          1274.48520	         1.18332e+58
          1275.29150	         1.15283e+58
          1276.09780	         1.17214e+58
          1276.90410	         1.48959e+58
          1277.71040	         1.33404e+58
          1278.51670	         1.39140e+58
          1279.32300	         1.50101e+58
          1280.12930	         1.28045e+58
          1280.93560	         1.05193e+58
          1281.74190	         1.35323e+58
          1282.54820	         1.33996e+58
          1283.35450	         1.05102e+58
          1284.16080	         1.10894e+58
          1284.96710	         1.26265e+58
          1285.77340	         1.09192e+58
          1286.57970	         8.39105e+57
          1287.38600	         1.22253e+58
          1288.19230	         1.41088e+58
          1288.99860	         1.36738e+58
          1289.80490	         1.05786e+58
          1290.61120	         1.31532e+58
          1291.41750	         1.40139e+58
          1292.22380	         1.12761e+58
          1293.03010	         1.05388e+58
          1293.83640	         1.15848e+58
          1294.64270	         9.43952e+57
          1295.44900	         6.10984e+57
          1296.25530	         7.38378e+57
          1297.06160	         9.82272e+57
          1297.86790	         9.31321e+57
          1298.67420	         7.71492e+57
          1299.48050	         1.05597e+58
          1300.28680	         1.13468e+58
          1301.09310	         8.44108e+57
          1301.89940	         3.60029e+57
          1302.70570	         5.72885e+57
          1303.51200	         7.65740e+57
          1304.31830	         9.37324e+57
          1305.12460	         1.11228e+58
          1305.93090	         1.27222e+58
          1306.73720	         1.34932e+58
          1307.54350	         1.33073e+58
          1308.34980	         1.41205e+58
          1309.15610	         1.66173e+58
          1309.96240	         1.74659e+58
          1310.76870	         1.51142e+58
          1311.57500	         1.34066e+58
          1312.38130	         1.23393e+58
          1313.18760	         1.19801e+58
          1313.99390	         1.46247e+58
          1314.80020	         1.55813e+58
          1315.60650	         1.59837e+58
          1316.41280	         1.26575e+58
          1317.21910	         9.42579e+57
          1318.02540	         1.07069e+58
          1318.83170	         1.21721e+58
          1319.63800	         1.15595e+58
          1320.44430	         1.13710e+58
          1321.25060	         1.22591e+58
          1322.05690	         1.28024e+58
          1322.86320	         1.16063e+58
          1323.66950	         9.62256e+57
          1324.47580	         8.30708e+57
          1325.28210	         9.33249e+57
          1326.08840	         1.21717e+58
          1326.89470	         1.19246e+58
          1327.70100	         8.76436e+57
          1328.50730	         6.70958e+57
          1329.31360	         8.44800e+57
          1330.11990	         8.94017e+57
          1330.92620	         8.93919e+57
          1331.73250	         1.02623e+58
          1332.53880	         8.73081e+57
          1333.34510	         8.54720e+57
          1334.15140	         8.08669e+57
          1334.95770	         9.37703e+57
          1335.76400	         1.09943e+58
          1336.57030	         1.13010e+58
          1337.37660	         1.09384e+58
          1338.18290	         1.10986e+58
          1338.98920	         1.27812e+58
          1339.79550	         1.06380e+58
          1340.60180	         1.12342e+58
          1341.40810	         1.30465e+58
          1342.21440	         1.11762e+58
          1343.02070	         1.07508e+58
          1343.82700	         1.27398e+58
          1344.63330	         1.33671e+58
          1345.43960	         1.35480e+58
          1346.24590	         9.83681e+57
          1347.05220	         1.00006e+58
          1347.85850	         1.12308e+58
          1348.66480	         1.30396e+58
          1349.47110	         1.32310e+58
          1350.27740	         1.13352e+58
          1351.08370	         1.19860e+58
          1351.89000	         1.21971e+58
          1352.69630	         1.19027e+58
          1353.50260	         1.27114e+58
          1354.30890	         1.25998e+58
          1355.11520	         1.16723e+58
          1355.92150	         1.07979e+58
          1356.72780	         1.15653e+58
          1357.53410	         1.16961e+58
          1358.34040	         1.09079e+58
          1359.14670	         1.01154e+58
          1359.95300	         1.03787e+58
          1360.75930	         1.11402e+58
          1361.56560	         9.61751e+57
          1362.37190	         9.44462e+57
          1363.17820	         1.11116e+58
          1363.98450	         1.19837e+58
          1364.79080	         1.33449e+58
          1365.59710	         1.42393e+58
          1366.40340	         1.31077e+58
          1367.20970	         1.15418e+58
          1368.01600	         9.67172e+57
          1368.82230	         8.25158e+57
          1369.62860	         8.68160e+57
          1370.43490	         9.81492e+57
          1371.24120	         1.04780e+58
          1372.04750	         9.10363e+57
          1372.85380	         1.05543e+58
          1373.66010	         1.16085e+58
          1374.46640	         1.13086e+58
          1375.27270	         1.02288e+58
          1376.07900	         7.55071e+57
          1376.88530	         6.74490e+57
          1377.69160	         8.58479e+57
          1378.49790	         7.75249e+57
          1379.30420	         8.46236e+57
          1380.11050	         9.28330e+57
          1380.91680	         7.42988e+57
          1381.72310	         6.45519e+57
          1382.52940	         8.53145e+57
          1383.33570	         1.14375e+58
          1384.14200	         1.22990e+58
          1384.94830	         1.10256e+58
          1385.75460	         1.01687e+58
          1386.56090	         1.10860e+58
          1387.36720	         1.01492e+58
          1388.17350	         1.26095e+58
          1388.97980	         1.13367e+58
          1389.78610	         1.00943e+58
          1390.59240	         9.16429e+57
          1391.39870	         6.96920e+57
          1392.20500	         7.78982e+57
          1393.01130	         8.03362e+57
          1393.81760	         7.00371e+57
          1394.62390	         7.17887e+57
          1395.43020	         6.53327e+57
          1396.23650	         6.72840e+57
          1397.04280	         7.20580e+57
          1397.84910	         8.37854e+57
          1398.65540	         9.44834e+57
          1399.46170	         1.02365e+58
          1400.26800	         9.72480e+57
          1401.07430	         8.03187e+57
          1401.88060	         8.93775e+57
          1402.68690	         9.84638e+57
          1403.49320	         9.70454e+57
          1404.29950	         9.83844e+57
          1405.10580	         1.08340e+58
          1405.91210	         1.07859e+58
          1406.71840	         9.70016e+57
          1407.52470	         1.01716e+58
          1408.33100	         9.55778e+57
          1409.13730	         1.02806e+58
          1409.94360	         1.13170e+58
          1410.74990	         1.03092e+58
          1411.55620	         1.00687e+58
          1412.36250	         9.48351e+57
          1413.16880	         8.88185e+57
          1413.97510	         8.46930e+57
          1414.78140	         8.94612e+57
          1415.58770	         1.09600e+58
          1416.39400	         1.10544e+58
          1417.20030	         1.05474e+58
          1418.00660	         9.40131e+57
          1418.81290	         9.31292e+57
          1419.61920	         1.05300e+58
          1420.42550	         1.17258e+58
          1421.23180	         1.30979e+58
          1422.03810	         1.04598e+58
          1422.84440	         7.96885e+57
          1423.65070	         1.00874e+58
          1424.45700	         9.58964e+57
          1425.26330	         9.22459e+57
          1426.06960	         9.01047e+57
          1426.87590	         8.71584e+57
          1427.68220	         8.52769e+57
          1428.48850	         9.41642e+57
          1429.29480	         9.67244e+57
          1430.10110	         9.54018e+57
          1430.90740	         8.69287e+57
          1431.71370	         9.17661e+57
          1432.52000	         8.39414e+57
          1433.32630	         7.77808e+57
          1434.13260	         8.04129e+57
          1434.93890	         8.55626e+57
          1435.74520	         9.02496e+57
          1436.55150	         8.84282e+57
          1437.35780	         9.36274e+57
          1438.16410	         9.26373e+57
          1438.97040	         8.26891e+57
          1439.77670	         8.46805e+57
          1440.58300	         8.97696e+57
          1441.38930	         9.66852e+57
          1442.19560	         9.64683e+57
          1443.00190	         1.02850e+58
          1443.80820	         1.07941e+58
          1444.61450	         9.34281e+57
          1445.42080	         8.77583e+57
          1446.22710	         9.98714e+57
          1447.03340	         9.55794e+57
          1447.83970	         9.22261e+57
          1448.64600	         1.03777e+58
          1449.45230	         1.03176e+58
          1450.25860	         9.17057e+57
          1451.06490	         8.64886e+57
          1451.87120	         8.22487e+57
          1452.67750	         7.36253e+57
          1453.48380	         8.58392e+57
          1454.29010	         8.73676e+57
          1455.09640	         8.12494e+57
          1455.90270	         9.07672e+57
          1456.70900	         8.21287e+57
          1457.51530	         9.28311e+57
          1458.32160	         1.19559e+58
          1459.12790	         1.13887e+58
          1459.93420	         9.29982e+57
          1460.74050	         7.82004e+57
          1461.54680	         7.64300e+57
          1462.35310	         7.57333e+57
          1463.15940	         8.91283e+57
          1463.96570	         9.79325e+57
          1464.77200	         1.15722e+58
          1465.57830	         1.04753e+58
          1466.38460	         9.13996e+57
          1467.19090	         9.34628e+57
          1467.99720	         9.81578e+57
          1468.80350	         9.95420e+57
          1469.60980	         1.04154e+58
          1470.41610	         1.09746e+58
          1471.22240	         9.35012e+57
          1472.02870	         9.96646e+57
          1472.83500	         1.05727e+58
          1473.64130	         1.07506e+58
          1474.44760	         9.77483e+57
          1475.25390	         8.89292e+57
          1476.06020	         8.67885e+57
          1476.86650	         8.09164e+57
          1477.67280	         7.48946e+57
          1478.47910	         8.14083e+57
          1479.28540	         7.78254e+57
          1480.09170	         8.90235e+57
          1480.89800	         8.75287e+57
          1481.70430	         7.85872e+57
          1482.51060	         7.15763e+57
          1483.31690	         6.85365e+57
          1484.12320	         7.50612e+57
          1484.92950	         8.17238e+57
          1485.73580	         8.51807e+57
          1486.54210	         8.20220e+57
          1487.34840	         8.71855e+57
          1488.15470	         8.29688e+57
          1488.96100	         8.66929e+57
          1489.76730	         8.63238e+57
