#sample_434_stacked_spectrum_rest_UV-bands_median_H-alpha_noDC.txt
#median Lum: 1.69421e+42
#Rest-frame wavelength (A) | Luminosity (erg/s/A)
#
          1110.00000	         0.00000e+00
          1110.80630	         8.62453e+58
          1111.61260	         3.18465e+59
          1112.41890	         3.29434e+59
          1113.22520	         4.83885e+58
          1114.03150	         1.78908e+57
          1114.83780	         1.73909e+59
          1115.64410	         2.61674e+59
          1116.45040	         1.86111e+59
          1117.25670	        -1.70883e+59
          1118.06300	         1.27781e+59
          1118.86930	        -1.60257e+59
          1119.67560	         3.40054e+58
          1120.48190	         2.02703e+57
          1121.28820	        -1.71804e+59
          1122.09450	        -5.08736e+58
          1122.90080	        -7.28561e+58
          1123.70710	         4.52981e+58
          1124.51340	         9.37271e+58
          1125.31970	         1.33856e+58
          1126.12600	         1.25090e+58
          1126.93230	        -6.54574e+58
          1127.73860	        -4.61000e+58
          1128.54490	         1.15563e+56
          1129.35120	        -2.92517e+57
          1130.15750	        -6.52942e+58
          1130.96380	        -3.21545e+58
          1131.77010	         5.00142e+58
          1132.57640	         3.12348e+58
          1133.38270	        -5.69030e+57
          1134.18900	        -1.74690e+57
          1134.99530	         4.53532e+58
          1135.80160	         6.79023e+58
          1136.60790	         1.12330e+58
          1137.41420	        -1.82829e+58
          1138.22050	         2.09957e+58
          1139.02680	         1.20950e+58
          1139.83310	         9.00303e+57
          1140.63940	         4.16330e+57
          1141.44570	        -1.26663e+58
          1142.25200	         1.79382e+57
          1143.05830	         2.46075e+58
          1143.86460	         2.33263e+58
          1144.67090	         3.93469e+58
          1145.47720	         1.77609e+58
          1146.28350	         1.98551e+58
          1147.08980	         1.75229e+58
          1147.89610	         2.82228e+58
          1148.70240	         1.46826e+58
          1149.50870	         2.92335e+58
          1150.31500	         2.34943e+58
          1151.12130	         1.21504e+57
          1151.92760	        -1.99635e+56
          1152.73390	        -7.79780e+57
          1153.54020	        -3.93693e+57
          1154.34650	         2.25163e+58
          1155.15280	         2.77724e+58
          1155.95910	         5.42767e+57
          1156.76540	        -1.31173e+57
          1157.57170	        -4.06084e+57
          1158.37800	        -6.14381e+57
          1159.18430	        -8.26938e+57
          1159.99060	         3.09983e+57
          1160.79690	        -7.24503e+56
          1161.60320	         6.69097e+57
          1162.40950	         1.07018e+58
          1163.21580	         2.26245e+58
          1164.02210	         1.49473e+58
          1164.82840	         1.15849e+57
          1165.63470	         2.24626e+58
          1166.44100	         3.27111e+58
          1167.24730	         2.25470e+58
          1168.05360	         8.43003e+57
          1168.85990	         1.03004e+58
          1169.66620	         1.07229e+58
          1170.47250	         1.87856e+58
          1171.27880	         1.85317e+58
          1172.08510	         1.36600e+58
          1172.89140	         1.89894e+58
          1173.69770	         3.80400e+57
          1174.50400	         2.91067e+57
          1175.31030	         1.35649e+58
          1176.11660	         2.08912e+58
          1176.92290	         1.35521e+58
          1177.72920	         1.00822e+58
          1178.53550	         6.91752e+57
          1179.34180	         3.28349e+57
          1180.14810	         1.04973e+58
          1180.95440	         1.02953e+58
          1181.76070	         1.07753e+58
          1182.56700	         9.06052e+57
          1183.37330	         3.56636e+57
          1184.17960	         8.07570e+57
          1184.98590	         1.20756e+58
          1185.79220	         8.37256e+57
          1186.59850	         1.05339e+58
          1187.40480	         9.08258e+57
          1188.21110	         1.44547e+58
          1189.01740	         7.95702e+57
          1189.82370	         1.26831e+58
          1190.63000	         1.64468e+58
          1191.43630	         1.21458e+58
          1192.24260	         1.17910e+58
          1193.04890	         1.26940e+58
          1193.85520	         8.65944e+57
          1194.66150	         5.25515e+57
          1195.46780	         1.35544e+58
          1196.27410	         1.72224e+58
          1197.08040	         1.09387e+58
          1197.88670	         1.43179e+58
          1198.69300	         1.63434e+58
          1199.49930	         1.86962e+58
          1200.30560	         1.00362e+58
          1201.11190	         9.64570e+57
          1201.91820	         1.14271e+58
          1202.72450	         7.16987e+57
          1203.53080	         1.35473e+58
          1204.33710	         8.29292e+57
          1205.14340	         6.10750e+57
          1205.94970	         7.33714e+57
          1206.75600	         4.89935e+57
          1207.56230	         4.86039e+57
          1208.36860	         8.77642e+57
          1209.17490	         3.42767e+57
          1209.98120	         2.59343e+57
          1210.78750	         9.58399e+57
          1211.59380	         1.09820e+58
          1212.40010	         1.62468e+58
          1213.20640	         1.81888e+58
          1214.01270	         2.11636e+58
          1214.81900	         2.66418e+58
          1215.62530	         4.49667e+58
          1216.43160	         8.96377e+58
          1217.23790	         1.53171e+59
          1218.04420	         1.16253e+59
          1218.85050	         8.88457e+58
          1219.65680	         6.11769e+58
          1220.46310	         3.93142e+58
          1221.26940	         2.65997e+58
          1222.07570	         1.64341e+58
          1222.88200	         1.33691e+58
          1223.68830	         1.13142e+58
          1224.49460	         7.16166e+57
          1225.30090	         7.29059e+57
          1226.10720	         9.04910e+57
          1226.91350	         8.80392e+57
          1227.71980	         8.17489e+57
          1228.52610	         8.98805e+57
          1229.33240	         7.93412e+57
          1230.13870	         8.72579e+57
          1230.94500	         1.09413e+58
          1231.75130	         7.45470e+57
          1232.55760	         9.27369e+57
          1233.36390	         9.50510e+57
          1234.17020	         8.73197e+57
          1234.97650	         8.13305e+57
          1235.78280	         7.26867e+57
          1236.58910	         6.72000e+57
          1237.39540	         8.32518e+57
          1238.20170	         9.02631e+57
          1239.00800	         8.73143e+57
          1239.81430	         1.27577e+58
          1240.62060	         1.03309e+58
          1241.42690	         9.76376e+57
          1242.23320	         1.20623e+58
          1243.03950	         6.02125e+57
          1243.84580	         8.03296e+57
          1244.65210	         1.07378e+58
          1245.45840	         1.03834e+58
          1246.26470	         7.46388e+57
          1247.07100	         5.18682e+57
          1247.87730	         6.19409e+57
          1248.68360	         4.43076e+57
          1249.48990	         4.48818e+57
          1250.29620	         8.97796e+57
          1251.10250	         1.04856e+58
          1251.90880	         5.19403e+57
          1252.71510	         5.29305e+57
          1253.52140	         6.56004e+57
          1254.32770	         1.09483e+58
          1255.13400	         1.44721e+58
          1255.94030	         1.27195e+58
          1256.74660	         9.69735e+57
          1257.55290	         1.04275e+58
          1258.35920	         8.54053e+57
          1259.16550	         5.46525e+57
          1259.97180	         3.65894e+57
          1260.77810	         7.97103e+57
          1261.58440	         1.10926e+58
          1262.39070	         7.64097e+57
          1263.19700	         8.68583e+57
          1264.00330	         9.36454e+57
          1264.80960	         9.07810e+57
          1265.61590	         1.27381e+58
          1266.42220	         1.26884e+58
          1267.22850	         1.02609e+58
          1268.03480	         1.29830e+58
          1268.84110	         1.47135e+58
          1269.64740	         1.42577e+58
          1270.45370	         1.41138e+58
          1271.26000	         1.28326e+58
          1272.06630	         1.36432e+58
          1272.87260	         1.42594e+58
          1273.67890	         1.39000e+58
          1274.48520	         1.28416e+58
          1275.29150	         1.20901e+58
          1276.09780	         1.17922e+58
          1276.90410	         1.17488e+58
          1277.71040	         1.20564e+58
          1278.51670	         1.36488e+58
          1279.32300	         1.49595e+58
          1280.12930	         1.31372e+58
          1280.93560	         1.16137e+58
          1281.74190	         1.20952e+58
          1282.54820	         1.37978e+58
          1283.35450	         1.32101e+58
          1284.16080	         1.32054e+58
          1284.96710	         1.50110e+58
          1285.77340	         1.13756e+58
          1286.57970	         1.18207e+58
          1287.38600	         1.70224e+58
          1288.19230	         2.08647e+58
          1288.99860	         1.59200e+58
          1289.80490	         9.37827e+57
          1290.61120	         1.20063e+58
          1291.41750	         1.23837e+58
          1292.22380	         1.05571e+58
          1293.03010	         1.03884e+58
          1293.83640	         1.25886e+58
          1294.64270	         1.09136e+58
          1295.44900	         8.16487e+57
          1296.25530	         9.20971e+57
          1297.06160	         9.21919e+57
          1297.86790	         1.02346e+58
          1298.67420	         7.79385e+57
          1299.48050	         8.96026e+57
          1300.28680	         1.01861e+58
          1301.09310	         6.94327e+57
          1301.89940	         3.88086e+57
          1302.70570	         7.12407e+57
          1303.51200	         7.99441e+57
          1304.31830	         8.93982e+57
          1305.12460	         1.10366e+58
          1305.93090	         1.14093e+58
          1306.73720	         1.26915e+58
          1307.54350	         1.42169e+58
          1308.34980	         1.51140e+58
          1309.15610	         1.40625e+58
          1309.96240	         1.21775e+58
          1310.76870	         1.30610e+58
          1311.57500	         1.27830e+58
          1312.38130	         1.21229e+58
          1313.18760	         1.45022e+58
          1313.99390	         1.60987e+58
          1314.80020	         1.62197e+58
          1315.60650	         1.35267e+58
          1316.41280	         1.30313e+58
          1317.21910	         1.26839e+58
          1318.02540	         1.23762e+58
          1318.83170	         1.20242e+58
          1319.63800	         1.16680e+58
          1320.44430	         1.09472e+58
          1321.25060	         1.26749e+58
          1322.05690	         1.11943e+58
          1322.86320	         1.03631e+58
          1323.66950	         1.10164e+58
          1324.47580	         1.05384e+58
          1325.28210	         9.53564e+57
          1326.08840	         1.16379e+58
          1326.89470	         1.30624e+58
          1327.70100	         1.11813e+58
          1328.50730	         9.16749e+57
          1329.31360	         8.32492e+57
          1330.11990	         9.60518e+57
          1330.92620	         9.83275e+57
          1331.73250	         9.79157e+57
          1332.53880	         8.80873e+57
          1333.34510	         9.26350e+57
          1334.15140	         8.65500e+57
          1334.95770	         8.35001e+57
          1335.76400	         9.84623e+57
          1336.57030	         1.09973e+58
          1337.37660	         1.06664e+58
          1338.18290	         1.16979e+58
          1338.98920	         1.34428e+58
          1339.79550	         1.05823e+58
          1340.60180	         1.10483e+58
          1341.40810	         1.31031e+58
          1342.21440	         1.20569e+58
          1343.02070	         1.29733e+58
          1343.82700	         1.35878e+58
          1344.63330	         1.27380e+58
          1345.43960	         1.33801e+58
          1346.24590	         1.24768e+58
          1347.05220	         1.35312e+58
          1347.85850	         1.08653e+58
          1348.66480	         1.17352e+58
          1349.47110	         1.25519e+58
          1350.27740	         1.16047e+58
          1351.08370	         1.16393e+58
          1351.89000	         1.22143e+58
          1352.69630	         1.22360e+58
          1353.50260	         1.20418e+58
          1354.30890	         1.18695e+58
          1355.11520	         1.04423e+58
          1355.92150	         9.88793e+57
          1356.72780	         1.07197e+58
          1357.53410	         1.09408e+58
          1358.34040	         1.13965e+58
          1359.14670	         1.08889e+58
          1359.95300	         1.10469e+58
          1360.75930	         1.10702e+58
          1361.56560	         1.07794e+58
          1362.37190	         1.10043e+58
          1363.17820	         1.01133e+58
          1363.98450	         1.09750e+58
          1364.79080	         1.33360e+58
          1365.59710	         1.32198e+58
          1366.40340	         1.14888e+58
          1367.20970	         9.32096e+57
          1368.01600	         9.72461e+57
          1368.82230	         8.41437e+57
          1369.62860	         1.01057e+58
          1370.43490	         1.02383e+58
          1371.24120	         1.00907e+58
          1372.04750	         9.93464e+57
          1372.85380	         1.09419e+58
          1373.66010	         1.12712e+58
          1374.46640	         9.78697e+57
          1375.27270	         9.40692e+57
          1376.07900	         9.74021e+57
          1376.88530	         9.46169e+57
          1377.69160	         8.52223e+57
          1378.49790	         7.06349e+57
          1379.30420	         7.46129e+57
          1380.11050	         9.30249e+57
          1380.91680	         9.75703e+57
          1381.72310	         8.51744e+57
          1382.52940	         8.60531e+57
          1383.33570	         9.21088e+57
          1384.14200	         1.05862e+58
          1384.94830	         1.01138e+58
          1385.75460	         9.62536e+57
          1386.56090	         1.21996e+58
          1387.36720	         1.23531e+58
          1388.17350	         1.12831e+58
          1388.97980	         9.93694e+57
          1389.78610	         7.98296e+57
          1390.59240	         7.63480e+57
          1391.39870	         8.63866e+57
          1392.20500	         9.94844e+57
          1393.01130	         8.43083e+57
          1393.81760	         7.09319e+57
          1394.62390	         6.91941e+57
          1395.43020	         7.06371e+57
          1396.23650	         7.88193e+57
          1397.04280	         8.63298e+57
          1397.84910	         8.54837e+57
          1398.65540	         9.27792e+57
          1399.46170	         9.84460e+57
          1400.26800	         7.79506e+57
          1401.07430	         7.27953e+57
          1401.88060	         8.19876e+57
          1402.68690	         9.94598e+57
          1403.49320	         9.75009e+57
          1404.29950	         8.18612e+57
          1405.10580	         9.59246e+57
          1405.91210	         1.06868e+58
          1406.71840	         1.04503e+58
          1407.52470	         9.57304e+57
          1408.33100	         1.03313e+58
          1409.13730	         1.18425e+58
          1409.94360	         1.16253e+58
          1410.74990	         1.12235e+58
          1411.55620	         1.02330e+58
          1412.36250	         8.94163e+57
          1413.16880	         8.71339e+57
          1413.97510	         8.06566e+57
          1414.78140	         8.80633e+57
          1415.58770	         1.04112e+58
          1416.39400	         1.00678e+58
          1417.20030	         1.07472e+58
          1418.00660	         9.33127e+57
          1418.81290	         9.77352e+57
          1419.61920	         1.03828e+58
          1420.42550	         1.20766e+58
          1421.23180	         1.34036e+58
          1422.03810	         1.21109e+58
          1422.84440	         1.27829e+58
          1423.65070	         1.41989e+58
          1424.45700	         1.13368e+58
          1425.26330	         8.11308e+57
          1426.06960	         8.68393e+57
          1426.87590	         9.93218e+57
          1427.68220	         9.33591e+57
          1428.48850	         1.07481e+58
          1429.29480	         1.08316e+58
          1430.10110	         9.88465e+57
          1430.90740	         8.80483e+57
          1431.71370	         8.78839e+57
          1432.52000	         8.53218e+57
          1433.32630	         7.35594e+57
          1434.13260	         8.20792e+57
          1434.93890	         7.48627e+57
          1435.74520	         8.40951e+57
          1436.55150	         9.88568e+57
          1437.35780	         1.00187e+58
          1438.16410	         9.86895e+57
          1438.97040	         9.75997e+57
          1439.77670	         9.39735e+57
          1440.58300	         8.95580e+57
          1441.38930	         1.00545e+58
          1442.19560	         1.04211e+58
          1443.00190	         1.01355e+58
          1443.80820	         1.10124e+58
          1444.61450	         1.04364e+58
          1445.42080	         8.84758e+57
          1446.22710	         9.76843e+57
          1447.03340	         1.03789e+58
          1447.83970	         1.18868e+58
          1448.64600	         1.09233e+58
          1449.45230	         1.02938e+58
          1450.25860	         9.34751e+57
          1451.06490	         8.19835e+57
          1451.87120	         8.16837e+57
          1452.67750	         8.10786e+57
          1453.48380	         8.86757e+57
          1454.29010	         8.30407e+57
          1455.09640	         7.35267e+57
          1455.90270	         9.08502e+57
          1456.70900	         9.24250e+57
          1457.51530	         9.79592e+57
          1458.32160	         1.23507e+58
          1459.12790	         1.12762e+58
          1459.93420	         9.18200e+57
          1460.74050	         7.63155e+57
          1461.54680	         7.89577e+57
          1462.35310	         8.43571e+57
          1463.15940	         1.00261e+58
          1463.96570	         1.08026e+58
          1464.77200	         1.16126e+58
          1465.57830	         1.04456e+58
          1466.38460	         7.88539e+57
          1467.19090	         7.23222e+57
          1467.99720	         8.64836e+57
          1468.80350	         8.51096e+57
          1469.60980	         9.96260e+57
          1470.41610	         1.03586e+58
          1471.22240	         9.43656e+57
          1472.02870	         1.01988e+58
          1472.83500	         9.80652e+57
          1473.64130	         9.85082e+57
          1474.44760	         1.00546e+58
          1475.25390	         9.29952e+57
          1476.06020	         7.62736e+57
          1476.86650	         7.72479e+57
          1477.67280	         7.33992e+57
          1478.47910	         6.71119e+57
          1479.28540	         7.81624e+57
          1480.09170	         8.91333e+57
          1480.89800	         9.68536e+57
          1481.70430	         9.22916e+57
          1482.51060	         8.77356e+57
          1483.31690	         8.91846e+57
          1484.12320	         8.16848e+57
          1484.92950	         6.62169e+57
          1485.73580	         7.77653e+57
          1486.54210	         9.18622e+57
          1487.34840	         9.48114e+57
          1488.15470	         9.74190e+57
          1488.96100	         8.76527e+57
          1489.76730	         9.35627e+57
