#sample_170_stacked_spectrum_rest_UV-bands_median_H-alpha_noDC.txt
#median Lum: 1.71536e+42
#Rest-frame wavelength (A) | Luminosity (erg/s/A)
#
          1110.00000	         0.00000e+00
          1110.80630	        -3.10531e+59
          1111.61260	         7.81046e+58
          1112.41890	         2.74618e+59
          1113.22520	        -9.29974e+58
          1114.03150	        -1.88699e+59
          1114.83780	         2.29577e+58
          1115.64410	         1.10086e+59
          1116.45040	        -1.36768e+58
          1117.25670	        -6.67882e+57
          1118.06300	         6.87573e+58
          1118.86930	        -5.94176e+58
          1119.67560	        -6.16025e+57
          1120.48190	        -1.84774e+57
          1121.28820	        -2.52014e+58
          1122.09450	         4.98006e+57
          1122.90080	         1.22059e+58
          1123.70710	         2.34230e+58
          1124.51340	         3.95377e+58
          1125.31970	        -3.61983e+58
          1126.12600	         8.13208e+57
          1126.93230	        -1.40470e+58
          1127.73860	        -6.74806e+58
          1128.54490	        -1.25379e+58
          1129.35120	         5.33369e+58
          1130.15750	        -1.11169e+57
          1130.96380	         1.44274e+57
          1131.77010	         4.84600e+58
          1132.57640	         4.78252e+58
          1133.38270	         3.96814e+57
          1134.18900	        -4.40262e+57
          1134.99530	         2.58694e+58
          1135.80160	         4.06441e+58
          1136.60790	         1.37113e+58
          1137.41420	         1.18468e+58
          1138.22050	         4.84577e+58
          1139.02680	         3.66483e+58
          1139.83310	         2.22674e+58
          1140.63940	         1.49540e+58
          1141.44570	        -1.94092e+58
          1142.25200	        -1.54282e+58
          1143.05830	         6.16578e+57
          1143.86460	         2.63967e+58
          1144.67090	        -9.10631e+56
          1145.47720	         5.21945e+57
          1146.28350	         1.37205e+58
          1147.08980	         1.34624e+58
          1147.89610	         1.81598e+58
          1148.70240	         1.75804e+58
          1149.50870	         2.56761e+58
          1150.31500	         1.44263e+58
          1151.12130	         7.13360e+57
          1151.92760	         1.37115e+58
          1152.73390	         8.17572e+56
          1153.54020	         2.33709e+57
          1154.34650	         2.61034e+58
          1155.15280	         2.55529e+58
          1155.95910	         6.48292e+57
          1156.76540	         1.22785e+58
          1157.57170	         6.99329e+57
          1158.37800	         2.78367e+57
          1159.18430	         2.44619e+57
          1159.99060	         5.38452e+57
          1160.79690	         4.27218e+57
          1161.60320	         9.39624e+57
          1162.40950	         9.22123e+57
          1163.21580	         1.31835e+58
          1164.02210	         1.57376e+58
          1164.82840	         1.11917e+58
          1165.63470	         1.32905e+58
          1166.44100	         2.57733e+58
          1167.24730	         2.52193e+58
          1168.05360	         7.57805e+57
          1168.85990	         3.28061e+57
          1169.66620	         1.14695e+58
          1170.47250	         1.43593e+58
          1171.27880	         1.02962e+58
          1172.08510	         8.09057e+57
          1172.89140	         9.36774e+57
          1173.69770	         2.57406e+57
          1174.50400	         1.07506e+58
          1175.31030	         1.68650e+58
          1176.11660	         1.65604e+58
          1176.92290	         1.34048e+58
          1177.72920	         1.29500e+58
          1178.53550	         9.09992e+57
          1179.34180	         2.53859e+57
          1180.14810	         1.08943e+58
          1180.95440	         8.72428e+57
          1181.76070	         1.95660e+57
          1182.56700	         1.01306e+58
          1183.37330	         8.39099e+57
          1184.17960	         1.09309e+58
          1184.98590	         9.79164e+57
          1185.79220	         9.37566e+57
          1186.59850	         1.22827e+58
          1187.40480	         1.11222e+58
          1188.21110	         1.20386e+58
          1189.01740	         1.18810e+58
          1189.82370	         1.49181e+58
          1190.63000	         9.14073e+57
          1191.43630	         1.02638e+58
          1192.24260	         5.35309e+57
          1193.04890	         1.10470e+58
          1193.85520	         1.37970e+58
          1194.66150	         9.47511e+57
          1195.46780	         1.07891e+58
          1196.27410	         1.57886e+58
          1197.08040	         1.03562e+58
          1197.88670	         1.26502e+58
          1198.69300	         1.59106e+58
          1199.49930	         1.67414e+58
          1200.30560	         1.55104e+58
          1201.11190	         1.47838e+58
          1201.91820	         1.14418e+58
          1202.72450	         9.03104e+57
          1203.53080	         1.61403e+58
          1204.33710	         9.04039e+57
          1205.14340	         5.89921e+57
          1205.94970	         1.06078e+58
          1206.75600	         7.33393e+57
          1207.56230	         3.46838e+57
          1208.36860	         8.84235e+57
          1209.17490	         4.73054e+57
          1209.98120	         4.55990e+57
          1210.78750	         7.83923e+57
          1211.59380	         1.03925e+58
          1212.40010	         1.63745e+58
          1213.20640	         2.39739e+58
          1214.01270	         2.31761e+58
          1214.81900	         2.81246e+58
          1215.62530	         4.78497e+58
          1216.43160	         8.96447e+58
          1217.23790	         1.51006e+59
          1218.04420	         1.17111e+59
          1218.85050	         8.65297e+58
          1219.65680	         5.57268e+58
          1220.46310	         3.33313e+58
          1221.26940	         2.41450e+58
          1222.07570	         1.45026e+58
          1222.88200	         1.12401e+58
          1223.68830	         9.07026e+57
          1224.49460	         8.32128e+57
          1225.30090	         7.95695e+57
          1226.10720	         5.02646e+57
          1226.91350	         7.78556e+57
          1227.71980	         9.83956e+57
          1228.52610	         1.18803e+58
          1229.33240	         9.43947e+57
          1230.13870	         1.02961e+58
          1230.94500	         9.08151e+57
          1231.75130	         7.65848e+57
          1232.55760	         1.12931e+58
          1233.36390	         9.68748e+57
          1234.17020	         1.00219e+58
          1234.97650	         1.01115e+58
          1235.78280	         7.69539e+57
          1236.58910	         8.68921e+57
          1237.39540	         1.12868e+58
          1238.20170	         1.17767e+58
          1239.00800	         1.06665e+58
          1239.81430	         1.07950e+58
          1240.62060	         9.81556e+57
          1241.42690	         9.59964e+57
          1242.23320	         9.90602e+57
          1243.03950	         7.40385e+57
          1243.84580	         8.35889e+57
          1244.65210	         1.07043e+58
          1245.45840	         1.00365e+58
          1246.26470	         9.43253e+57
          1247.07100	         7.87850e+57
          1247.87730	         7.06705e+57
          1248.68360	         3.06234e+57
          1249.48990	         7.22951e+57
          1250.29620	         1.18709e+58
          1251.10250	         7.02084e+57
          1251.90880	         4.77862e+57
          1252.71510	         6.61162e+57
          1253.52140	         6.69538e+57
          1254.32770	         8.06740e+57
          1255.13400	         1.13503e+58
          1255.94030	         1.01426e+58
          1256.74660	         1.06443e+58
          1257.55290	         1.11224e+58
          1258.35920	         6.76995e+57
          1259.16550	         4.29952e+57
          1259.97180	         4.63249e+57
          1260.77810	         6.86097e+57
          1261.58440	         1.02941e+58
          1262.39070	         8.57990e+57
          1263.19700	         1.00213e+58
          1264.00330	         8.65724e+57
          1264.80960	         9.32031e+57
          1265.61590	         1.33895e+58
          1266.42220	         1.20939e+58
          1267.22850	         1.17901e+58
          1268.03480	         1.47330e+58
          1268.84110	         1.48428e+58
          1269.64740	         1.39406e+58
          1270.45370	         1.44433e+58
          1271.26000	         1.23513e+58
          1272.06630	         9.98936e+57
          1272.87260	         1.04453e+58
          1273.67890	         1.20598e+58
          1274.48520	         1.09001e+58
          1275.29150	         1.03262e+58
          1276.09780	         1.08755e+58
          1276.90410	         1.33871e+58
          1277.71040	         1.27167e+58
          1278.51670	         9.83825e+57
          1279.32300	         1.09610e+58
          1280.12930	         1.00651e+58
          1280.93560	         8.86233e+57
          1281.74190	         1.09627e+58
          1282.54820	         1.11265e+58
          1283.35450	         1.10562e+58
          1284.16080	         1.41485e+58
          1284.96710	         1.55890e+58
          1285.77340	         1.30797e+58
          1286.57970	         1.17092e+58
          1287.38600	         1.51343e+58
          1288.19230	         1.98156e+58
          1288.99860	         1.89851e+58
          1289.80490	         1.21722e+58
          1290.61120	         1.32765e+58
          1291.41750	         1.43993e+58
          1292.22380	         1.31176e+58
          1293.03010	         1.20968e+58
          1293.83640	         1.24874e+58
          1294.64270	         9.94437e+57
          1295.44900	         7.47103e+57
          1296.25530	         9.02706e+57
          1297.06160	         9.18275e+57
          1297.86790	         7.58637e+57
          1298.67420	         8.44575e+57
          1299.48050	         1.00203e+58
          1300.28680	         1.06153e+58
          1301.09310	         7.75069e+57
          1301.89940	         4.33872e+57
          1302.70570	         5.33190e+57
          1303.51200	         8.07936e+57
          1304.31830	         9.27536e+57
          1305.12460	         9.80614e+57
          1305.93090	         1.13123e+58
          1306.73720	         1.18784e+58
          1307.54350	         1.34110e+58
          1308.34980	         1.46671e+58
          1309.15610	         1.57026e+58
          1309.96240	         1.51467e+58
          1310.76870	         1.25388e+58
          1311.57500	         1.17832e+58
          1312.38130	         1.10380e+58
          1313.18760	         1.28318e+58
          1313.99390	         1.42890e+58
          1314.80020	         1.59769e+58
          1315.60650	         1.41413e+58
          1316.41280	         1.22089e+58
          1317.21910	         1.03247e+58
          1318.02540	         1.14343e+58
          1318.83170	         1.33375e+58
          1319.63800	         1.24116e+58
          1320.44430	         1.16852e+58
          1321.25060	         1.23482e+58
          1322.05690	         1.30283e+58
          1322.86320	         1.19572e+58
          1323.66950	         1.11971e+58
          1324.47580	         9.74344e+57
          1325.28210	         9.34191e+57
          1326.08840	         1.21581e+58
          1326.89470	         1.23695e+58
          1327.70100	         8.73449e+57
          1328.50730	         8.51754e+57
          1329.31360	         9.62514e+57
          1330.11990	         8.62473e+57
          1330.92620	         7.87829e+57
          1331.73250	         1.01301e+58
          1332.53880	         1.04696e+58
          1333.34510	         9.84905e+57
          1334.15140	         8.54890e+57
          1334.95770	         8.16231e+57
          1335.76400	         9.77959e+57
          1336.57030	         1.16414e+58
          1337.37660	         1.25801e+58
          1338.18290	         1.14735e+58
          1338.98920	         1.16623e+58
          1339.79550	         1.24201e+58
          1340.60180	         1.26317e+58
          1341.40810	         1.46697e+58
          1342.21440	         1.30204e+58
          1343.02070	         1.12789e+58
          1343.82700	         1.16804e+58
          1344.63330	         1.19067e+58
          1345.43960	         1.26960e+58
          1346.24590	         1.21889e+58
          1347.05220	         1.24021e+58
          1347.85850	         9.58805e+57
          1348.66480	         1.21493e+58
          1349.47110	         1.30778e+58
          1350.27740	         1.06038e+58
          1351.08370	         1.07378e+58
          1351.89000	         1.14582e+58
          1352.69630	         1.15241e+58
          1353.50260	         1.22942e+58
          1354.30890	         1.14016e+58
          1355.11520	         1.21951e+58
          1355.92150	         1.22998e+58
          1356.72780	         9.13350e+57
          1357.53410	         9.66218e+57
          1358.34040	         1.02700e+58
          1359.14670	         9.69539e+57
          1359.95300	         1.09603e+58
          1360.75930	         1.11894e+58
          1361.56560	         1.02872e+58
          1362.37190	         1.16640e+58
          1363.17820	         1.16785e+58
          1363.98450	         1.20535e+58
          1364.79080	         1.30014e+58
          1365.59710	         1.26806e+58
          1366.40340	         1.19358e+58
          1367.20970	         1.10271e+58
          1368.01600	         1.05510e+58
          1368.82230	         8.64681e+57
          1369.62860	         9.18492e+57
          1370.43490	         9.61707e+57
          1371.24120	         9.91516e+57
          1372.04750	         9.05892e+57
          1372.85380	         1.06253e+58
          1373.66010	         1.14959e+58
          1374.46640	         1.17376e+58
          1375.27270	         1.17487e+58
          1376.07900	         9.37215e+57
          1376.88530	         8.04046e+57
          1377.69160	         8.44418e+57
          1378.49790	         8.10471e+57
          1379.30420	         7.32937e+57
          1380.11050	         8.50930e+57
          1380.91680	         8.74202e+57
          1381.72310	         7.58009e+57
          1382.52940	         9.40909e+57
          1383.33570	         1.02556e+58
          1384.14200	         1.10520e+58
          1384.94830	         1.05964e+58
          1385.75460	         9.31344e+57
          1386.56090	         9.73265e+57
          1387.36720	         1.16707e+58
          1388.17350	         1.33357e+58
          1388.97980	         1.19248e+58
          1389.78610	         9.72198e+57
          1390.59240	         7.36401e+57
          1391.39870	         7.25674e+57
          1392.20500	         8.90626e+57
          1393.01130	         7.31781e+57
          1393.81760	         7.53779e+57
          1394.62390	         8.20447e+57
          1395.43020	         6.22390e+57
          1396.23650	         6.58142e+57
          1397.04280	         7.70196e+57
          1397.84910	         8.62996e+57
          1398.65540	         9.95165e+57
          1399.46170	         1.02387e+58
          1400.26800	         8.69641e+57
          1401.07430	         7.82148e+57
          1401.88060	         8.00765e+57
          1402.68690	         7.98496e+57
          1403.49320	         1.03585e+58
          1404.29950	         1.06615e+58
          1405.10580	         1.12288e+58
          1405.91210	         1.07037e+58
          1406.71840	         9.79041e+57
          1407.52470	         1.11120e+58
          1408.33100	         1.16935e+58
          1409.13730	         1.20448e+58
          1409.94360	         1.06718e+58
          1410.74990	         1.00079e+58
          1411.55620	         1.06091e+58
          1412.36250	         1.00987e+58
          1413.16880	         8.71757e+57
          1413.97510	         7.83695e+57
          1414.78140	         7.32724e+57
          1415.58770	         9.98998e+57
          1416.39400	         1.14063e+58
          1417.20030	         1.15151e+58
          1418.00660	         9.53546e+57
          1418.81290	         9.07044e+57
          1419.61920	         1.01877e+58
          1420.42550	         1.17276e+58
          1421.23180	         1.35828e+58
          1422.03810	         1.35725e+58
          1422.84440	         1.30926e+58
          1423.65070	         1.31838e+58
          1424.45700	         1.10205e+58
          1425.26330	         9.20376e+57
          1426.06960	         8.88964e+57
          1426.87590	         9.63936e+57
          1427.68220	         9.76489e+57
          1428.48850	         1.05168e+58
          1429.29480	         9.74150e+57
          1430.10110	         9.92961e+57
          1430.90740	         8.50080e+57
          1431.71370	         8.03603e+57
          1432.52000	         9.04875e+57
          1433.32630	         8.09318e+57
          1434.13260	         7.55724e+57
          1434.93890	         7.85794e+57
          1435.74520	         8.50522e+57
          1436.55150	         9.13853e+57
          1437.35780	         8.58365e+57
          1438.16410	         9.15887e+57
          1438.97040	         9.29375e+57
          1439.77670	         8.53342e+57
          1440.58300	         8.92660e+57
          1441.38930	         8.82825e+57
          1442.19560	         9.68067e+57
          1443.00190	         1.00792e+58
          1443.80820	         1.05709e+58
          1444.61450	         9.41082e+57
          1445.42080	         8.56844e+57
          1446.22710	         1.01399e+58
          1447.03340	         1.02106e+58
          1447.83970	         1.12964e+58
          1448.64600	         1.03754e+58
          1449.45230	         9.79374e+57
          1450.25860	         1.03212e+58
          1451.06490	         9.25507e+57
          1451.87120	         8.05672e+57
          1452.67750	         7.55369e+57
          1453.48380	         7.50186e+57
          1454.29010	         7.20404e+57
          1455.09640	         7.62483e+57
          1455.90270	         8.40754e+57
          1456.70900	         8.63715e+57
          1457.51530	         9.64850e+57
          1458.32160	         1.15713e+58
          1459.12790	         1.10473e+58
          1459.93420	         9.39011e+57
          1460.74050	         8.48210e+57
          1461.54680	         7.30990e+57
          1462.35310	         7.60477e+57
          1463.15940	         9.28069e+57
          1463.96570	         1.02324e+58
          1464.77200	         1.06811e+58
          1465.57830	         1.08642e+58
          1466.38460	         1.01220e+58
          1467.19090	         8.57704e+57
          1467.99720	         8.28994e+57
          1468.80350	         8.88891e+57
          1469.60980	         9.14194e+57
          1470.41610	         8.67402e+57
          1471.22240	         8.27085e+57
          1472.02870	         9.02708e+57
          1472.83500	         9.51191e+57
          1473.64130	         9.53663e+57
          1474.44760	         9.61036e+57
          1475.25390	         1.03365e+58
          1476.06020	         9.71051e+57
          1476.86650	         8.75267e+57
          1477.67280	         7.91411e+57
          1478.47910	         6.71363e+57
          1479.28540	         6.77138e+57
          1480.09170	         8.34173e+57
          1480.89800	         8.61359e+57
          1481.70430	         8.51520e+57
          1482.51060	         9.26850e+57
          1483.31690	         7.88966e+57
          1484.12320	         7.70341e+57
          1484.92950	         9.02323e+57
          1485.73580	         7.89287e+57
          1486.54210	         8.49931e+57
          1487.34840	         9.24216e+57
          1488.15470	         8.66578e+57
          1488.96100	         8.32436e+57
          1489.76730	         8.55687e+57
