#sample_238_stacked_spectrum_rest_UV-bands_median_H-alpha_noDC.txt
#median Lum: 1.70091e+42
#Rest-frame wavelength (A) | Luminosity (erg/s/A)
#
          1110.00000	         0.00000e+00
          1110.80630	        -3.06874e+58
          1111.61260	         2.46907e+58
          1112.41890	         1.26214e+59
          1113.22520	        -5.25681e+58
          1114.03150	        -8.69363e+58
          1114.83780	         1.60754e+59
          1115.64410	         1.57244e+59
          1116.45040	        -1.20303e+58
          1117.25670	        -4.35222e+58
          1118.06300	         1.74693e+59
          1118.86930	        -4.03242e+57
          1119.67560	         2.59991e+58
          1120.48190	        -1.58881e+58
          1121.28820	        -1.40144e+59
          1122.09450	         6.39928e+57
          1122.90080	        -2.09404e+58
          1123.70710	         2.97773e+58
          1124.51340	         7.30362e+58
          1125.31970	        -5.89048e+57
          1126.12600	        -5.07294e+58
          1126.93230	        -4.76859e+58
          1127.73860	        -9.29401e+58
          1128.54490	         1.50752e+58
          1129.35120	         3.53848e+58
          1130.15750	        -2.20282e+58
          1130.96380	         1.63917e+58
          1131.77010	         6.01062e+58
          1132.57640	         3.80838e+58
          1133.38270	         4.01784e+58
          1134.18900	         5.14206e+58
          1134.99530	         4.18073e+58
          1135.80160	         2.79492e+58
          1136.60790	         1.54128e+58
          1137.41420	         3.67106e+57
          1138.22050	         3.78202e+58
          1139.02680	         2.22298e+58
          1139.83310	         2.60733e+58
          1140.63940	         2.41565e+58
          1141.44570	         4.36212e+56
          1142.25200	        -1.41814e+58
          1143.05830	         6.96592e+57
          1143.86460	         2.76503e+58
          1144.67090	         1.18094e+58
          1145.47720	         6.72991e+57
          1146.28350	         2.10828e+58
          1147.08980	         2.43992e+58
          1147.89610	         1.80079e+58
          1148.70240	         5.29532e+57
          1149.50870	         2.90273e+58
          1150.31500	         1.71136e+58
          1151.12130	         1.14856e+58
          1151.92760	         1.92104e+58
          1152.73390	         1.45165e+58
          1153.54020	        -1.98592e+57
          1154.34650	         2.02793e+58
          1155.15280	         1.22177e+58
          1155.95910	         1.18531e+58
          1156.76540	         1.48910e+58
          1157.57170	         9.57462e+57
          1158.37800	        -1.00725e+58
          1159.18430	        -5.51206e+57
          1159.99060	         8.35204e+57
          1160.79690	         9.27523e+57
          1161.60320	         2.35358e+58
          1162.40950	         9.58111e+57
          1163.21580	         8.71929e+57
          1164.02210	         7.76876e+57
          1164.82840	         9.30320e+57
          1165.63470	         2.62172e+58
          1166.44100	         3.41086e+58
          1167.24730	         1.65592e+58
          1168.05360	         4.04305e+57
          1168.85990	         6.27346e+57
          1169.66620	         1.58558e+58
          1170.47250	         1.77841e+58
          1171.27880	         1.37329e+58
          1172.08510	         2.09225e+58
          1172.89140	         1.63936e+58
          1173.69770	         6.72387e+57
          1174.50400	         9.56759e+57
          1175.31030	         1.39745e+58
          1176.11660	         1.12267e+58
          1176.92290	         1.49375e+58
          1177.72920	         8.80934e+57
          1178.53550	         3.94190e+57
          1179.34180	         2.58710e+57
          1180.14810	         8.07037e+57
          1180.95440	         9.12392e+57
          1181.76070	         1.17641e+58
          1182.56700	         1.29587e+58
          1183.37330	         4.52805e+57
          1184.17960	         1.04458e+58
          1184.98590	         8.21911e+57
          1185.79220	         7.03498e+57
          1186.59850	         1.46842e+58
          1187.40480	         1.21907e+58
          1188.21110	         1.21209e+58
          1189.01740	         9.68490e+57
          1189.82370	         8.38225e+57
          1190.63000	         9.13188e+57
          1191.43630	         1.10828e+58
          1192.24260	         4.73511e+57
          1193.04890	         1.13582e+58
          1193.85520	         1.05117e+58
          1194.66150	         8.51337e+57
          1195.46780	         1.27076e+58
          1196.27410	         1.75313e+58
          1197.08040	         1.53452e+58
          1197.88670	         1.78356e+58
          1198.69300	         2.04690e+58
          1199.49930	         1.84309e+58
          1200.30560	         1.30239e+58
          1201.11190	         1.05747e+58
          1201.91820	         8.93536e+57
          1202.72450	         6.73065e+57
          1203.53080	         1.14595e+58
          1204.33710	         5.93340e+57
          1205.14340	         1.04191e+58
          1205.94970	         1.01408e+58
          1206.75600	         8.54478e+57
          1207.56230	         6.68910e+57
          1208.36860	         7.95014e+57
          1209.17490	         3.78690e+57
          1209.98120	         2.06726e+57
          1210.78750	         6.10227e+57
          1211.59380	         9.13383e+57
          1212.40010	         1.43914e+58
          1213.20640	         2.18556e+58
          1214.01270	         2.05718e+58
          1214.81900	         2.82455e+58
          1215.62530	         4.60526e+58
          1216.43160	         8.60932e+58
          1217.23790	         1.52140e+59
          1218.04420	         1.18393e+59
          1218.85050	         8.92054e+58
          1219.65680	         6.04677e+58
          1220.46310	         3.51966e+58
          1221.26940	         2.35157e+58
          1222.07570	         1.45330e+58
          1222.88200	         1.10166e+58
          1223.68830	         1.22013e+58
          1224.49460	         9.72054e+57
          1225.30090	         7.04912e+57
          1226.10720	         5.93449e+57
          1226.91350	         7.88916e+57
          1227.71980	         9.85576e+57
          1228.52610	         1.34384e+58
          1229.33240	         9.69897e+57
          1230.13870	         7.11192e+57
          1230.94500	         5.82640e+57
          1231.75130	         5.90198e+57
          1232.55760	         8.36138e+57
          1233.36390	         9.58678e+57
          1234.17020	         9.61327e+57
          1234.97650	         7.10670e+57
          1235.78280	         7.46474e+57
          1236.58910	         9.61642e+57
          1237.39540	         1.32146e+58
          1238.20170	         1.27809e+58
          1239.00800	         1.32384e+58
          1239.81430	         1.38257e+58
          1240.62060	         1.12333e+58
          1241.42690	         9.80863e+57
          1242.23320	         1.27581e+58
          1243.03950	         9.18142e+57
          1243.84580	         9.03809e+57
          1244.65210	         1.25083e+58
          1245.45840	         1.22974e+58
          1246.26470	         1.02992e+58
          1247.07100	         6.25024e+57
          1247.87730	         7.57142e+57
          1248.68360	         3.72755e+57
          1249.48990	         7.37284e+57
          1250.29620	         1.07535e+58
          1251.10250	         9.91965e+57
          1251.90880	         7.36186e+57
          1252.71510	         8.76072e+57
          1253.52140	         9.03258e+57
          1254.32770	         1.10208e+58
          1255.13400	         1.55205e+58
          1255.94030	         1.20018e+58
          1256.74660	         9.45235e+57
          1257.55290	         1.06099e+58
          1258.35920	         6.91409e+57
          1259.16550	         4.94811e+57
          1259.97180	         7.23055e+57
          1260.77810	         9.21023e+57
          1261.58440	         8.21126e+57
          1262.39070	         7.41865e+57
          1263.19700	         7.01264e+57
          1264.00330	         9.81109e+57
          1264.80960	         1.17350e+58
          1265.61590	         1.29733e+58
          1266.42220	         1.39949e+58
          1267.22850	         1.12929e+58
          1268.03480	         1.19681e+58
          1268.84110	         1.39715e+58
          1269.64740	         1.36272e+58
          1270.45370	         1.31106e+58
          1271.26000	         1.20554e+58
          1272.06630	         1.34819e+58
          1272.87260	         1.50938e+58
          1273.67890	         1.43811e+58
          1274.48520	         1.50489e+58
          1275.29150	         1.49081e+58
          1276.09780	         1.25545e+58
          1276.90410	         1.37982e+58
          1277.71040	         1.28634e+58
          1278.51670	         1.16528e+58
          1279.32300	         1.35661e+58
          1280.12930	         1.39134e+58
          1280.93560	         1.12091e+58
          1281.74190	         1.14492e+58
          1282.54820	         1.37195e+58
          1283.35450	         1.44358e+58
          1284.16080	         1.07245e+58
          1284.96710	         1.22410e+58
          1285.77340	         1.27290e+58
          1286.57970	         1.12887e+58
          1287.38600	         1.34585e+58
          1288.19230	         1.63857e+58
          1288.99860	         1.50710e+58
          1289.80490	         1.02100e+58
          1290.61120	         1.20752e+58
          1291.41750	         1.28033e+58
          1292.22380	         1.01927e+58
          1293.03010	         1.01834e+58
          1293.83640	         1.17571e+58
          1294.64270	         1.01839e+58
          1295.44900	         6.99520e+57
          1296.25530	         7.39599e+57
          1297.06160	         9.45159e+57
          1297.86790	         1.11612e+58
          1298.67420	         1.07512e+58
          1299.48050	         1.02114e+58
          1300.28680	         1.01530e+58
          1301.09310	         6.96709e+57
          1301.89940	         3.86759e+57
          1302.70570	         5.52338e+57
          1303.51200	         7.05340e+57
          1304.31830	         9.25199e+57
          1305.12460	         1.02769e+58
          1305.93090	         1.03543e+58
          1306.73720	         1.31875e+58
          1307.54350	         1.48327e+58
          1308.34980	         1.56408e+58
          1309.15610	         1.68806e+58
          1309.96240	         1.56449e+58
          1310.76870	         1.34659e+58
          1311.57500	         1.33393e+58
          1312.38130	         1.24692e+58
          1313.18760	         1.54480e+58
          1313.99390	         1.67104e+58
          1314.80020	         1.69469e+58
          1315.60650	         1.64942e+58
          1316.41280	         1.28537e+58
          1317.21910	         1.05254e+58
          1318.02540	         1.13353e+58
          1318.83170	         1.23632e+58
          1319.63800	         1.20307e+58
          1320.44430	         1.13569e+58
          1321.25060	         1.15531e+58
          1322.05690	         1.14894e+58
          1322.86320	         1.17358e+58
          1323.66950	         1.09098e+58
          1324.47580	         9.13794e+57
          1325.28210	         9.61438e+57
          1326.08840	         1.26101e+58
          1326.89470	         1.24854e+58
          1327.70100	         8.40849e+57
          1328.50730	         6.87477e+57
          1329.31360	         8.50432e+57
          1330.11990	         9.47182e+57
          1330.92620	         8.95591e+57
          1331.73250	         1.00077e+58
          1332.53880	         9.56962e+57
          1333.34510	         9.38331e+57
          1334.15140	         8.64862e+57
          1334.95770	         8.89291e+57
          1335.76400	         1.06355e+58
          1336.57030	         1.10810e+58
          1337.37660	         1.19830e+58
          1338.18290	         1.26923e+58
          1338.98920	         1.17979e+58
          1339.79550	         1.13974e+58
          1340.60180	         1.14115e+58
          1341.40810	         1.41786e+58
          1342.21440	         1.32251e+58
          1343.02070	         1.13267e+58
          1343.82700	         1.31735e+58
          1344.63330	         1.31498e+58
          1345.43960	         1.27843e+58
          1346.24590	         1.19429e+58
          1347.05220	         1.36880e+58
          1347.85850	         1.18006e+58
          1348.66480	         1.30128e+58
          1349.47110	         1.52519e+58
          1350.27740	         1.27792e+58
          1351.08370	         1.10637e+58
          1351.89000	         1.12462e+58
          1352.69630	         1.06591e+58
          1353.50260	         1.23072e+58
          1354.30890	         1.21833e+58
          1355.11520	         1.06983e+58
          1355.92150	         9.86783e+57
          1356.72780	         1.04409e+58
          1357.53410	         1.21825e+58
          1358.34040	         1.24668e+58
          1359.14670	         1.11076e+58
          1359.95300	         1.15434e+58
          1360.75930	         1.26035e+58
          1361.56560	         1.20736e+58
          1362.37190	         1.17872e+58
          1363.17820	         1.25567e+58
          1363.98450	         1.34515e+58
          1364.79080	         1.39813e+58
          1365.59710	         1.45385e+58
          1366.40340	         1.24833e+58
          1367.20970	         1.15016e+58
          1368.01600	         9.34228e+57
          1368.82230	         8.59663e+57
          1369.62860	         1.23719e+58
          1370.43490	         1.04500e+58
          1371.24120	         1.02436e+58
          1372.04750	         8.75031e+57
          1372.85380	         1.04244e+58
          1373.66010	         1.13601e+58
          1374.46640	         9.14211e+57
          1375.27270	         9.59068e+57
          1376.07900	         9.09421e+57
          1376.88530	         8.46001e+57
          1377.69160	         8.07090e+57
          1378.49790	         8.80406e+57
          1379.30420	         8.49645e+57
          1380.11050	         9.36591e+57
          1380.91680	         9.86649e+57
          1381.72310	         8.64171e+57
          1382.52940	         7.91320e+57
          1383.33570	         8.04388e+57
          1384.14200	         1.03838e+58
          1384.94830	         1.08039e+58
          1385.75460	         1.14500e+58
          1386.56090	         1.12638e+58
          1387.36720	         9.70008e+57
          1388.17350	         1.18263e+58
          1388.97980	         1.19153e+58
          1389.78610	         8.21188e+57
          1390.59240	         7.23603e+57
          1391.39870	         8.13115e+57
          1392.20500	         8.27441e+57
          1393.01130	         7.78625e+57
          1393.81760	         7.66419e+57
          1394.62390	         6.60447e+57
          1395.43020	         6.36040e+57
          1396.23650	         6.50275e+57
          1397.04280	         6.28164e+57
          1397.84910	         8.81186e+57
          1398.65540	         8.95916e+57
          1399.46170	         9.95181e+57
          1400.26800	         8.92494e+57
          1401.07430	         8.14824e+57
          1401.88060	         8.49355e+57
          1402.68690	         8.93437e+57
          1403.49320	         9.65292e+57
          1404.29950	         9.50877e+57
          1405.10580	         1.11279e+58
          1405.91210	         1.22516e+58
          1406.71840	         1.06655e+58
          1407.52470	         9.91404e+57
          1408.33100	         1.17028e+58
          1409.13730	         1.32910e+58
          1409.94360	         1.13039e+58
          1410.74990	         1.13300e+58
          1411.55620	         1.06962e+58
          1412.36250	         8.90005e+57
          1413.16880	         9.66617e+57
          1413.97510	         1.01303e+58
          1414.78140	         1.01350e+58
          1415.58770	         1.08486e+58
          1416.39400	         1.06914e+58
          1417.20030	         1.11994e+58
          1418.00660	         1.05450e+58
          1418.81290	         1.19612e+58
          1419.61920	         1.03941e+58
          1420.42550	         1.08300e+58
          1421.23180	         1.37033e+58
          1422.03810	         1.26361e+58
          1422.84440	         1.13907e+58
          1423.65070	         1.31218e+58
          1424.45700	         1.16858e+58
          1425.26330	         9.30739e+57
          1426.06960	         1.03042e+58
          1426.87590	         1.18808e+58
          1427.68220	         1.11660e+58
          1428.48850	         1.08321e+58
          1429.29480	         1.03877e+58
          1430.10110	         9.76084e+57
          1430.90740	         8.41221e+57
          1431.71370	         8.98085e+57
          1432.52000	         9.47877e+57
          1433.32630	         8.58677e+57
          1434.13260	         8.83061e+57
          1434.93890	         8.70407e+57
          1435.74520	         8.85833e+57
          1436.55150	         9.39074e+57
          1437.35780	         9.71013e+57
          1438.16410	         9.56517e+57
          1438.97040	         9.35705e+57
          1439.77670	         9.32722e+57
          1440.58300	         9.24892e+57
          1441.38930	         1.01451e+58
          1442.19560	         1.00547e+58
          1443.00190	         8.88743e+57
          1443.80820	         1.00301e+58
          1444.61450	         9.61318e+57
          1445.42080	         8.19347e+57
          1446.22710	         9.73091e+57
          1447.03340	         9.75059e+57
          1447.83970	         1.00022e+58
          1448.64600	         9.85107e+57
          1449.45230	         1.05117e+58
          1450.25860	         1.15606e+58
          1451.06490	         9.88269e+57
          1451.87120	         7.50372e+57
          1452.67750	         7.23858e+57
          1453.48380	         8.44093e+57
          1454.29010	         7.94688e+57
          1455.09640	         6.63228e+57
          1455.90270	         8.04140e+57
          1456.70900	         8.26618e+57
          1457.51530	         1.05799e+58
          1458.32160	         1.34241e+58
          1459.12790	         1.19661e+58
          1459.93420	         9.42129e+57
          1460.74050	         8.23142e+57
          1461.54680	         8.67479e+57
          1462.35310	         8.08320e+57
          1463.15940	         9.97866e+57
          1463.96570	         1.13422e+58
          1464.77200	         1.17588e+58
          1465.57830	         1.02472e+58
          1466.38460	         8.25501e+57
          1467.19090	         8.72855e+57
          1467.99720	         1.02077e+58
          1468.80350	         1.09583e+58
          1469.60980	         1.03644e+58
          1470.41610	         1.09198e+58
          1471.22240	         9.59159e+57
          1472.02870	         9.26087e+57
          1472.83500	         9.06644e+57
          1473.64130	         1.00408e+58
          1474.44760	         1.08153e+58
          1475.25390	         9.28322e+57
          1476.06020	         8.20484e+57
          1476.86650	         8.62629e+57
          1477.67280	         8.48043e+57
          1478.47910	         6.65042e+57
          1479.28540	         7.33037e+57
          1480.09170	         1.02360e+58
          1480.89800	         8.06836e+57
          1481.70430	         6.78209e+57
          1482.51060	         8.35286e+57
          1483.31690	         8.65609e+57
          1484.12320	         8.53108e+57
          1484.92950	         8.58862e+57
          1485.73580	         8.59268e+57
          1486.54210	         8.97236e+57
          1487.34840	         8.75848e+57
          1488.15470	         8.55043e+57
          1488.96100	         8.61135e+57
          1489.76730	         9.17769e+57
