#sample_280_stacked_spectrum_rest_UV-bands_median_H-alpha_noDC.txt
#median Lum: 1.70737e+42
#Rest-frame wavelength (A) | Luminosity (erg/s/A)
#
          1110.00000	         0.00000e+00
          1110.80630	        -3.68144e+59
          1111.61260	         2.76908e+59
          1112.41890	         1.15445e+59
          1113.22520	        -1.95935e+59
          1114.03150	        -1.79820e+59
          1114.83780	         2.03918e+59
          1115.64410	         2.70918e+58
          1116.45040	         7.90267e+58
          1117.25670	         8.74379e+58
          1118.06300	         2.68113e+58
          1118.86930	        -2.49354e+58
          1119.67560	         8.98993e+58
          1120.48190	         2.70388e+58
          1121.28820	        -2.03538e+59
          1122.09450	        -2.89319e+57
          1122.90080	         4.05541e+58
          1123.70710	         1.10617e+59
          1124.51340	         1.04806e+59
          1125.31970	         5.97531e+58
          1126.12600	         8.50892e+58
          1126.93230	        -4.20497e+58
          1127.73860	        -8.30706e+58
          1128.54490	         1.94265e+58
          1129.35120	         1.23199e+58
          1130.15750	        -3.85557e+58
          1130.96380	        -2.84661e+58
          1131.77010	         5.22106e+58
          1132.57640	         6.25135e+58
          1133.38270	         4.23734e+58
          1134.18900	         3.28230e+58
          1134.99530	         1.90576e+58
          1135.80160	         2.86683e+58
          1136.60790	         3.63806e+58
          1137.41420	         1.52531e+57
          1138.22050	         3.73730e+58
          1139.02680	         4.53411e+58
          1139.83310	         1.92688e+58
          1140.63940	         3.40567e+58
          1141.44570	        -1.54509e+58
          1142.25200	        -6.71462e+57
          1143.05830	         9.40559e+57
          1143.86460	         1.86075e+58
          1144.67090	         9.58513e+57
          1145.47720	         1.79208e+58
          1146.28350	         1.04307e+58
          1147.08980	         7.49739e+57
          1147.89610	         1.62204e+58
          1148.70240	         2.67706e+58
          1149.50870	         3.10568e+58
          1150.31500	         1.93828e+58
          1151.12130	        -5.51889e+55
          1151.92760	         5.08038e+56
          1152.73390	         2.51969e+57
          1153.54020	        -5.41722e+57
          1154.34650	         1.78893e+58
          1155.15280	         1.35970e+58
          1155.95910	         6.94997e+57
          1156.76540	         3.27919e+57
          1157.57170	         7.23689e+57
          1158.37800	         1.40695e+58
          1159.18430	         1.23510e+57
          1159.99060	         1.16767e+58
          1160.79690	         1.52599e+58
          1161.60320	         1.57073e+58
          1162.40950	         1.97462e+58
          1163.21580	         2.59174e+58
          1164.02210	         1.40099e+58
          1164.82840	         1.03491e+58
          1165.63470	         1.61955e+58
          1166.44100	         2.61671e+58
          1167.24730	         2.04161e+58
          1168.05360	         9.71029e+57
          1168.85990	         1.31798e+58
          1169.66620	         8.48592e+57
          1170.47250	         1.44656e+58
          1171.27880	         1.30883e+58
          1172.08510	         1.38042e+58
          1172.89140	         1.24236e+58
          1173.69770	         1.36530e+57
          1174.50400	         1.24425e+58
          1175.31030	         1.83223e+58
          1176.11660	         1.79764e+58
          1176.92290	         1.35155e+58
          1177.72920	         7.88393e+57
          1178.53550	         6.16577e+57
          1179.34180	         1.03223e+57
          1180.14810	         5.90381e+57
          1180.95440	         9.55616e+57
          1181.76070	         1.14354e+58
          1182.56700	         1.55373e+58
          1183.37330	         1.36539e+58
          1184.17960	         1.32509e+58
          1184.98590	         1.09272e+58
          1185.79220	         8.74769e+57
          1186.59850	         1.30516e+58
          1187.40480	         1.44721e+58
          1188.21110	         2.01177e+58
          1189.01740	         1.16972e+58
          1189.82370	         7.44709e+57
          1190.63000	         9.75810e+57
          1191.43630	         1.09939e+58
          1192.24260	         1.08683e+58
          1193.04890	         1.43108e+58
          1193.85520	         1.39219e+58
          1194.66150	         8.69825e+57
          1195.46780	         1.27405e+58
          1196.27410	         1.58044e+58
          1197.08040	         1.21714e+58
          1197.88670	         1.33135e+58
          1198.69300	         9.70735e+57
          1199.49930	         1.02825e+58
          1200.30560	         8.38033e+57
          1201.11190	         1.18165e+58
          1201.91820	         1.60523e+58
          1202.72450	         1.13444e+58
          1203.53080	         1.30011e+58
          1204.33710	         9.44629e+57
          1205.14340	         6.54494e+57
          1205.94970	         8.37317e+57
          1206.75600	         6.20676e+57
          1207.56230	         4.27109e+57
          1208.36860	         7.81061e+57
          1209.17490	         3.53214e+57
          1209.98120	         2.65606e+57
          1210.78750	         1.14900e+58
          1211.59380	         1.20938e+58
          1212.40010	         1.74722e+58
          1213.20640	         1.79581e+58
          1214.01270	         2.05819e+58
          1214.81900	         2.61572e+58
          1215.62530	         4.06027e+58
          1216.43160	         9.03924e+58
          1217.23790	         1.53828e+59
          1218.04420	         1.12216e+59
          1218.85050	         8.99242e+58
          1219.65680	         6.20492e+58
          1220.46310	         3.49766e+58
          1221.26940	         2.18443e+58
          1222.07570	         1.43902e+58
          1222.88200	         1.33859e+58
          1223.68830	         7.62641e+57
          1224.49460	         4.72283e+57
          1225.30090	         6.76339e+57
          1226.10720	         5.52406e+57
          1226.91350	         6.35299e+57
          1227.71980	         9.30621e+57
          1228.52610	         1.09211e+58
          1229.33240	         1.09093e+58
          1230.13870	         1.15439e+58
          1230.94500	         7.90635e+57
          1231.75130	         7.31583e+57
          1232.55760	         8.71297e+57
          1233.36390	         8.03295e+57
          1234.17020	         8.15700e+57
          1234.97650	         7.73943e+57
          1235.78280	         7.77021e+57
          1236.58910	         9.39532e+57
          1237.39540	         1.20630e+58
          1238.20170	         1.20768e+58
          1239.00800	         1.40001e+58
          1239.81430	         1.77415e+58
          1240.62060	         1.49692e+58
          1241.42690	         1.28611e+58
          1242.23320	         1.26413e+58
          1243.03950	         8.02450e+57
          1243.84580	         9.04536e+57
          1244.65210	         7.63669e+57
          1245.45840	         7.68693e+57
          1246.26470	         1.06817e+58
          1247.07100	         8.17242e+57
          1247.87730	         6.03156e+57
          1248.68360	         6.86415e+57
          1249.48990	         9.81656e+57
          1250.29620	         9.06507e+57
          1251.10250	         7.27375e+57
          1251.90880	         4.68716e+57
          1252.71510	         5.17922e+57
          1253.52140	         7.25337e+57
          1254.32770	         9.06979e+57
          1255.13400	         1.23178e+58
          1255.94030	         1.29305e+58
          1256.74660	         8.83630e+57
          1257.55290	         8.47578e+57
          1258.35920	         8.71944e+57
          1259.16550	         5.92426e+57
          1259.97180	         5.94861e+57
          1260.77810	         9.56949e+57
          1261.58440	         8.87921e+57
          1262.39070	         6.80735e+57
          1263.19700	         9.21835e+57
          1264.00330	         9.84462e+57
          1264.80960	         1.09917e+58
          1265.61590	         1.33491e+58
          1266.42220	         1.23285e+58
          1267.22850	         9.51222e+57
          1268.03480	         1.40432e+58
          1268.84110	         1.79027e+58
          1269.64740	         1.55346e+58
          1270.45370	         1.36049e+58
          1271.26000	         1.26015e+58
          1272.06630	         1.34815e+58
          1272.87260	         1.28523e+58
          1273.67890	         1.35928e+58
          1274.48520	         1.28840e+58
          1275.29150	         1.22864e+58
          1276.09780	         1.04414e+58
          1276.90410	         1.47109e+58
          1277.71040	         1.52857e+58
          1278.51670	         1.29892e+58
          1279.32300	         1.31842e+58
          1280.12930	         1.30040e+58
          1280.93560	         1.24550e+58
          1281.74190	         1.07633e+58
          1282.54820	         1.10501e+58
          1283.35450	         1.10493e+58
          1284.16080	         1.18180e+58
          1284.96710	         1.31336e+58
          1285.77340	         1.15294e+58
          1286.57970	         1.04715e+58
          1287.38600	         1.21664e+58
          1288.19230	         1.70078e+58
          1288.99860	         1.85618e+58
          1289.80490	         1.26654e+58
          1290.61120	         1.32617e+58
          1291.41750	         1.51186e+58
          1292.22380	         1.31584e+58
          1293.03010	         1.17223e+58
          1293.83640	         1.09810e+58
          1294.64270	         1.07741e+58
          1295.44900	         1.01148e+58
          1296.25530	         7.59439e+57
          1297.06160	         7.76169e+57
          1297.86790	         9.74920e+57
          1298.67420	         8.86169e+57
          1299.48050	         9.39365e+57
          1300.28680	         9.55793e+57
          1301.09310	         7.68797e+57
          1301.89940	         4.44999e+57
          1302.70570	         7.03590e+57
          1303.51200	         9.06605e+57
          1304.31830	         9.57488e+57
          1305.12460	         9.40379e+57
          1305.93090	         1.10817e+58
          1306.73720	         1.12706e+58
          1307.54350	         1.36980e+58
          1308.34980	         1.47383e+58
          1309.15610	         1.38381e+58
          1309.96240	         1.46990e+58
          1310.76870	         1.48379e+58
          1311.57500	         1.24473e+58
          1312.38130	         1.09879e+58
          1313.18760	         1.18299e+58
          1313.99390	         1.41702e+58
          1314.80020	         1.52346e+58
          1315.60650	         1.47602e+58
          1316.41280	         1.41296e+58
          1317.21910	         1.14284e+58
          1318.02540	         1.21724e+58
          1318.83170	         1.30698e+58
          1319.63800	         1.22700e+58
          1320.44430	         1.19699e+58
          1321.25060	         1.28770e+58
          1322.05690	         1.24222e+58
          1322.86320	         1.09568e+58
          1323.66950	         1.16206e+58
          1324.47580	         9.25771e+57
          1325.28210	         8.99699e+57
          1326.08840	         1.21582e+58
          1326.89470	         1.40711e+58
          1327.70100	         1.07433e+58
          1328.50730	         8.15022e+57
          1329.31360	         9.83335e+57
          1330.11990	         1.04178e+58
          1330.92620	         1.05309e+58
          1331.73250	         1.21747e+58
          1332.53880	         1.02288e+58
          1333.34510	         9.01552e+57
          1334.15140	         8.99201e+57
          1334.95770	         1.00510e+58
          1335.76400	         1.12298e+58
          1336.57030	         1.17252e+58
          1337.37660	         1.06925e+58
          1338.18290	         1.11549e+58
          1338.98920	         1.20873e+58
          1339.79550	         1.14988e+58
          1340.60180	         1.13891e+58
          1341.40810	         1.35971e+58
          1342.21440	         1.35103e+58
          1343.02070	         1.19187e+58
          1343.82700	         1.25502e+58
          1344.63330	         1.33582e+58
          1345.43960	         1.45933e+58
          1346.24590	         1.32422e+58
          1347.05220	         1.26856e+58
          1347.85850	         1.19532e+58
          1348.66480	         1.30350e+58
          1349.47110	         1.31303e+58
          1350.27740	         1.16073e+58
          1351.08370	         1.11757e+58
          1351.89000	         1.27168e+58
          1352.69630	         1.21660e+58
          1353.50260	         1.24908e+58
          1354.30890	         1.20656e+58
          1355.11520	         1.20436e+58
          1355.92150	         1.15957e+58
          1356.72780	         1.11768e+58
          1357.53410	         1.05446e+58
          1358.34040	         1.10174e+58
          1359.14670	         1.11495e+58
          1359.95300	         1.29385e+58
          1360.75930	         1.17402e+58
          1361.56560	         1.04542e+58
          1362.37190	         1.10934e+58
          1363.17820	         1.03329e+58
          1363.98450	         1.04241e+58
          1364.79080	         1.22305e+58
          1365.59710	         1.39339e+58
          1366.40340	         1.08300e+58
          1367.20970	         9.03574e+57
          1368.01600	         9.09910e+57
          1368.82230	         1.04702e+58
          1369.62860	         1.05258e+58
          1370.43490	         8.10365e+57
          1371.24120	         9.21227e+57
          1372.04750	         9.79240e+57
          1372.85380	         9.73300e+57
          1373.66010	         1.09966e+58
          1374.46640	         1.11337e+58
          1375.27270	         1.04614e+58
          1376.07900	         9.69530e+57
          1376.88530	         8.64335e+57
          1377.69160	         8.55440e+57
          1378.49790	         8.38469e+57
          1379.30420	         9.32653e+57
          1380.11050	         1.02551e+58
          1380.91680	         9.29089e+57
          1381.72310	         7.21934e+57
          1382.52940	         7.81116e+57
          1383.33570	         7.65061e+57
          1384.14200	         8.99420e+57
          1384.94830	         1.02515e+58
          1385.75460	         1.05379e+58
          1386.56090	         1.06662e+58
          1387.36720	         9.34018e+57
          1388.17350	         1.16310e+58
          1388.97980	         1.05583e+58
          1389.78610	         8.66506e+57
          1390.59240	         8.42754e+57
          1391.39870	         7.37528e+57
          1392.20500	         8.66478e+57
          1393.01130	         8.30873e+57
          1393.81760	         6.81320e+57
          1394.62390	         6.20283e+57
          1395.43020	         6.15307e+57
          1396.23650	         6.67277e+57
          1397.04280	         6.82877e+57
          1397.84910	         6.84647e+57
          1398.65540	         8.04247e+57
          1399.46170	         9.64108e+57
          1400.26800	         7.09037e+57
          1401.07430	         7.25415e+57
          1401.88060	         7.94660e+57
          1402.68690	         8.93953e+57
          1403.49320	         9.24717e+57
          1404.29950	         8.81115e+57
          1405.10580	         1.10266e+58
          1405.91210	         1.09655e+58
          1406.71840	         9.90591e+57
          1407.52470	         9.97143e+57
          1408.33100	         1.06378e+58
          1409.13730	         1.09513e+58
          1409.94360	         9.77769e+57
          1410.74990	         1.07504e+58
          1411.55620	         1.04773e+58
          1412.36250	         8.27379e+57
          1413.16880	         7.48600e+57
          1413.97510	         7.93223e+57
          1414.78140	         8.89185e+57
          1415.58770	         1.00671e+58
          1416.39400	         1.13399e+58
          1417.20030	         1.03879e+58
          1418.00660	         8.63734e+57
          1418.81290	         8.07867e+57
          1419.61920	         9.07510e+57
          1420.42550	         1.33525e+58
          1421.23180	         1.39947e+58
          1422.03810	         1.22943e+58
          1422.84440	         1.12267e+58
          1423.65070	         1.17928e+58
          1424.45700	         1.07049e+58
          1425.26330	         8.78376e+57
          1426.06960	         8.48339e+57
          1426.87590	         1.01180e+58
          1427.68220	         1.09900e+58
          1428.48850	         1.16504e+58
          1429.29480	         1.10248e+58
          1430.10110	         9.09976e+57
          1430.90740	         8.71564e+57
          1431.71370	         9.18757e+57
          1432.52000	         7.90853e+57
          1433.32630	         7.80107e+57
          1434.13260	         8.05736e+57
          1434.93890	         8.81250e+57
          1435.74520	         9.02761e+57
          1436.55150	         9.72883e+57
          1437.35780	         9.28406e+57
          1438.16410	         9.13015e+57
          1438.97040	         9.56364e+57
          1439.77670	         8.51518e+57
          1440.58300	         8.02709e+57
          1441.38930	         1.03603e+58
          1442.19560	         1.12489e+58
          1443.00190	         1.05971e+58
          1443.80820	         1.07236e+58
          1444.61450	         9.36664e+57
          1445.42080	         8.37538e+57
          1446.22710	         1.03216e+58
          1447.03340	         9.77342e+57
          1447.83970	         9.76997e+57
          1448.64600	         9.62430e+57
          1449.45230	         9.76450e+57
          1450.25860	         9.97271e+57
          1451.06490	         8.56399e+57
          1451.87120	         7.44490e+57
          1452.67750	         6.86916e+57
          1453.48380	         8.37516e+57
          1454.29010	         8.39509e+57
          1455.09640	         6.88890e+57
          1455.90270	         8.38666e+57
          1456.70900	         8.74603e+57
          1457.51530	         1.01256e+58
          1458.32160	         1.29159e+58
          1459.12790	         1.18674e+58
          1459.93420	         1.05548e+58
          1460.74050	         8.45325e+57
          1461.54680	         8.01827e+57
          1462.35310	         7.94358e+57
          1463.15940	         9.53017e+57
          1463.96570	         1.03446e+58
          1464.77200	         1.09867e+58
          1465.57830	         1.13861e+58
          1466.38460	         9.10663e+57
          1467.19090	         8.82131e+57
          1467.99720	         9.04290e+57
          1468.80350	         9.26816e+57
          1469.60980	         1.02860e+58
          1470.41610	         1.07888e+58
          1471.22240	         9.61270e+57
          1472.02870	         9.97135e+57
          1472.83500	         9.46605e+57
          1473.64130	         8.96527e+57
          1474.44760	         9.92220e+57
          1475.25390	         9.47495e+57
          1476.06020	         9.44183e+57
          1476.86650	         9.30787e+57
          1477.67280	         8.33639e+57
          1478.47910	         7.70117e+57
          1479.28540	         6.44599e+57
          1480.09170	         7.38637e+57
          1480.89800	         8.38023e+57
          1481.70430	         7.83679e+57
          1482.51060	         8.35540e+57
          1483.31690	         7.82868e+57
          1484.12320	         8.24481e+57
          1484.92950	         8.77694e+57
          1485.73580	         8.87311e+57
          1486.54210	         8.13023e+57
          1487.34840	         9.13526e+57
          1488.15470	         9.25632e+57
          1488.96100	         9.54119e+57
          1489.76730	         8.74916e+57
