#sample_67_stacked_spectrum_rest_UV-bands_median_H-alpha_noDC.txt
#median Lum: 1.68080e+42
#Rest-frame wavelength (A) | Luminosity (erg/s/A)
#
          1110.00000	         0.00000e+00
          1110.80630	         1.04767e+59
          1111.61260	         3.21624e+59
          1112.41890	         1.46495e+59
          1113.22520	        -7.00513e+58
          1114.03150	        -8.49451e+58
          1114.83780	         3.20563e+59
          1115.64410	         1.64858e+58
          1116.45040	         1.46707e+59
          1117.25670	        -2.59928e+58
          1118.06300	         1.37453e+59
          1118.86930	         3.45372e+58
          1119.67560	         7.99813e+58
          1120.48190	        -9.37219e+58
          1121.28820	        -7.45453e+58
          1122.09450	         1.05251e+58
          1122.90080	        -5.89220e+58
          1123.70710	         1.20951e+58
          1124.51340	         1.21240e+59
          1125.31970	        -3.24275e+57
          1126.12600	         7.26277e+56
          1126.93230	        -1.70446e+58
          1127.73860	        -2.99765e+58
          1128.54490	         2.22853e+58
          1129.35120	        -3.17700e+57
          1130.15750	        -4.63655e+58
          1130.96380	        -2.62606e+58
          1131.77010	         2.56860e+58
          1132.57640	         6.01852e+58
          1133.38270	         3.94147e+58
          1134.18900	         1.55762e+58
          1134.99530	         4.83395e+58
          1135.80160	         3.56751e+58
          1136.60790	         2.23852e+58
          1137.41420	         9.74834e+57
          1138.22050	         4.12781e+58
          1139.02680	         3.47826e+58
          1139.83310	         2.63902e+58
          1140.63940	         1.94248e+58
          1141.44570	        -3.26006e+58
          1142.25200	        -1.55477e+58
          1143.05830	         8.36122e+57
          1143.86460	        -2.49547e+57
          1144.67090	         1.37167e+58
          1145.47720	         1.14013e+58
          1146.28350	         1.30344e+58
          1147.08980	         8.09410e+57
          1147.89610	         1.43930e+58
          1148.70240	         2.51998e+58
          1149.50870	         2.11176e+58
          1150.31500	         7.12729e+57
          1151.12130	         1.02183e+58
          1151.92760	         2.16092e+57
          1152.73390	        -4.92631e+56
          1153.54020	        -9.95917e+56
          1154.34650	         1.84516e+58
          1155.15280	         1.82724e+58
          1155.95910	         3.61719e+57
          1156.76540	         6.17986e+57
          1157.57170	         7.59123e+56
          1158.37800	         5.36643e+57
          1159.18430	         2.21365e+57
          1159.99060	         6.04065e+57
          1160.79690	         5.96595e+56
          1161.60320	         1.23802e+58
          1162.40950	         1.85789e+58
          1163.21580	         2.01041e+58
          1164.02210	         1.57961e+58
          1164.82840	         1.04496e+58
          1165.63470	         1.11018e+58
          1166.44100	         3.24163e+58
          1167.24730	         2.89754e+58
          1168.05360	         7.19667e+57
          1168.85990	         8.30632e+57
          1169.66620	         7.54276e+57
          1170.47250	         7.54376e+57
          1171.27880	         7.31740e+57
          1172.08510	         1.02133e+58
          1172.89140	         1.00545e+58
          1173.69770	         4.22686e+57
          1174.50400	         1.22439e+58
          1175.31030	         1.73713e+58
          1176.11660	         2.23123e+58
          1176.92290	         1.70169e+58
          1177.72920	         1.50598e+58
          1178.53550	         6.47107e+57
          1179.34180	         2.60799e+57
          1180.14810	         4.95978e+57
          1180.95440	         8.39075e+57
          1181.76070	         1.33057e+57
          1182.56700	         8.82153e+56
          1183.37330	         2.96527e+57
          1184.17960	         1.10423e+58
          1184.98590	         1.04360e+58
          1185.79220	         4.36557e+57
          1186.59850	         1.10069e+58
          1187.40480	         1.38759e+58
          1188.21110	         1.60973e+58
          1189.01740	         1.15235e+58
          1189.82370	         1.06638e+58
          1190.63000	         1.28728e+58
          1191.43630	         1.55542e+58
          1192.24260	         1.24016e+58
          1193.04890	         1.05038e+58
          1193.85520	         6.88529e+57
          1194.66150	        -3.86365e+56
          1195.46780	         3.60973e+57
          1196.27410	         1.36533e+58
          1197.08040	         1.27000e+58
          1197.88670	         1.27993e+58
          1198.69300	         1.35530e+58
          1199.49930	         1.81668e+58
          1200.30560	         1.79261e+58
          1201.11190	         1.18256e+58
          1201.91820	         6.76558e+57
          1202.72450	         1.12599e+58
          1203.53080	         1.39005e+58
          1204.33710	         5.68975e+57
          1205.14340	         6.54786e+57
          1205.94970	         6.07648e+57
          1206.75600	         5.11908e+57
          1207.56230	         2.42478e+57
          1208.36860	         1.09294e+58
          1209.17490	         6.02009e+57
          1209.98120	         7.46084e+57
          1210.78750	         7.82566e+57
          1211.59380	         1.14950e+58
          1212.40010	         1.78973e+58
          1213.20640	         1.87799e+58
          1214.01270	         2.12933e+58
          1214.81900	         2.65688e+58
          1215.62530	         4.22517e+58
          1216.43160	         8.83147e+58
          1217.23790	         1.49261e+59
          1218.04420	         1.12442e+59
          1218.85050	         8.21280e+58
          1219.65680	         5.41940e+58
          1220.46310	         3.12488e+58
          1221.26940	         2.16451e+58
          1222.07570	         1.46592e+58
          1222.88200	         1.03929e+58
          1223.68830	         1.10275e+58
          1224.49460	         9.46222e+57
          1225.30090	         5.48137e+57
          1226.10720	         7.36734e+57
          1226.91350	         6.72411e+57
          1227.71980	         8.19442e+57
          1228.52610	         1.24420e+58
          1229.33240	         1.04323e+58
          1230.13870	         8.30457e+57
          1230.94500	         8.46151e+57
          1231.75130	         7.93005e+57
          1232.55760	         8.53768e+57
          1233.36390	         1.04953e+58
          1234.17020	         8.19225e+57
          1234.97650	         5.55116e+57
          1235.78280	         8.68602e+57
          1236.58910	         8.67265e+57
          1237.39540	         9.29495e+57
          1238.20170	         1.13133e+58
          1239.00800	         1.35392e+58
          1239.81430	         1.32921e+58
          1240.62060	         9.05373e+57
          1241.42690	         9.29300e+57
          1242.23320	         1.11820e+58
          1243.03950	         6.82386e+57
          1243.84580	         7.91619e+57
          1244.65210	         1.08744e+58
          1245.45840	         1.08333e+58
          1246.26470	         1.02687e+58
          1247.07100	         5.00712e+57
          1247.87730	         5.96264e+57
          1248.68360	         2.56219e+57
          1249.48990	         7.81515e+57
          1250.29620	         1.17685e+58
          1251.10250	         7.38909e+57
          1251.90880	         3.81874e+57
          1252.71510	         6.09762e+57
          1253.52140	         7.29653e+57
          1254.32770	         9.04993e+57
          1255.13400	         1.12246e+58
          1255.94030	         1.00457e+58
          1256.74660	         9.30078e+57
          1257.55290	         9.51413e+57
          1258.35920	         7.21520e+57
          1259.16550	         4.86257e+57
          1259.97180	         4.67322e+57
          1260.77810	         8.49091e+57
          1261.58440	         1.39766e+58
          1262.39070	         9.05877e+57
          1263.19700	         6.84607e+57
          1264.00330	         8.84755e+57
          1264.80960	         9.78613e+57
          1265.61590	         1.03333e+58
          1266.42220	         1.06751e+58
          1267.22850	         9.71420e+57
          1268.03480	         1.25956e+58
          1268.84110	         1.46898e+58
          1269.64740	         1.38701e+58
          1270.45370	         1.24794e+58
          1271.26000	         1.32794e+58
          1272.06630	         1.20150e+58
          1272.87260	         1.24699e+58
          1273.67890	         1.48344e+58
          1274.48520	         1.28920e+58
          1275.29150	         1.10399e+58
          1276.09780	         1.06931e+58
          1276.90410	         1.28179e+58
          1277.71040	         1.28435e+58
          1278.51670	         1.32122e+58
          1279.32300	         1.48984e+58
          1280.12930	         1.26742e+58
          1280.93560	         1.03146e+58
          1281.74190	         1.25886e+58
          1282.54820	         1.34480e+58
          1283.35450	         9.91429e+57
          1284.16080	         1.02920e+58
          1284.96710	         1.37305e+58
          1285.77340	         1.28082e+58
          1286.57970	         1.21331e+58
          1287.38600	         1.45514e+58
          1288.19230	         1.64593e+58
          1288.99860	         1.44197e+58
          1289.80490	         8.93293e+57
          1290.61120	         1.07116e+58
          1291.41750	         1.33242e+58
          1292.22380	         1.15666e+58
          1293.03010	         1.04885e+58
          1293.83640	         1.08384e+58
          1294.64270	         8.28049e+57
          1295.44900	         6.65785e+57
          1296.25530	         8.50254e+57
          1297.06160	         1.03897e+58
          1297.86790	         9.71705e+57
          1298.67420	         1.07753e+58
          1299.48050	         1.20154e+58
          1300.28680	         1.16288e+58
          1301.09310	         8.09189e+57
          1301.89940	         4.95432e+57
          1302.70570	         6.80932e+57
          1303.51200	         7.54024e+57
          1304.31830	         8.90190e+57
          1305.12460	         9.80128e+57
          1305.93090	         1.05990e+58
          1306.73720	         1.21189e+58
          1307.54350	         1.40837e+58
          1308.34980	         1.54585e+58
          1309.15610	         1.53244e+58
          1309.96240	         1.42356e+58
          1310.76870	         1.36384e+58
          1311.57500	         1.26844e+58
          1312.38130	         1.21582e+58
          1313.18760	         1.44596e+58
          1313.99390	         1.69948e+58
          1314.80020	         1.65383e+58
          1315.60650	         1.62325e+58
          1316.41280	         1.42803e+58
          1317.21910	         1.09266e+58
          1318.02540	         1.13932e+58
          1318.83170	         1.15401e+58
          1319.63800	         1.19282e+58
          1320.44430	         1.11826e+58
          1321.25060	         1.21693e+58
          1322.05690	         1.27303e+58
          1322.86320	         1.19385e+58
          1323.66950	         1.09711e+58
          1324.47580	         8.82970e+57
          1325.28210	         8.75573e+57
          1326.08840	         1.03588e+58
          1326.89470	         1.18357e+58
          1327.70100	         1.01586e+58
          1328.50730	         9.07180e+57
          1329.31360	         1.10068e+58
          1330.11990	         1.12385e+58
          1330.92620	         8.89005e+57
          1331.73250	         1.09075e+58
          1332.53880	         1.05677e+58
          1333.34510	         8.21434e+57
          1334.15140	         7.66564e+57
          1334.95770	         8.29653e+57
          1335.76400	         9.90816e+57
          1336.57030	         1.10529e+58
          1337.37660	         1.19099e+58
          1338.18290	         1.05039e+58
          1338.98920	         1.10620e+58
          1339.79550	         1.15225e+58
          1340.60180	         1.13653e+58
          1341.40810	         1.36591e+58
          1342.21440	         1.23681e+58
          1343.02070	         1.18557e+58
          1343.82700	         1.29199e+58
          1344.63330	         1.33658e+58
          1345.43960	         1.26824e+58
          1346.24590	         9.05109e+57
          1347.05220	         1.00399e+58
          1347.85850	         1.18526e+58
          1348.66480	         1.22404e+58
          1349.47110	         1.38559e+58
          1350.27740	         1.29189e+58
          1351.08370	         1.17452e+58
          1351.89000	         1.16355e+58
          1352.69630	         1.24716e+58
          1353.50260	         1.20500e+58
          1354.30890	         1.16369e+58
          1355.11520	         1.23277e+58
          1355.92150	         1.05381e+58
          1356.72780	         8.45073e+57
          1357.53410	         8.26795e+57
          1358.34040	         1.04956e+58
          1359.14670	         1.03752e+58
          1359.95300	         1.15282e+58
          1360.75930	         1.25421e+58
          1361.56560	         1.16505e+58
          1362.37190	         1.20580e+58
          1363.17820	         1.22461e+58
          1363.98450	         1.15318e+58
          1364.79080	         1.14175e+58
          1365.59710	         1.18245e+58
          1366.40340	         1.11913e+58
          1367.20970	         1.06626e+58
          1368.01600	         9.85624e+57
          1368.82230	         8.63398e+57
          1369.62860	         9.80101e+57
          1370.43490	         1.02144e+58
          1371.24120	         9.01495e+57
          1372.04750	         7.65248e+57
          1372.85380	         9.28480e+57
          1373.66010	         1.03974e+58
          1374.46640	         9.78815e+57
          1375.27270	         1.07406e+58
          1376.07900	         9.03233e+57
          1376.88530	         7.78096e+57
          1377.69160	         8.05631e+57
          1378.49790	         6.95144e+57
          1379.30420	         7.58418e+57
          1380.11050	         7.80845e+57
          1380.91680	         6.49138e+57
          1381.72310	         8.36849e+57
          1382.52940	         8.38802e+57
          1383.33570	         7.23791e+57
          1384.14200	         8.90652e+57
          1384.94830	         1.02930e+58
          1385.75460	         1.14330e+58
          1386.56090	         1.17767e+58
          1387.36720	         1.19829e+58
          1388.17350	         1.27238e+58
          1388.97980	         1.08827e+58
          1389.78610	         8.91743e+57
          1390.59240	         8.66021e+57
          1391.39870	         8.36969e+57
          1392.20500	         8.25702e+57
          1393.01130	         7.61166e+57
          1393.81760	         6.30059e+57
          1394.62390	         5.22386e+57
          1395.43020	         4.87820e+57
          1396.23650	         4.93472e+57
          1397.04280	         5.68284e+57
          1397.84910	         8.16572e+57
          1398.65540	         9.46951e+57
          1399.46170	         7.87105e+57
          1400.26800	         7.09433e+57
          1401.07430	         6.84429e+57
          1401.88060	         6.86536e+57
          1402.68690	         8.12632e+57
          1403.49320	         9.80405e+57
          1404.29950	         9.37563e+57
          1405.10580	         1.02579e+58
          1405.91210	         1.15678e+58
          1406.71840	         1.16523e+58
          1407.52470	         1.13884e+58
          1408.33100	         1.03488e+58
          1409.13730	         1.12284e+58
          1409.94360	         1.20163e+58
          1410.74990	         1.10812e+58
          1411.55620	         1.05833e+58
          1412.36250	         9.12199e+57
          1413.16880	         7.62170e+57
          1413.97510	         7.99003e+57
          1414.78140	         8.88162e+57
          1415.58770	         1.00192e+58
          1416.39400	         1.05004e+58
          1417.20030	         1.12104e+58
          1418.00660	         1.05458e+58
          1418.81290	         9.61922e+57
          1419.61920	         8.86253e+57
          1420.42550	         1.16869e+58
          1421.23180	         1.36848e+58
          1422.03810	         1.20564e+58
          1422.84440	         1.15200e+58
          1423.65070	         1.28908e+58
          1424.45700	         1.10631e+58
          1425.26330	         8.33033e+57
          1426.06960	         8.67820e+57
          1426.87590	         1.00932e+58
          1427.68220	         9.88047e+57
          1428.48850	         1.07988e+58
          1429.29480	         1.05333e+58
          1430.10110	         1.00481e+58
          1430.90740	         9.37403e+57
          1431.71370	         8.22344e+57
          1432.52000	         8.76706e+57
          1433.32630	         8.26872e+57
          1434.13260	         7.47892e+57
          1434.93890	         8.57862e+57
          1435.74520	         9.68579e+57
          1436.55150	         9.36382e+57
          1437.35780	         9.20236e+57
          1438.16410	         9.33599e+57
          1438.97040	         8.72092e+57
          1439.77670	         7.98152e+57
          1440.58300	         8.50311e+57
          1441.38930	         8.61376e+57
          1442.19560	         8.90230e+57
          1443.00190	         9.36099e+57
          1443.80820	         1.03770e+58
          1444.61450	         9.81812e+57
          1445.42080	         8.78749e+57
          1446.22710	         1.00004e+58
          1447.03340	         9.81343e+57
          1447.83970	         9.95279e+57
          1448.64600	         9.55053e+57
          1449.45230	         9.38463e+57
          1450.25860	         9.83313e+57
          1451.06490	         8.52069e+57
          1451.87120	         7.04586e+57
          1452.67750	         7.23524e+57
          1453.48380	         8.41809e+57
          1454.29010	         8.03904e+57
          1455.09640	         7.93015e+57
          1455.90270	         8.62417e+57
          1456.70900	         9.33321e+57
          1457.51530	         1.01462e+58
          1458.32160	         1.17816e+58
          1459.12790	         1.14285e+58
          1459.93420	         1.04545e+58
          1460.74050	         8.72192e+57
          1461.54680	         8.09866e+57
          1462.35310	         7.81155e+57
          1463.15940	         8.53944e+57
          1463.96570	         1.08190e+58
          1464.77200	         1.12906e+58
          1465.57830	         1.09403e+58
          1466.38460	         9.64352e+57
          1467.19090	         8.11673e+57
          1467.99720	         7.77318e+57
          1468.80350	         8.65864e+57
          1469.60980	         9.11421e+57
          1470.41610	         9.91054e+57
          1471.22240	         1.04776e+58
          1472.02870	         1.03176e+58
          1472.83500	         9.31188e+57
          1473.64130	         9.41221e+57
          1474.44760	         9.38042e+57
          1475.25390	         8.68720e+57
          1476.06020	         8.22889e+57
          1476.86650	         7.52696e+57
          1477.67280	         6.80456e+57
          1478.47910	         6.45914e+57
          1479.28540	         7.00919e+57
          1480.09170	         8.79035e+57
          1480.89800	         8.64123e+57
          1481.70430	         8.57555e+57
          1482.51060	         7.86936e+57
          1483.31690	         7.27567e+57
          1484.12320	         6.88160e+57
          1484.92950	         6.87260e+57
          1485.73580	         7.64684e+57
          1486.54210	         7.60648e+57
          1487.34840	         9.04086e+57
          1488.15470	         8.85382e+57
          1488.96100	         8.67916e+57
          1489.76730	         8.58415e+57
