#sample_216_stacked_spectrum_rest_UV-bands_median_H-alpha_noDC.txt
#median Lum: 1.70501e+42
#Rest-frame wavelength (A) | Luminosity (erg/s/A)
#
          1110.00000	         0.00000e+00
          1110.80630	         3.84493e+59
          1111.61260	         1.11692e+59
          1112.41890	         9.00328e+58
          1113.22520	        -5.65510e+58
          1114.03150	         1.70636e+59
          1114.83780	         2.79387e+59
          1115.64410	         1.06388e+59
          1116.45040	         4.41184e+58
          1117.25670	        -8.77925e+57
          1118.06300	         1.05098e+59
          1118.86930	        -3.27347e+58
          1119.67560	         2.62506e+58
          1120.48190	        -5.75299e+58
          1121.28820	        -1.84247e+59
          1122.09450	        -6.54992e+58
          1122.90080	         6.21220e+58
          1123.70710	         1.21104e+59
          1124.51340	         1.25805e+59
          1125.31970	        -5.97052e+58
          1126.12600	        -1.43951e+58
          1126.93230	        -8.53982e+58
          1127.73860	        -5.84514e+58
          1128.54490	         4.03848e+58
          1129.35120	        -1.43498e+58
          1130.15750	        -6.12627e+58
          1130.96380	        -7.37956e+57
          1131.77010	         4.79591e+58
          1132.57640	         2.80739e+58
          1133.38270	         9.79140e+57
          1134.18900	         1.95029e+58
          1134.99530	        -1.21520e+58
          1135.80160	         1.13075e+58
          1136.60790	         2.14988e+58
          1137.41420	        -1.23564e+58
          1138.22050	         4.03253e+58
          1139.02680	         4.57441e+58
          1139.83310	         2.29512e+58
          1140.63940	         1.36876e+58
          1141.44570	         2.47893e+57
          1142.25200	        -1.24917e+58
          1143.05830	         2.03648e+58
          1143.86460	         3.86636e+58
          1144.67090	         4.38029e+58
          1145.47720	         1.54642e+58
          1146.28350	         4.84130e+56
          1147.08980	         9.17920e+57
          1147.89610	         2.21276e+58
          1148.70240	         3.67209e+58
          1149.50870	         3.20885e+58
          1150.31500	         9.20797e+57
          1151.12130	         6.58074e+57
          1151.92760	         3.63364e+57
          1152.73390	        -2.97313e+56
          1153.54020	        -2.54615e+57
          1154.34650	         2.24770e+58
          1155.15280	         1.53411e+58
          1155.95910	         2.44360e+57
          1156.76540	         1.42506e+58
          1157.57170	         2.39116e+57
          1158.37800	         3.86766e+57
          1159.18430	        -4.45326e+57
          1159.99060	         5.86020e+57
          1160.79690	         3.61543e+57
          1161.60320	         1.44891e+58
          1162.40950	         1.41898e+58
          1163.21580	         1.51841e+58
          1164.02210	         1.23149e+58
          1164.82840	         7.70256e+57
          1165.63470	         1.15666e+58
          1166.44100	         1.94286e+58
          1167.24730	         2.21823e+58
          1168.05360	         6.55366e+57
          1168.85990	         5.67189e+57
          1169.66620	         1.19393e+58
          1170.47250	         1.89373e+58
          1171.27880	         1.65351e+58
          1172.08510	         1.51825e+58
          1172.89140	         1.39113e+58
          1173.69770	         3.84857e+57
          1174.50400	         9.96122e+57
          1175.31030	         1.84025e+58
          1176.11660	         1.75892e+58
          1176.92290	         1.48655e+58
          1177.72920	         1.02248e+58
          1178.53550	         5.72781e+57
          1179.34180	         3.88523e+57
          1180.14810	         1.09663e+58
          1180.95440	         7.80325e+57
          1181.76070	         4.66721e+57
          1182.56700	         7.98785e+57
          1183.37330	         8.87860e+57
          1184.17960	         1.30395e+58
          1184.98590	         7.24098e+57
          1185.79220	         2.08233e+57
          1186.59850	         1.03766e+58
          1187.40480	         1.03815e+58
          1188.21110	         1.31995e+58
          1189.01740	         1.03342e+58
          1189.82370	         1.10144e+58
          1190.63000	         4.15894e+57
          1191.43630	         3.52881e+57
          1192.24260	         4.98268e+57
          1193.04890	         7.27212e+57
          1193.85520	         1.20667e+58
          1194.66150	         5.73676e+57
          1195.46780	         1.44558e+58
          1196.27410	         1.90863e+58
          1197.08040	         1.27932e+58
          1197.88670	         1.06367e+58
          1198.69300	         1.29960e+58
          1199.49930	         1.70687e+58
          1200.30560	         1.24402e+58
          1201.11190	         1.19181e+58
          1201.91820	         8.79013e+57
          1202.72450	         5.85972e+57
          1203.53080	         1.51150e+58
          1204.33710	         1.03212e+58
          1205.14340	         8.54182e+57
          1205.94970	         7.74038e+57
          1206.75600	         9.85265e+57
          1207.56230	         6.75859e+57
          1208.36860	         1.01412e+58
          1209.17490	         3.26663e+57
          1209.98120	         3.05215e+57
          1210.78750	         1.25168e+58
          1211.59380	         1.16888e+58
          1212.40010	         1.74010e+58
          1213.20640	         1.92311e+58
          1214.01270	         2.04141e+58
          1214.81900	         2.66934e+58
          1215.62530	         4.38365e+58
          1216.43160	         9.11295e+58
          1217.23790	         1.51852e+59
          1218.04420	         1.12791e+59
          1218.85050	         8.58371e+58
          1219.65680	         5.62732e+58
          1220.46310	         3.53898e+58
          1221.26940	         2.36743e+58
          1222.07570	         1.52181e+58
          1222.88200	         1.23048e+58
          1223.68830	         1.25192e+58
          1224.49460	         8.37110e+57
          1225.30090	         6.95525e+57
          1226.10720	         6.31180e+57
          1226.91350	         5.12164e+57
          1227.71980	         8.47075e+57
          1228.52610	         1.03042e+58
          1229.33240	         7.98141e+57
          1230.13870	         8.45173e+57
          1230.94500	         7.81133e+57
          1231.75130	         5.76228e+57
          1232.55760	         9.32467e+57
          1233.36390	         1.02916e+58
          1234.17020	         7.84594e+57
          1234.97650	         6.82300e+57
          1235.78280	         6.08649e+57
          1236.58910	         7.88381e+57
          1237.39540	         1.07495e+58
          1238.20170	         1.11969e+58
          1239.00800	         1.47306e+58
          1239.81430	         1.61144e+58
          1240.62060	         9.54895e+57
          1241.42690	         1.06447e+58
          1242.23320	         1.41847e+58
          1243.03950	         9.65360e+57
          1243.84580	         8.78143e+57
          1244.65210	         1.32380e+58
          1245.45840	         1.10317e+58
          1246.26470	         8.72549e+57
          1247.07100	         7.63676e+57
          1247.87730	         8.42085e+57
          1248.68360	         3.28280e+57
          1249.48990	         7.88628e+57
          1250.29620	         8.11447e+57
          1251.10250	         5.29016e+57
          1251.90880	         6.68266e+57
          1252.71510	         8.56840e+57
          1253.52140	         8.11944e+57
          1254.32770	         1.09314e+58
          1255.13400	         1.53172e+58
          1255.94030	         1.11534e+58
          1256.74660	         7.30570e+57
          1257.55290	         8.77658e+57
          1258.35920	         8.46697e+57
          1259.16550	         4.02762e+57
          1259.97180	         5.04804e+57
          1260.77810	         1.07296e+58
          1261.58440	         1.23784e+58
          1262.39070	         8.64482e+57
          1263.19700	         9.16441e+57
          1264.00330	         9.56916e+57
          1264.80960	         9.10048e+57
          1265.61590	         1.07830e+58
          1266.42220	         9.65586e+57
          1267.22850	         9.44914e+57
          1268.03480	         1.36091e+58
          1268.84110	         1.50676e+58
          1269.64740	         1.30698e+58
          1270.45370	         1.33016e+58
          1271.26000	         1.06017e+58
          1272.06630	         1.12276e+58
          1272.87260	         1.23702e+58
          1273.67890	         1.04942e+58
          1274.48520	         1.19757e+58
          1275.29150	         1.26628e+58
          1276.09780	         1.14506e+58
          1276.90410	         1.44232e+58
          1277.71040	         1.20383e+58
          1278.51670	         1.10134e+58
          1279.32300	         1.29929e+58
          1280.12930	         1.25351e+58
          1280.93560	         1.10608e+58
          1281.74190	         1.06136e+58
          1282.54820	         1.16835e+58
          1283.35450	         1.09871e+58
          1284.16080	         1.15878e+58
          1284.96710	         1.34225e+58
          1285.77340	         1.30699e+58
          1286.57970	         1.15748e+58
          1287.38600	         1.45092e+58
          1288.19230	         1.71377e+58
          1288.99860	         1.63415e+58
          1289.80490	         1.29414e+58
          1290.61120	         1.27295e+58
          1291.41750	         1.20253e+58
          1292.22380	         1.28255e+58
          1293.03010	         1.04876e+58
          1293.83640	         1.08408e+58
          1294.64270	         1.07167e+58
          1295.44900	         7.32551e+57
          1296.25530	         7.64237e+57
          1297.06160	         1.05938e+58
          1297.86790	         1.17308e+58
          1298.67420	         9.64674e+57
          1299.48050	         9.40900e+57
          1300.28680	         1.09837e+58
          1301.09310	         7.70141e+57
          1301.89940	         3.96031e+57
          1302.70570	         5.98641e+57
          1303.51200	         8.39568e+57
          1304.31830	         9.42930e+57
          1305.12460	         9.56725e+57
          1305.93090	         1.08727e+58
          1306.73720	         1.24677e+58
          1307.54350	         1.34859e+58
          1308.34980	         1.44368e+58
          1309.15610	         1.47069e+58
          1309.96240	         1.38737e+58
          1310.76870	         1.38552e+58
          1311.57500	         1.35670e+58
          1312.38130	         9.69627e+57
          1313.18760	         1.34111e+58
          1313.99390	         1.85463e+58
          1314.80020	         1.73111e+58
          1315.60650	         1.52023e+58
          1316.41280	         1.13841e+58
          1317.21910	         1.12162e+58
          1318.02540	         1.31508e+58
          1318.83170	         1.35801e+58
          1319.63800	         1.24190e+58
          1320.44430	         1.22478e+58
          1321.25060	         1.38746e+58
          1322.05690	         1.39150e+58
          1322.86320	         1.22008e+58
          1323.66950	         1.13654e+58
          1324.47580	         9.26429e+57
          1325.28210	         9.23306e+57
          1326.08840	         1.14111e+58
          1326.89470	         1.13575e+58
          1327.70100	         8.51718e+57
          1328.50730	         6.93434e+57
          1329.31360	         1.07576e+58
          1330.11990	         1.06766e+58
          1330.92620	         7.62144e+57
          1331.73250	         9.25699e+57
          1332.53880	         1.05931e+58
          1333.34510	         9.30257e+57
          1334.15140	         8.74548e+57
          1334.95770	         8.52409e+57
          1335.76400	         1.06187e+58
          1336.57030	         1.15099e+58
          1337.37660	         1.12108e+58
          1338.18290	         1.10936e+58
          1338.98920	         1.17725e+58
          1339.79550	         1.17730e+58
          1340.60180	         1.28340e+58
          1341.40810	         1.40021e+58
          1342.21440	         1.22698e+58
          1343.02070	         1.18953e+58
          1343.82700	         1.18459e+58
          1344.63330	         1.33404e+58
          1345.43960	         1.31446e+58
          1346.24590	         1.18903e+58
          1347.05220	         1.42558e+58
          1347.85850	         1.12298e+58
          1348.66480	         1.19269e+58
          1349.47110	         1.29744e+58
          1350.27740	         1.21574e+58
          1351.08370	         1.10916e+58
          1351.89000	         1.13136e+58
          1352.69630	         1.16486e+58
          1353.50260	         1.17264e+58
          1354.30890	         1.21258e+58
          1355.11520	         1.21770e+58
          1355.92150	         1.04771e+58
          1356.72780	         9.50357e+57
          1357.53410	         9.43713e+57
          1358.34040	         1.13292e+58
          1359.14670	         1.09618e+58
          1359.95300	         1.14909e+58
          1360.75930	         1.14088e+58
          1361.56560	         1.02110e+58
          1362.37190	         1.08980e+58
          1363.17820	         9.63215e+57
          1363.98450	         1.05113e+58
          1364.79080	         1.21804e+58
          1365.59710	         1.14060e+58
          1366.40340	         1.05066e+58
          1367.20970	         9.92866e+57
          1368.01600	         9.79587e+57
          1368.82230	         1.04200e+58
          1369.62860	         1.22616e+58
          1370.43490	         9.46759e+57
          1371.24120	         8.55834e+57
          1372.04750	         8.81308e+57
          1372.85380	         1.10692e+58
          1373.66010	         1.14937e+58
          1374.46640	         1.12376e+58
          1375.27270	         1.08611e+58
          1376.07900	         9.54236e+57
          1376.88530	         8.82533e+57
          1377.69160	         7.95884e+57
          1378.49790	         7.52047e+57
          1379.30420	         7.80567e+57
          1380.11050	         9.11745e+57
          1380.91680	         9.07652e+57
          1381.72310	         7.96397e+57
          1382.52940	         8.79467e+57
          1383.33570	         9.73064e+57
          1384.14200	         1.03764e+58
          1384.94830	         1.05098e+58
          1385.75460	         9.15492e+57
          1386.56090	         1.06616e+58
          1387.36720	         1.06127e+58
          1388.17350	         1.15640e+58
          1388.97980	         1.08462e+58
          1389.78610	         8.01325e+57
          1390.59240	         6.47127e+57
          1391.39870	         7.40504e+57
          1392.20500	         8.56493e+57
          1393.01130	         7.89588e+57
          1393.81760	         6.95684e+57
          1394.62390	         6.83954e+57
          1395.43020	         6.19723e+57
          1396.23650	         6.91918e+57
          1397.04280	         7.73744e+57
          1397.84910	         7.73295e+57
          1398.65540	         8.34917e+57
          1399.46170	         9.50456e+57
          1400.26800	         7.38138e+57
          1401.07430	         7.09185e+57
          1401.88060	         7.88877e+57
          1402.68690	         9.74514e+57
          1403.49320	         1.01742e+58
          1404.29950	         8.83079e+57
          1405.10580	         1.00446e+58
          1405.91210	         1.11298e+58
          1406.71840	         1.06258e+58
          1407.52470	         1.03415e+58
          1408.33100	         1.20188e+58
          1409.13730	         1.22890e+58
          1409.94360	         1.13023e+58
          1410.74990	         1.11394e+58
          1411.55620	         1.11044e+58
          1412.36250	         1.00673e+58
          1413.16880	         8.99444e+57
          1413.97510	         8.48814e+57
          1414.78140	         8.84072e+57
          1415.58770	         9.86446e+57
          1416.39400	         1.13348e+58
          1417.20030	         1.20706e+58
          1418.00660	         1.02043e+58
          1418.81290	         1.08135e+58
          1419.61920	         1.13542e+58
          1420.42550	         1.38422e+58
          1421.23180	         1.45191e+58
          1422.03810	         1.24865e+58
          1422.84440	         1.21444e+58
          1423.65070	         1.38314e+58
          1424.45700	         1.15302e+58
          1425.26330	         8.33874e+57
          1426.06960	         7.88980e+57
          1426.87590	         1.03566e+58
          1427.68220	         1.10900e+58
          1428.48850	         1.05388e+58
          1429.29480	         1.02948e+58
          1430.10110	         9.61191e+57
          1430.90740	         8.64864e+57
          1431.71370	         9.80544e+57
          1432.52000	         9.28801e+57
          1433.32630	         7.56213e+57
          1434.13260	         7.42015e+57
          1434.93890	         7.98539e+57
          1435.74520	         9.11224e+57
          1436.55150	         1.02183e+58
          1437.35780	         9.64623e+57
          1438.16410	         9.49700e+57
          1438.97040	         8.98241e+57
          1439.77670	         8.60762e+57
          1440.58300	         1.03325e+58
          1441.38930	         1.03380e+58
          1442.19560	         9.50043e+57
          1443.00190	         9.30226e+57
          1443.80820	         1.03484e+58
          1444.61450	         1.05599e+58
          1445.42080	         8.66703e+57
          1446.22710	         1.00476e+58
          1447.03340	         9.85724e+57
          1447.83970	         1.15543e+58
          1448.64600	         1.16820e+58
          1449.45230	         9.45372e+57
          1450.25860	         9.05872e+57
          1451.06490	         8.43835e+57
          1451.87120	         6.76424e+57
          1452.67750	         7.03253e+57
          1453.48380	         7.80324e+57
          1454.29010	         8.06967e+57
          1455.09640	         7.99514e+57
          1455.90270	         8.45140e+57
          1456.70900	         9.40725e+57
          1457.51530	         1.03874e+58
          1458.32160	         1.19301e+58
          1459.12790	         1.15624e+58
          1459.93420	         9.94124e+57
          1460.74050	         8.25795e+57
          1461.54680	         7.95297e+57
          1462.35310	         7.70467e+57
          1463.15940	         9.07152e+57
          1463.96570	         1.03354e+58
          1464.77200	         1.09776e+58
          1465.57830	         1.03782e+58
          1466.38460	         8.93535e+57
          1467.19090	         8.79745e+57
          1467.99720	         8.83882e+57
          1468.80350	         8.95477e+57
          1469.60980	         9.14529e+57
          1470.41610	         9.26481e+57
          1471.22240	         9.20464e+57
          1472.02870	         1.03859e+58
          1472.83500	         1.00398e+58
          1473.64130	         9.02142e+57
          1474.44760	         9.03047e+57
          1475.25390	         9.54344e+57
          1476.06020	         9.70512e+57
          1476.86650	         8.94256e+57
          1477.67280	         7.99279e+57
          1478.47910	         6.64505e+57
          1479.28540	         6.88976e+57
          1480.09170	         8.18401e+57
          1480.89800	         8.51203e+57
          1481.70430	         9.12486e+57
          1482.51060	         9.34770e+57
          1483.31690	         8.24505e+57
          1484.12320	         7.69457e+57
          1484.92950	         7.44950e+57
          1485.73580	         8.41460e+57
          1486.54210	         8.98697e+57
          1487.34840	         7.82307e+57
          1488.15470	         7.61116e+57
          1488.96100	         7.71831e+57
          1489.76730	         7.93892e+57
