#sample_227_stacked_spectrum_rest_UV-bands_median_H-alpha_noDC.txt
#median Lum: 1.69338e+42
#Rest-frame wavelength (A) | Luminosity (erg/s/A)
#
          1110.00000	         0.00000e+00
          1110.80630	        -1.58401e+59
          1111.61260	         8.59276e+58
          1112.41890	         4.13907e+58
          1113.22520	        -2.39411e+57
          1114.03150	        -6.79214e+58
          1114.83780	         2.44113e+58
          1115.64410	        -1.46161e+59
          1116.45040	         9.28746e+58
          1117.25670	        -2.84812e+58
          1118.06300	         8.55543e+58
          1118.86930	         3.53089e+58
          1119.67560	         1.50526e+59
          1120.48190	         8.35930e+58
          1121.28820	        -6.47056e+58
          1122.09450	         4.34310e+58
          1122.90080	         8.08288e+58
          1123.70710	         7.68246e+58
          1124.51340	         8.72338e+58
          1125.31970	        -2.94418e+58
          1126.12600	         3.87718e+58
          1126.93230	        -2.55664e+58
          1127.73860	        -7.74460e+58
          1128.54490	        -8.52211e+57
          1129.35120	         3.72434e+58
          1130.15750	        -1.13729e+58
          1130.96380	        -1.05176e+58
          1131.77010	         6.98490e+58
          1132.57640	         7.70067e+58
          1133.38270	         7.04992e+58
          1134.18900	         7.46520e+57
          1134.99530	         1.64362e+58
          1135.80160	         3.20841e+58
          1136.60790	         4.23517e+58
          1137.41420	        -1.76692e+58
          1138.22050	         1.75201e+58
          1139.02680	         3.64631e+58
          1139.83310	         3.66980e+58
          1140.63940	         2.85517e+58
          1141.44570	        -4.37543e+57
          1142.25200	         6.88181e+57
          1143.05830	         2.49709e+58
          1143.86460	         1.49831e+58
          1144.67090	         3.20634e+58
          1145.47720	         1.07491e+58
          1146.28350	         9.93960e+57
          1147.08980	         1.86081e+58
          1147.89610	         1.73733e+58
          1148.70240	         1.58638e+58
          1149.50870	         2.84250e+58
          1150.31500	         1.24711e+58
          1151.12130	        -1.08140e+57
          1151.92760	         2.58380e+57
          1152.73390	         8.90404e+57
          1153.54020	         7.63748e+57
          1154.34650	         2.27494e+58
          1155.15280	         2.32195e+58
          1155.95910	         8.19558e+57
          1156.76540	         8.96239e+57
          1157.57170	        -6.46380e+55
          1158.37800	         6.76798e+57
          1159.18430	         2.58505e+55
          1159.99060	         2.40346e+57
          1160.79690	         1.44833e+57
          1161.60320	         1.93209e+58
          1162.40950	         1.48218e+58
          1163.21580	         1.48368e+58
          1164.02210	         8.53469e+57
          1164.82840	         1.13056e+58
          1165.63470	         1.94924e+58
          1166.44100	         3.18328e+58
          1167.24730	         2.29805e+58
          1168.05360	         5.35654e+57
          1168.85990	         1.40106e+58
          1169.66620	         1.06216e+58
          1170.47250	         3.86866e+57
          1171.27880	         8.85789e+56
          1172.08510	         1.03489e+58
          1172.89140	         1.87785e+57
          1173.69770	         7.29684e+57
          1174.50400	         1.37784e+58
          1175.31030	         1.71998e+58
          1176.11660	         1.27140e+58
          1176.92290	         1.57140e+58
          1177.72920	         1.72718e+58
          1178.53550	         7.53283e+57
          1179.34180	         5.42150e+57
          1180.14810	         1.53529e+58
          1180.95440	         1.65915e+58
          1181.76070	         4.11776e+57
          1182.56700	         7.99905e+57
          1183.37330	         8.12154e+57
          1184.17960	         1.31755e+58
          1184.98590	         1.58961e+58
          1185.79220	         1.13537e+58
          1186.59850	         1.58693e+58
          1187.40480	         4.50314e+57
          1188.21110	         1.02817e+58
          1189.01740	         1.22864e+58
          1189.82370	         1.47124e+58
          1190.63000	         1.20409e+58
          1191.43630	         1.33201e+58
          1192.24260	         1.45880e+58
          1193.04890	         1.52752e+58
          1193.85520	         9.86048e+57
          1194.66150	         9.32874e+57
          1195.46780	         1.02013e+58
          1196.27410	         9.88502e+57
          1197.08040	         8.82033e+57
          1197.88670	         1.58078e+58
          1198.69300	         1.54530e+58
          1199.49930	         1.39150e+58
          1200.30560	         1.37348e+58
          1201.11190	         1.24350e+58
          1201.91820	         1.07829e+58
          1202.72450	         1.24454e+58
          1203.53080	         1.99400e+58
          1204.33710	         8.47375e+57
          1205.14340	         7.83053e+57
          1205.94970	         6.56097e+57
          1206.75600	         4.06831e+57
          1207.56230	         3.65335e+57
          1208.36860	         7.71781e+57
          1209.17490	         5.94317e+57
          1209.98120	         7.02155e+57
          1210.78750	         8.69472e+57
          1211.59380	         1.03180e+58
          1212.40010	         1.80200e+58
          1213.20640	         2.00920e+58
          1214.01270	         2.17066e+58
          1214.81900	         2.63127e+58
          1215.62530	         4.78292e+58
          1216.43160	         9.37813e+58
          1217.23790	         1.50092e+59
          1218.04420	         1.14398e+59
          1218.85050	         8.64514e+58
          1219.65680	         5.62617e+58
          1220.46310	         2.86804e+58
          1221.26940	         1.91873e+58
          1222.07570	         1.06446e+58
          1222.88200	         9.06302e+57
          1223.68830	         7.60196e+57
          1224.49460	         4.91291e+57
          1225.30090	         8.88901e+57
          1226.10720	         8.93346e+57
          1226.91350	         9.08938e+57
          1227.71980	         9.28739e+57
          1228.52610	         1.12710e+58
          1229.33240	         8.31283e+57
          1230.13870	         9.55846e+57
          1230.94500	         1.02131e+58
          1231.75130	         5.28083e+57
          1232.55760	         6.07486e+57
          1233.36390	         6.56664e+57
          1234.17020	         8.62644e+57
          1234.97650	         9.72004e+57
          1235.78280	         8.17304e+57
          1236.58910	         5.83497e+57
          1237.39540	         8.56880e+57
          1238.20170	         1.26462e+58
          1239.00800	         1.36877e+58
          1239.81430	         1.60742e+58
          1240.62060	         1.37452e+58
          1241.42690	         1.21777e+58
          1242.23320	         1.09422e+58
          1243.03950	         6.62827e+57
          1243.84580	         8.35987e+57
          1244.65210	         1.06508e+58
          1245.45840	         1.04595e+58
          1246.26470	         8.63882e+57
          1247.07100	         7.39819e+57
          1247.87730	         6.03345e+57
          1248.68360	         4.50715e+57
          1249.48990	         9.61967e+57
          1250.29620	         1.06510e+58
          1251.10250	         7.30572e+57
          1251.90880	         5.56634e+57
          1252.71510	         8.53031e+57
          1253.52140	         9.19826e+57
          1254.32770	         9.41293e+57
          1255.13400	         1.31990e+58
          1255.94030	         1.20984e+58
          1256.74660	         1.03130e+58
          1257.55290	         1.22792e+58
          1258.35920	         1.00456e+58
          1259.16550	         6.43492e+57
          1259.97180	         5.98359e+57
          1260.77810	         1.05861e+58
          1261.58440	         1.20814e+58
          1262.39070	         9.43277e+57
          1263.19700	         9.04424e+57
          1264.00330	         9.57212e+57
          1264.80960	         9.31556e+57
          1265.61590	         1.14609e+58
          1266.42220	         1.15040e+58
          1267.22850	         1.10853e+58
          1268.03480	         1.45907e+58
          1268.84110	         1.49633e+58
          1269.64740	         1.35278e+58
          1270.45370	         1.19690e+58
          1271.26000	         1.06528e+58
          1272.06630	         1.18943e+58
          1272.87260	         1.10416e+58
          1273.67890	         1.36422e+58
          1274.48520	         1.43621e+58
          1275.29150	         1.27336e+58
          1276.09780	         1.07668e+58
          1276.90410	         1.35839e+58
          1277.71040	         1.25244e+58
          1278.51670	         1.13090e+58
          1279.32300	         1.43723e+58
          1280.12930	         1.21700e+58
          1280.93560	         1.22874e+58
          1281.74190	         1.34301e+58
          1282.54820	         1.25454e+58
          1283.35450	         8.77449e+57
          1284.16080	         9.91003e+57
          1284.96710	         1.48938e+58
          1285.77340	         1.34948e+58
          1286.57970	         1.30952e+58
          1287.38600	         1.67082e+58
          1288.19230	         1.88701e+58
          1288.99860	         1.43981e+58
          1289.80490	         9.31943e+57
          1290.61120	         1.24616e+58
          1291.41750	         1.47635e+58
          1292.22380	         1.26615e+58
          1293.03010	         1.04820e+58
          1293.83640	         1.23277e+58
          1294.64270	         1.14294e+58
          1295.44900	         7.16264e+57
          1296.25530	         6.78660e+57
          1297.06160	         1.04878e+58
          1297.86790	         1.35057e+58
          1298.67420	         1.13761e+58
          1299.48050	         1.00312e+58
          1300.28680	         1.20656e+58
          1301.09310	         9.61781e+57
          1301.89940	         4.60428e+57
          1302.70570	         5.42503e+57
          1303.51200	         8.84407e+57
          1304.31830	         1.12138e+58
          1305.12460	         1.15748e+58
          1305.93090	         1.12749e+58
          1306.73720	         1.21051e+58
          1307.54350	         1.45026e+58
          1308.34980	         1.54145e+58
          1309.15610	         1.45082e+58
          1309.96240	         1.52524e+58
          1310.76870	         1.66676e+58
          1311.57500	         1.77148e+58
          1312.38130	         1.57584e+58
          1313.18760	         1.51510e+58
          1313.99390	         1.61176e+58
          1314.80020	         1.74803e+58
          1315.60650	         1.59782e+58
          1316.41280	         1.25454e+58
          1317.21910	         1.04287e+58
          1318.02540	         1.07298e+58
          1318.83170	         1.21755e+58
          1319.63800	         1.32743e+58
          1320.44430	         1.33693e+58
          1321.25060	         1.30625e+58
          1322.05690	         1.32537e+58
          1322.86320	         1.34673e+58
          1323.66950	         1.27764e+58
          1324.47580	         1.09926e+58
          1325.28210	         1.04106e+58
          1326.08840	         1.17083e+58
          1326.89470	         1.31365e+58
          1327.70100	         1.16825e+58
          1328.50730	         8.93351e+57
          1329.31360	         9.86311e+57
          1330.11990	         1.02415e+58
          1330.92620	         8.47075e+57
          1331.73250	         1.01841e+58
          1332.53880	         9.87529e+57
          1333.34510	         8.03366e+57
          1334.15140	         8.99256e+57
          1334.95770	         9.51787e+57
          1335.76400	         1.00904e+58
          1336.57030	         1.14892e+58
          1337.37660	         1.10040e+58
          1338.18290	         8.69896e+57
          1338.98920	         1.07602e+58
          1339.79550	         1.33352e+58
          1340.60180	         1.28082e+58
          1341.40810	         1.34218e+58
          1342.21440	         1.21550e+58
          1343.02070	         1.28692e+58
          1343.82700	         1.40219e+58
          1344.63330	         1.23635e+58
          1345.43960	         1.33786e+58
          1346.24590	         1.34975e+58
          1347.05220	         1.20323e+58
          1347.85850	         9.95262e+57
          1348.66480	         1.09323e+58
          1349.47110	         1.02693e+58
          1350.27740	         1.04016e+58
          1351.08370	         1.17871e+58
          1351.89000	         1.13708e+58
          1352.69630	         1.09089e+58
          1353.50260	         1.15929e+58
          1354.30890	         1.35156e+58
          1355.11520	         1.34930e+58
          1355.92150	         1.16808e+58
          1356.72780	         1.15812e+58
          1357.53410	         1.22139e+58
          1358.34040	         1.27088e+58
          1359.14670	         1.15844e+58
          1359.95300	         1.09941e+58
          1360.75930	         1.04328e+58
          1361.56560	         9.62466e+57
          1362.37190	         1.12608e+58
          1363.17820	         1.22883e+58
          1363.98450	         1.36289e+58
          1364.79080	         1.44165e+58
          1365.59710	         1.24303e+58
          1366.40340	         1.12540e+58
          1367.20970	         8.97092e+57
          1368.01600	         8.48518e+57
          1368.82230	         9.22854e+57
          1369.62860	         1.18216e+58
          1370.43490	         1.06864e+58
          1371.24120	         8.38912e+57
          1372.04750	         8.69134e+57
          1372.85380	         1.12951e+58
          1373.66010	         1.18985e+58
          1374.46640	         1.04284e+58
          1375.27270	         1.03272e+58
          1376.07900	         9.57895e+57
          1376.88530	         9.18905e+57
          1377.69160	         9.40148e+57
          1378.49790	         8.40594e+57
          1379.30420	         7.91238e+57
          1380.11050	         8.39390e+57
          1380.91680	         9.07944e+57
          1381.72310	         8.43277e+57
          1382.52940	         7.84730e+57
          1383.33570	         8.21844e+57
          1384.14200	         8.72573e+57
          1384.94830	         1.01826e+58
          1385.75460	         1.20216e+58
          1386.56090	         1.15855e+58
          1387.36720	         1.06492e+58
          1388.17350	         1.28830e+58
          1388.97980	         1.25247e+58
          1389.78610	         8.76207e+57
          1390.59240	         6.25956e+57
          1391.39870	         7.06915e+57
          1392.20500	         9.08307e+57
          1393.01130	         7.48406e+57
          1393.81760	         6.64820e+57
          1394.62390	         7.01233e+57
          1395.43020	         6.49035e+57
          1396.23650	         7.30779e+57
          1397.04280	         8.35813e+57
          1397.84910	         9.14325e+57
          1398.65540	         8.39736e+57
          1399.46170	         8.97146e+57
          1400.26800	         7.67548e+57
          1401.07430	         6.77305e+57
          1401.88060	         8.23350e+57
          1402.68690	         9.87574e+57
          1403.49320	         8.97368e+57
          1404.29950	         7.58495e+57
          1405.10580	         1.04753e+58
          1405.91210	         1.27337e+58
          1406.71840	         1.16812e+58
          1407.52470	         1.08421e+58
          1408.33100	         1.06187e+58
          1409.13730	         1.10171e+58
          1409.94360	         1.18992e+58
          1410.74990	         1.04532e+58
          1411.55620	         1.02858e+58
          1412.36250	         1.02926e+58
          1413.16880	         8.60825e+57
          1413.97510	         7.22249e+57
          1414.78140	         8.61517e+57
          1415.58770	         1.03068e+58
          1416.39400	         1.09349e+58
          1417.20030	         1.06758e+58
          1418.00660	         8.78660e+57
          1418.81290	         9.29166e+57
          1419.61920	         1.06531e+58
          1420.42550	         1.18229e+58
          1421.23180	         1.26727e+58
          1422.03810	         1.21739e+58
          1422.84440	         1.24195e+58
          1423.65070	         1.32481e+58
          1424.45700	         1.23930e+58
          1425.26330	         9.82681e+57
          1426.06960	         1.04262e+58
          1426.87590	         1.00298e+58
          1427.68220	         9.74385e+57
          1428.48850	         1.10777e+58
          1429.29480	         1.11619e+58
          1430.10110	         9.75688e+57
          1430.90740	         9.21798e+57
          1431.71370	         9.64510e+57
          1432.52000	         8.84718e+57
          1433.32630	         7.99995e+57
          1434.13260	         7.88663e+57
          1434.93890	         8.35086e+57
          1435.74520	         9.17817e+57
          1436.55150	         9.10273e+57
          1437.35780	         8.88261e+57
          1438.16410	         8.91094e+57
          1438.97040	         9.26306e+57
          1439.77670	         8.94095e+57
          1440.58300	         8.64138e+57
          1441.38930	         9.38743e+57
          1442.19560	         1.01038e+58
          1443.00190	         1.02643e+58
          1443.80820	         1.08192e+58
          1444.61450	         9.45863e+57
          1445.42080	         1.04319e+58
          1446.22710	         1.14774e+58
          1447.03340	         9.90601e+57
          1447.83970	         9.90224e+57
          1448.64600	         1.05638e+58
          1449.45230	         1.07010e+58
          1450.25860	         1.06403e+58
          1451.06490	         9.18993e+57
          1451.87120	         7.77736e+57
          1452.67750	         7.97144e+57
          1453.48380	         9.30823e+57
          1454.29010	         8.19794e+57
          1455.09640	         7.25626e+57
          1455.90270	         8.86246e+57
          1456.70900	         9.01045e+57
          1457.51530	         9.91952e+57
          1458.32160	         1.22276e+58
          1459.12790	         1.22528e+58
          1459.93420	         1.11289e+58
          1460.74050	         8.96863e+57
          1461.54680	         8.84148e+57
          1462.35310	         8.78290e+57
          1463.15940	         1.10002e+58
          1463.96570	         1.21662e+58
          1464.77200	         1.19103e+58
          1465.57830	         1.02902e+58
          1466.38460	         9.29691e+57
          1467.19090	         8.84679e+57
          1467.99720	         8.88762e+57
          1468.80350	         9.64396e+57
          1469.60980	         1.00448e+58
          1470.41610	         1.11165e+58
          1471.22240	         9.34019e+57
          1472.02870	         8.97283e+57
          1472.83500	         9.75025e+57
          1473.64130	         1.00373e+58
          1474.44760	         1.02105e+58
          1475.25390	         1.02113e+58
          1476.06020	         9.79691e+57
          1476.86650	         9.95912e+57
          1477.67280	         8.78602e+57
          1478.47910	         7.43213e+57
          1479.28540	         8.45621e+57
          1480.09170	         1.02109e+58
          1480.89800	         9.00466e+57
          1481.70430	         7.76135e+57
          1482.51060	         8.04066e+57
          1483.31690	         8.11246e+57
          1484.12320	         7.33988e+57
          1484.92950	         8.53363e+57
          1485.73580	         8.84314e+57
          1486.54210	         8.51037e+57
          1487.34840	         8.95671e+57
          1488.15470	         8.37935e+57
          1488.96100	         7.81847e+57
          1489.76730	         9.64003e+57
