#sample_59_stacked_spectrum_rest_UV-bands_median_H-alpha_noDC.txt
#median Lum: 1.70198e+42
#Rest-frame wavelength (A) | Luminosity (erg/s/A)
#
          1110.00000	         0.00000e+00
          1110.80630	         2.48385e+59
          1111.61260	         1.27195e+59
          1112.41890	         2.97603e+59
          1113.22520	        -9.79491e+58
          1114.03150	        -2.43104e+59
          1114.83780	        -4.89452e+56
          1115.64410	         1.15658e+59
          1116.45040	         2.43865e+59
          1117.25670	        -7.75153e+58
          1118.06300	         8.11100e+58
          1118.86930	         5.31918e+58
          1119.67560	         1.86630e+59
          1120.48190	        -6.71247e+57
          1121.28820	        -8.87788e+58
          1122.09450	        -2.70959e+58
          1122.90080	         6.60371e+58
          1123.70710	         6.96329e+58
          1124.51340	         7.38415e+58
          1125.31970	         2.79276e+58
          1126.12600	         9.20857e+57
          1126.93230	        -5.19855e+57
          1127.73860	        -4.70591e+58
          1128.54490	        -3.05467e+58
          1129.35120	        -1.86093e+58
          1130.15750	         1.58716e+58
          1130.96380	        -4.33278e+58
          1131.77010	         3.55710e+58
          1132.57640	         2.42118e+58
          1133.38270	         1.85033e+58
          1134.18900	         1.02878e+58
          1134.99530	        -6.02802e+57
          1135.80160	         1.90348e+57
          1136.60790	         1.46782e+58
          1137.41420	         4.86840e+57
          1138.22050	         6.13889e+58
          1139.02680	         4.94174e+58
          1139.83310	         2.42756e+58
          1140.63940	         2.22539e+58
          1141.44570	        -2.39898e+58
          1142.25200	         4.60460e+57
          1143.05830	         3.08683e+58
          1143.86460	         3.52562e+58
          1144.67090	         7.95574e+57
          1145.47720	         1.23502e+58
          1146.28350	         1.94009e+57
          1147.08980	         1.28915e+58
          1147.89610	         1.51509e+58
          1148.70240	         1.78548e+58
          1149.50870	         2.16749e+58
          1150.31500	         2.37597e+58
          1151.12130	         1.49945e+58
          1151.92760	         1.04989e+58
          1152.73390	         1.03247e+58
          1153.54020	         2.39278e+57
          1154.34650	         2.63516e+58
          1155.15280	         1.95449e+58
          1155.95910	         1.48877e+58
          1156.76540	         1.06656e+57
          1157.57170	        -4.67747e+57
          1158.37800	         3.77077e+57
          1159.18430	         6.27683e+56
          1159.99060	         3.83756e+57
          1160.79690	         7.22991e+57
          1161.60320	         1.30342e+58
          1162.40950	         1.28487e+58
          1163.21580	         2.28712e+58
          1164.02210	         8.64795e+57
          1164.82840	         1.14125e+58
          1165.63470	         1.39415e+58
          1166.44100	         2.53165e+58
          1167.24730	         2.13764e+58
          1168.05360	         1.23902e+58
          1168.85990	         7.51846e+57
          1169.66620	         6.29362e+57
          1170.47250	         1.28847e+58
          1171.27880	         1.08651e+58
          1172.08510	         4.83867e+57
          1172.89140	         1.22495e+58
          1173.69770	         5.90283e+57
          1174.50400	         1.07097e+58
          1175.31030	         1.22439e+58
          1176.11660	         1.58260e+58
          1176.92290	         1.18917e+58
          1177.72920	         9.74156e+57
          1178.53550	         1.02664e+58
          1179.34180	         5.73106e+57
          1180.14810	         9.38376e+57
          1180.95440	         7.04479e+57
          1181.76070	         6.90606e+57
          1182.56700	         1.09624e+58
          1183.37330	         1.23539e+58
          1184.17960	         1.83992e+58
          1184.98590	         1.17797e+58
          1185.79220	         5.65690e+57
          1186.59850	         1.18919e+58
          1187.40480	         1.56023e+58
          1188.21110	         1.19801e+58
          1189.01740	         6.84373e+57
          1189.82370	         7.72390e+57
          1190.63000	         8.32936e+57
          1191.43630	         1.48133e+58
          1192.24260	         1.24069e+58
          1193.04890	         1.28202e+58
          1193.85520	         1.13103e+58
          1194.66150	         1.07277e+58
          1195.46780	         1.40410e+58
          1196.27410	         1.35208e+58
          1197.08040	         1.12293e+58
          1197.88670	         1.30568e+58
          1198.69300	         1.17230e+58
          1199.49930	         1.43193e+58
          1200.30560	         1.40029e+58
          1201.11190	         1.33164e+58
          1201.91820	         1.22780e+58
          1202.72450	         8.21212e+57
          1203.53080	         1.25237e+58
          1204.33710	         6.75466e+57
          1205.14340	         8.19791e+57
          1205.94970	         1.09762e+58
          1206.75600	         7.61584e+57
          1207.56230	         6.78604e+57
          1208.36860	         1.08491e+58
          1209.17490	         4.09691e+57
          1209.98120	         4.68011e+57
          1210.78750	         9.78491e+57
          1211.59380	         1.33506e+58
          1212.40010	         1.80231e+58
          1213.20640	         2.03060e+58
          1214.01270	         1.88315e+58
          1214.81900	         2.19403e+58
          1215.62530	         4.07049e+58
          1216.43160	         8.72027e+58
          1217.23790	         1.49708e+59
          1218.04420	         1.13291e+59
          1218.85050	         8.54383e+58
          1219.65680	         5.46708e+58
          1220.46310	         3.13581e+58
          1221.26940	         1.91154e+58
          1222.07570	         1.29710e+58
          1222.88200	         1.33655e+58
          1223.68830	         1.35404e+58
          1224.49460	         7.12002e+57
          1225.30090	         6.94380e+57
          1226.10720	         7.41353e+57
          1226.91350	         6.98382e+57
          1227.71980	         6.97489e+57
          1228.52610	         9.33414e+57
          1229.33240	         7.51780e+57
          1230.13870	         7.97806e+57
          1230.94500	         5.98825e+57
          1231.75130	         4.56624e+57
          1232.55760	         9.72728e+57
          1233.36390	         9.30621e+57
          1234.17020	         5.71688e+57
          1234.97650	         7.72805e+57
          1235.78280	         1.07343e+58
          1236.58910	         1.09010e+58
          1237.39540	         1.18890e+58
          1238.20170	         1.02589e+58
          1239.00800	         1.22111e+58
          1239.81430	         1.42923e+58
          1240.62060	         1.30470e+58
          1241.42690	         1.13034e+58
          1242.23320	         1.36236e+58
          1243.03950	         9.60047e+57
          1243.84580	         7.92803e+57
          1244.65210	         9.11231e+57
          1245.45840	         9.18612e+57
          1246.26470	         9.49750e+57
          1247.07100	         8.72234e+57
          1247.87730	         5.68978e+57
          1248.68360	         6.80725e+57
          1249.48990	         5.59095e+57
          1250.29620	         7.15947e+57
          1251.10250	         9.50890e+57
          1251.90880	         8.69128e+57
          1252.71510	         6.05106e+57
          1253.52140	         5.71712e+57
          1254.32770	         8.71487e+57
          1255.13400	         1.31296e+58
          1255.94030	         1.14661e+58
          1256.74660	         1.05163e+58
          1257.55290	         8.85744e+57
          1258.35920	         5.91997e+57
          1259.16550	         6.11803e+57
          1259.97180	         5.30628e+57
          1260.77810	         8.80087e+57
          1261.58440	         1.12548e+58
          1262.39070	         8.54740e+57
          1263.19700	         7.91688e+57
          1264.00330	         9.46782e+57
          1264.80960	         9.29577e+57
          1265.61590	         1.18322e+58
          1266.42220	         1.27251e+58
          1267.22850	         1.04947e+58
          1268.03480	         1.22329e+58
          1268.84110	         1.48853e+58
          1269.64740	         1.30911e+58
          1270.45370	         1.32803e+58
          1271.26000	         1.22982e+58
          1272.06630	         1.29916e+58
          1272.87260	         1.20279e+58
          1273.67890	         1.09297e+58
          1274.48520	         1.20061e+58
          1275.29150	         1.28606e+58
          1276.09780	         1.32860e+58
          1276.90410	         1.54474e+58
          1277.71040	         1.45218e+58
          1278.51670	         1.34935e+58
          1279.32300	         1.59760e+58
          1280.12930	         1.33745e+58
          1280.93560	         9.19036e+57
          1281.74190	         9.45754e+57
          1282.54820	         1.06444e+58
          1283.35450	         9.57105e+57
          1284.16080	         9.76600e+57
          1284.96710	         1.21510e+58
          1285.77340	         1.01844e+58
          1286.57970	         1.04248e+58
          1287.38600	         1.39913e+58
          1288.19230	         1.43770e+58
          1288.99860	         1.42213e+58
          1289.80490	         1.15060e+58
          1290.61120	         1.23304e+58
          1291.41750	         1.48987e+58
          1292.22380	         1.29268e+58
          1293.03010	         1.10299e+58
          1293.83640	         1.09054e+58
          1294.64270	         9.30855e+57
          1295.44900	         8.40102e+57
          1296.25530	         9.04989e+57
          1297.06160	         1.02183e+58
          1297.86790	         1.09375e+58
          1298.67420	         1.10486e+58
          1299.48050	         1.23276e+58
          1300.28680	         1.24229e+58
          1301.09310	         8.39304e+57
          1301.89940	         3.01848e+57
          1302.70570	         6.01338e+57
          1303.51200	         8.44459e+57
          1304.31830	         1.10478e+58
          1305.12460	         1.22626e+58
          1305.93090	         1.18514e+58
          1306.73720	         1.22765e+58
          1307.54350	         1.43734e+58
          1308.34980	         1.46539e+58
          1309.15610	         1.49658e+58
          1309.96240	         1.45854e+58
          1310.76870	         1.12335e+58
          1311.57500	         9.98301e+57
          1312.38130	         1.01220e+58
          1313.18760	         1.19953e+58
          1313.99390	         1.38515e+58
          1314.80020	         1.47971e+58
          1315.60650	         1.45344e+58
          1316.41280	         1.29051e+58
          1317.21910	         1.16345e+58
          1318.02540	         1.09684e+58
          1318.83170	         1.27986e+58
          1319.63800	         1.21507e+58
          1320.44430	         1.16700e+58
          1321.25060	         1.26155e+58
          1322.05690	         1.22749e+58
          1322.86320	         1.22296e+58
          1323.66950	         1.18968e+58
          1324.47580	         9.82443e+57
          1325.28210	         9.40111e+57
          1326.08840	         1.13310e+58
          1326.89470	         1.21404e+58
          1327.70100	         9.86707e+57
          1328.50730	         8.60813e+57
          1329.31360	         8.83129e+57
          1330.11990	         9.45335e+57
          1330.92620	         8.68791e+57
          1331.73250	         1.04779e+58
          1332.53880	         1.00751e+58
          1333.34510	         7.79333e+57
          1334.15140	         8.36993e+57
          1334.95770	         9.81380e+57
          1335.76400	         1.12500e+58
          1336.57030	         1.22141e+58
          1337.37660	         1.16322e+58
          1338.18290	         1.09095e+58
          1338.98920	         1.09822e+58
          1339.79550	         1.13566e+58
          1340.60180	         1.28151e+58
          1341.40810	         1.37754e+58
          1342.21440	         1.14345e+58
          1343.02070	         1.03664e+58
          1343.82700	         1.35233e+58
          1344.63330	         1.35170e+58
          1345.43960	         1.22002e+58
          1346.24590	         9.68785e+57
          1347.05220	         1.23665e+58
          1347.85850	         1.22286e+58
          1348.66480	         1.14698e+58
          1349.47110	         1.30623e+58
          1350.27740	         1.24840e+58
          1351.08370	         1.17547e+58
          1351.89000	         1.15557e+58
          1352.69630	         1.11393e+58
          1353.50260	         1.21980e+58
          1354.30890	         1.32650e+58
          1355.11520	         1.26105e+58
          1355.92150	         1.08733e+58
          1356.72780	         1.08981e+58
          1357.53410	         1.09316e+58
          1358.34040	         1.08143e+58
          1359.14670	         1.07560e+58
          1359.95300	         1.14801e+58
          1360.75930	         1.14444e+58
          1361.56560	         1.04677e+58
          1362.37190	         1.26914e+58
          1363.17820	         1.18742e+58
          1363.98450	         1.22814e+58
          1364.79080	         1.45166e+58
          1365.59710	         1.35762e+58
          1366.40340	         1.18572e+58
          1367.20970	         1.07636e+58
          1368.01600	         1.07578e+58
          1368.82230	         8.91267e+57
          1369.62860	         8.00502e+57
          1370.43490	         8.57356e+57
          1371.24120	         9.36396e+57
          1372.04750	         9.44605e+57
          1372.85380	         1.05832e+58
          1373.66010	         1.09295e+58
          1374.46640	         1.12640e+58
          1375.27270	         1.12502e+58
          1376.07900	         9.28892e+57
          1376.88530	         9.40875e+57
          1377.69160	         9.26380e+57
          1378.49790	         6.41512e+57
          1379.30420	         7.16954e+57
          1380.11050	         1.00492e+58
          1380.91680	         9.45445e+57
          1381.72310	         8.28500e+57
          1382.52940	         9.05681e+57
          1383.33570	         7.87840e+57
          1384.14200	         8.32869e+57
          1384.94830	         1.11822e+58
          1385.75460	         1.08818e+58
          1386.56090	         1.01585e+58
          1387.36720	         1.01638e+58
          1388.17350	         1.33095e+58
          1388.97980	         1.23593e+58
          1389.78610	         1.01565e+58
          1390.59240	         7.79888e+57
          1391.39870	         6.71489e+57
          1392.20500	         8.99088e+57
          1393.01130	         8.72022e+57
          1393.81760	         8.96936e+57
          1394.62390	         8.86509e+57
          1395.43020	         6.80154e+57
          1396.23650	         7.44521e+57
          1397.04280	         8.43957e+57
          1397.84910	         9.47707e+57
          1398.65540	         9.70945e+57
          1399.46170	         1.06032e+58
          1400.26800	         9.44143e+57
          1401.07430	         7.24047e+57
          1401.88060	         7.27049e+57
          1402.68690	         8.79545e+57
          1403.49320	         9.92783e+57
          1404.29950	         9.40277e+57
          1405.10580	         1.03098e+58
          1405.91210	         1.11006e+58
          1406.71840	         1.00794e+58
          1407.52470	         1.01145e+58
          1408.33100	         1.03021e+58
          1409.13730	         1.18254e+58
          1409.94360	         1.31800e+58
          1410.74990	         1.20006e+58
          1411.55620	         1.06801e+58
          1412.36250	         9.63563e+57
          1413.16880	         8.82448e+57
          1413.97510	         9.02983e+57
          1414.78140	         9.92475e+57
          1415.58770	         1.10470e+58
          1416.39400	         1.13854e+58
          1417.20030	         1.01641e+58
          1418.00660	         9.58951e+57
          1418.81290	         1.19345e+58
          1419.61920	         1.25367e+58
          1420.42550	         1.26604e+58
          1421.23180	         1.39258e+58
          1422.03810	         1.35467e+58
          1422.84440	         1.15693e+58
          1423.65070	         1.23052e+58
          1424.45700	         1.03481e+58
          1425.26330	         9.47045e+57
          1426.06960	         1.00566e+58
          1426.87590	         1.01829e+58
          1427.68220	         1.08534e+58
          1428.48850	         1.04012e+58
          1429.29480	         1.10874e+58
          1430.10110	         1.10325e+58
          1430.90740	         9.14817e+57
          1431.71370	         9.05342e+57
          1432.52000	         9.70088e+57
          1433.32630	         8.34510e+57
          1434.13260	         7.94783e+57
          1434.93890	         9.23629e+57
          1435.74520	         9.31161e+57
          1436.55150	         9.18657e+57
          1437.35780	         8.61910e+57
          1438.16410	         9.48928e+57
          1438.97040	         1.02410e+58
          1439.77670	         9.39994e+57
          1440.58300	         8.88929e+57
          1441.38930	         9.41233e+57
          1442.19560	         9.83268e+57
          1443.00190	         1.09014e+58
          1443.80820	         1.06854e+58
          1444.61450	         9.90032e+57
          1445.42080	         9.16855e+57
          1446.22710	         9.91497e+57
          1447.03340	         9.70130e+57
          1447.83970	         1.03935e+58
          1448.64600	         1.08443e+58
          1449.45230	         1.01969e+58
          1450.25860	         1.00147e+58
          1451.06490	         8.30286e+57
          1451.87120	         7.33430e+57
          1452.67750	         7.64064e+57
          1453.48380	         9.29766e+57
          1454.29010	         7.43085e+57
          1455.09640	         6.63637e+57
          1455.90270	         9.18303e+57
          1456.70900	         9.59799e+57
          1457.51530	         1.07926e+58
          1458.32160	         1.13110e+58
          1459.12790	         1.10588e+58
          1459.93420	         9.57425e+57
          1460.74050	         9.05097e+57
          1461.54680	         8.74671e+57
          1462.35310	         7.93971e+57
          1463.15940	         9.12498e+57
          1463.96570	         1.11693e+58
          1464.77200	         1.21878e+58
          1465.57830	         1.08729e+58
          1466.38460	         8.69006e+57
          1467.19090	         8.47710e+57
          1467.99720	         9.02365e+57
          1468.80350	         8.27327e+57
          1469.60980	         8.48095e+57
          1470.41610	         8.98547e+57
          1471.22240	         9.05413e+57
          1472.02870	         1.06247e+58
          1472.83500	         1.08685e+58
          1473.64130	         1.02440e+58
          1474.44760	         8.93519e+57
          1475.25390	         8.17952e+57
          1476.06020	         7.84364e+57
          1476.86650	         8.05319e+57
          1477.67280	         7.78940e+57
          1478.47910	         6.64531e+57
          1479.28540	         7.67025e+57
          1480.09170	         8.85565e+57
          1480.89800	         8.70505e+57
          1481.70430	         9.20757e+57
          1482.51060	         7.64445e+57
          1483.31690	         8.11263e+57
          1484.12320	         8.75037e+57
          1484.92950	         8.07895e+57
          1485.73580	         8.64080e+57
          1486.54210	         9.12966e+57
          1487.34840	         8.22223e+57
          1488.15470	         7.73388e+57
          1488.96100	         8.02773e+57
          1489.76730	         7.98652e+57
