#sample_191_stacked_spectrum_rest_UV-bands_median_H-alpha_noDC.txt
#median Lum: 1.68987e+42
#Rest-frame wavelength (A) | Luminosity (erg/s/A)
#
          1110.00000	         0.00000e+00
          1110.80630	         1.18391e+59
          1111.61260	         7.62482e+58
          1112.41890	         1.44780e+59
          1113.22520	        -1.42914e+59
          1114.03150	        -1.28004e+59
          1114.83780	         1.60721e+59
          1115.64410	         1.04715e+59
          1116.45040	        -1.03681e+59
          1117.25670	         3.98868e+58
          1118.06300	         2.61620e+58
          1118.86930	         2.40359e+58
          1119.67560	         5.23121e+56
          1120.48190	        -5.44772e+58
          1121.28820	        -1.29607e+59
          1122.09450	        -1.75778e+58
          1122.90080	        -2.07164e+58
          1123.70710	         2.76705e+58
          1124.51340	         3.46693e+58
          1125.31970	        -2.79942e+58
          1126.12600	         7.07935e+57
          1126.93230	        -5.43125e+58
          1127.73860	        -8.95046e+58
          1128.54490	        -2.49304e+58
          1129.35120	         1.52321e+58
          1130.15750	        -3.05852e+57
          1130.96380	        -3.38975e+58
          1131.77010	         4.95584e+58
          1132.57640	         5.27177e+58
          1133.38270	         2.87710e+58
          1134.18900	        -8.78099e+57
          1134.99530	         1.23850e+58
          1135.80160	         2.28917e+58
          1136.60790	         2.64404e+58
          1137.41420	         1.23841e+58
          1138.22050	         4.42289e+58
          1139.02680	         5.11787e+58
          1139.83310	         4.26389e+58
          1140.63940	         1.79952e+58
          1141.44570	        -2.01250e+58
          1142.25200	        -8.70728e+57
          1143.05830	         2.45760e+58
          1143.86460	         4.03880e+58
          1144.67090	         2.39824e+58
          1145.47720	         1.09178e+58
          1146.28350	        -2.57653e+57
          1147.08980	         1.16694e+58
          1147.89610	         6.46262e+57
          1148.70240	         1.93220e+58
          1149.50870	         1.92428e+58
          1150.31500	         1.07974e+58
          1151.12130	         1.62771e+58
          1151.92760	         1.82358e+58
          1152.73390	         1.58339e+58
          1153.54020	         9.35817e+57
          1154.34650	         2.60266e+58
          1155.15280	         2.41749e+58
          1155.95910	         1.79435e+58
          1156.76540	         1.23407e+58
          1157.57170	         7.31146e+56
          1158.37800	         5.60203e+57
          1159.18430	        -2.61567e+57
          1159.99060	         7.06221e+57
          1160.79690	         8.15071e+57
          1161.60320	         1.34030e+58
          1162.40950	         1.28601e+58
          1163.21580	         1.07565e+58
          1164.02210	         1.52827e+58
          1164.82840	         9.50068e+57
          1165.63470	         1.91790e+58
          1166.44100	         2.53046e+58
          1167.24730	         1.83557e+58
          1168.05360	         9.61720e+57
          1168.85990	         3.32939e+57
          1169.66620	         4.82746e+57
          1170.47250	         1.16575e+58
          1171.27880	        -1.63838e+57
          1172.08510	         2.21893e+56
          1172.89140	         1.28715e+58
          1173.69770	         3.18268e+57
          1174.50400	         8.88434e+57
          1175.31030	         1.29513e+58
          1176.11660	         8.78518e+57
          1176.92290	         1.44309e+58
          1177.72920	         1.36990e+58
          1178.53550	         5.45476e+57
          1179.34180	         2.81794e+57
          1180.14810	         9.25511e+57
          1180.95440	         1.00257e+58
          1181.76070	         6.69868e+57
          1182.56700	         9.02597e+57
          1183.37330	         7.28922e+57
          1184.17960	         1.03508e+58
          1184.98590	         1.24728e+58
          1185.79220	         7.65466e+57
          1186.59850	         8.33832e+57
          1187.40480	         1.15071e+58
          1188.21110	         1.37368e+58
          1189.01740	         6.44551e+57
          1189.82370	         7.23171e+57
          1190.63000	         1.02037e+58
          1191.43630	         9.79506e+57
          1192.24260	         7.95695e+57
          1193.04890	         1.38902e+58
          1193.85520	         1.32697e+58
          1194.66150	         5.69778e+57
          1195.46780	         1.41384e+58
          1196.27410	         1.71298e+58
          1197.08040	         1.36262e+58
          1197.88670	         1.61467e+58
          1198.69300	         1.39515e+58
          1199.49930	         1.33779e+58
          1200.30560	         9.45621e+57
          1201.11190	         1.12119e+58
          1201.91820	         1.04821e+58
          1202.72450	         7.61682e+57
          1203.53080	         1.69101e+58
          1204.33710	         1.19690e+58
          1205.14340	         8.68060e+57
          1205.94970	         5.11371e+57
          1206.75600	         8.34741e+57
          1207.56230	         5.31699e+57
          1208.36860	         5.70191e+57
          1209.17490	         3.56037e+57
          1209.98120	         6.49498e+57
          1210.78750	         4.19794e+57
          1211.59380	         1.13839e+58
          1212.40010	         2.08085e+58
          1213.20640	         1.97621e+58
          1214.01270	         1.78699e+58
          1214.81900	         2.25624e+58
          1215.62530	         4.56164e+58
          1216.43160	         8.96853e+58
          1217.23790	         1.47504e+59
          1218.04420	         1.17448e+59
          1218.85050	         8.57515e+58
          1219.65680	         5.31038e+58
          1220.46310	         3.08974e+58
          1221.26940	         2.46233e+58
          1222.07570	         1.74069e+58
          1222.88200	         1.21167e+58
          1223.68830	         1.05863e+58
          1224.49460	         6.50451e+57
          1225.30090	         3.75264e+57
          1226.10720	         6.59591e+57
          1226.91350	         6.17317e+57
          1227.71980	         7.40544e+57
          1228.52610	         1.29588e+58
          1229.33240	         8.84377e+57
          1230.13870	         8.14261e+57
          1230.94500	         9.39073e+57
          1231.75130	         4.94442e+57
          1232.55760	         6.63126e+57
          1233.36390	         9.08291e+57
          1234.17020	         8.00079e+57
          1234.97650	         6.18859e+57
          1235.78280	         6.70614e+57
          1236.58910	         8.51756e+57
          1237.39540	         1.10439e+58
          1238.20170	         1.05384e+58
          1239.00800	         1.28191e+58
          1239.81430	         1.72989e+58
          1240.62060	         1.39861e+58
          1241.42690	         9.65890e+57
          1242.23320	         1.16791e+58
          1243.03950	         9.32394e+57
          1243.84580	         9.26485e+57
          1244.65210	         1.05564e+58
          1245.45840	         8.91070e+57
          1246.26470	         9.01940e+57
          1247.07100	         5.50288e+57
          1247.87730	         5.79088e+57
          1248.68360	         6.54377e+57
          1249.48990	         7.93642e+57
          1250.29620	         8.20537e+57
          1251.10250	         7.65299e+57
          1251.90880	         3.97430e+57
          1252.71510	         4.07500e+57
          1253.52140	         7.38712e+57
          1254.32770	         1.12869e+58
          1255.13400	         1.26591e+58
          1255.94030	         1.04602e+58
          1256.74660	         7.93010e+57
          1257.55290	         8.48322e+57
          1258.35920	         8.53475e+57
          1259.16550	         4.22303e+57
          1259.97180	         3.60635e+57
          1260.77810	         7.83607e+57
          1261.58440	         9.99756e+57
          1262.39070	         7.24715e+57
          1263.19700	         7.32549e+57
          1264.00330	         9.01795e+57
          1264.80960	         1.08397e+58
          1265.61590	         1.30881e+58
          1266.42220	         1.19233e+58
          1267.22850	         9.86341e+57
          1268.03480	         1.35615e+58
          1268.84110	         1.43370e+58
          1269.64740	         1.49005e+58
          1270.45370	         1.42745e+58
          1271.26000	         1.16457e+58
          1272.06630	         1.17440e+58
          1272.87260	         1.40157e+58
          1273.67890	         1.37417e+58
          1274.48520	         1.16522e+58
          1275.29150	         1.32923e+58
          1276.09780	         1.29610e+58
          1276.90410	         1.36247e+58
          1277.71040	         1.39274e+58
          1278.51670	         1.20679e+58
          1279.32300	         1.29320e+58
          1280.12930	         1.26193e+58
          1280.93560	         1.16056e+58
          1281.74190	         1.27128e+58
          1282.54820	         1.37521e+58
          1283.35450	         1.14471e+58
          1284.16080	         1.04849e+58
          1284.96710	         1.27266e+58
          1285.77340	         1.26121e+58
          1286.57970	         1.20581e+58
          1287.38600	         1.43783e+58
          1288.19230	         1.59183e+58
          1288.99860	         1.40289e+58
          1289.80490	         1.09650e+58
          1290.61120	         1.23127e+58
          1291.41750	         1.33100e+58
          1292.22380	         1.19446e+58
          1293.03010	         9.92888e+57
          1293.83640	         1.04305e+58
          1294.64270	         1.04188e+58
          1295.44900	         7.30247e+57
          1296.25530	         8.13573e+57
          1297.06160	         9.57448e+57
          1297.86790	         1.08941e+58
          1298.67420	         1.01602e+58
          1299.48050	         8.92937e+57
          1300.28680	         8.89058e+57
          1301.09310	         6.32822e+57
          1301.89940	         3.82350e+57
          1302.70570	         6.75474e+57
          1303.51200	         8.24892e+57
          1304.31830	         1.00012e+58
          1305.12460	         1.11336e+58
          1305.93090	         1.11727e+58
          1306.73720	         1.09378e+58
          1307.54350	         1.23700e+58
          1308.34980	         1.39372e+58
          1309.15610	         1.39673e+58
          1309.96240	         1.30950e+58
          1310.76870	         1.11125e+58
          1311.57500	         1.24092e+58
          1312.38130	         1.28992e+58
          1313.18760	         1.30669e+58
          1313.99390	         1.52392e+58
          1314.80020	         1.43589e+58
          1315.60650	         1.38248e+58
          1316.41280	         1.38866e+58
          1317.21910	         1.12799e+58
          1318.02540	         1.17402e+58
          1318.83170	         1.18914e+58
          1319.63800	         1.10243e+58
          1320.44430	         1.01089e+58
          1321.25060	         1.13618e+58
          1322.05690	         1.11894e+58
          1322.86320	         1.09393e+58
          1323.66950	         1.01172e+58
          1324.47580	         8.08153e+57
          1325.28210	         1.04087e+58
          1326.08840	         1.24896e+58
          1326.89470	         1.17273e+58
          1327.70100	         1.12348e+58
          1328.50730	         8.54695e+57
          1329.31360	         9.44635e+57
          1330.11990	         1.03211e+58
          1330.92620	         8.76820e+57
          1331.73250	         1.00174e+58
          1332.53880	         1.08479e+58
          1333.34510	         1.01597e+58
          1334.15140	         9.60521e+57
          1334.95770	         1.00529e+58
          1335.76400	         1.07532e+58
          1336.57030	         1.02386e+58
          1337.37660	         1.08369e+58
          1338.18290	         1.07332e+58
          1338.98920	         1.23215e+58
          1339.79550	         1.33482e+58
          1340.60180	         1.26848e+58
          1341.40810	         1.48638e+58
          1342.21440	         1.39721e+58
          1343.02070	         1.39849e+58
          1343.82700	         1.54946e+58
          1344.63330	         1.35868e+58
          1345.43960	         1.30343e+58
          1346.24590	         1.03531e+58
          1347.05220	         1.22408e+58
          1347.85850	         1.02027e+58
          1348.66480	         9.81375e+57
          1349.47110	         1.28989e+58
          1350.27740	         1.43421e+58
          1351.08370	         1.20923e+58
          1351.89000	         1.10926e+58
          1352.69630	         1.17435e+58
          1353.50260	         1.21883e+58
          1354.30890	         1.23062e+58
          1355.11520	         1.11520e+58
          1355.92150	         9.73074e+57
          1356.72780	         1.00863e+58
          1357.53410	         1.02990e+58
          1358.34040	         1.10859e+58
          1359.14670	         1.06713e+58
          1359.95300	         1.14142e+58
          1360.75930	         1.29339e+58
          1361.56560	         1.22694e+58
          1362.37190	         1.12400e+58
          1363.17820	         1.04983e+58
          1363.98450	         1.13922e+58
          1364.79080	         1.28508e+58
          1365.59710	         1.33209e+58
          1366.40340	         1.20688e+58
          1367.20970	         1.05896e+58
          1368.01600	         9.75642e+57
          1368.82230	         9.28311e+57
          1369.62860	         8.31172e+57
          1370.43490	         7.01392e+57
          1371.24120	         8.42866e+57
          1372.04750	         8.24853e+57
          1372.85380	         1.04956e+58
          1373.66010	         1.06933e+58
          1374.46640	         9.50643e+57
          1375.27270	         1.00188e+58
          1376.07900	         9.45748e+57
          1376.88530	         8.09912e+57
          1377.69160	         6.52299e+57
          1378.49790	         6.59629e+57
          1379.30420	         6.99708e+57
          1380.11050	         8.12365e+57
          1380.91680	         9.02117e+57
          1381.72310	         7.89977e+57
          1382.52940	         9.09029e+57
          1383.33570	         8.45727e+57
          1384.14200	         9.09886e+57
          1384.94830	         1.17062e+58
          1385.75460	         1.28710e+58
          1386.56090	         1.25173e+58
          1387.36720	         9.80126e+57
          1388.17350	         1.16952e+58
          1388.97980	         1.23451e+58
          1389.78610	         9.66074e+57
          1390.59240	         6.71689e+57
          1391.39870	         6.21596e+57
          1392.20500	         7.89911e+57
          1393.01130	         7.61789e+57
          1393.81760	         8.42705e+57
          1394.62390	         7.85425e+57
          1395.43020	         6.12991e+57
          1396.23650	         6.44210e+57
          1397.04280	         7.07357e+57
          1397.84910	         8.78766e+57
          1398.65540	         9.02889e+57
          1399.46170	         1.10584e+58
          1400.26800	         9.79198e+57
          1401.07430	         8.39429e+57
          1401.88060	         7.56789e+57
          1402.68690	         8.66612e+57
          1403.49320	         8.97522e+57
          1404.29950	         1.00471e+58
          1405.10580	         1.10132e+58
          1405.91210	         1.04999e+58
          1406.71840	         1.04053e+58
          1407.52470	         1.10095e+58
          1408.33100	         1.03834e+58
          1409.13730	         1.10026e+58
          1409.94360	         1.11195e+58
          1410.74990	         1.07947e+58
          1411.55620	         1.00409e+58
          1412.36250	         9.40562e+57
          1413.16880	         8.72621e+57
          1413.97510	         8.15072e+57
          1414.78140	         8.38729e+57
          1415.58770	         9.87186e+57
          1416.39400	         1.02579e+58
          1417.20030	         1.02274e+58
          1418.00660	         9.01217e+57
          1418.81290	         9.75752e+57
          1419.61920	         1.17465e+58
          1420.42550	         1.36861e+58
          1421.23180	         1.49375e+58
          1422.03810	         1.25265e+58
          1422.84440	         1.19561e+58
          1423.65070	         1.34101e+58
          1424.45700	         1.16661e+58
          1425.26330	         8.94563e+57
          1426.06960	         8.84796e+57
          1426.87590	         1.04019e+58
          1427.68220	         1.08134e+58
          1428.48850	         1.18648e+58
          1429.29480	         1.14379e+58
          1430.10110	         1.07373e+58
          1430.90740	         9.79068e+57
          1431.71370	         9.82238e+57
          1432.52000	         9.40067e+57
          1433.32630	         8.74455e+57
          1434.13260	         8.28282e+57
          1434.93890	         8.57249e+57
          1435.74520	         8.54303e+57
          1436.55150	         9.54673e+57
          1437.35780	         9.74721e+57
          1438.16410	         1.01723e+58
          1438.97040	         1.05147e+58
          1439.77670	         9.43759e+57
          1440.58300	         9.89136e+57
          1441.38930	         9.98175e+57
          1442.19560	         9.38437e+57
          1443.00190	         9.05161e+57
          1443.80820	         1.05940e+58
          1444.61450	         9.59218e+57
          1445.42080	         7.38998e+57
          1446.22710	         8.69449e+57
          1447.03340	         9.61346e+57
          1447.83970	         1.11001e+58
          1448.64600	         1.16391e+58
          1449.45230	         1.05594e+58
          1450.25860	         1.01151e+58
          1451.06490	         8.65530e+57
          1451.87120	         7.56430e+57
          1452.67750	         7.18165e+57
          1453.48380	         8.59131e+57
          1454.29010	         8.51468e+57
          1455.09640	         7.52235e+57
          1455.90270	         7.96941e+57
          1456.70900	         9.19271e+57
          1457.51530	         1.01560e+58
          1458.32160	         1.20686e+58
          1459.12790	         1.26883e+58
          1459.93420	         1.10972e+58
          1460.74050	         8.30934e+57
          1461.54680	         7.37296e+57
          1462.35310	         8.00677e+57
          1463.15940	         1.01091e+58
          1463.96570	         1.18852e+58
          1464.77200	         1.23296e+58
          1465.57830	         1.07427e+58
          1466.38460	         9.32724e+57
          1467.19090	         8.20198e+57
          1467.99720	         8.90254e+57
          1468.80350	         8.60085e+57
          1469.60980	         7.88089e+57
          1470.41610	         9.40309e+57
          1471.22240	         9.66642e+57
          1472.02870	         9.71851e+57
          1472.83500	         9.78178e+57
          1473.64130	         9.10443e+57
          1474.44760	         9.51526e+57
          1475.25390	         9.80372e+57
          1476.06020	         9.32236e+57
          1476.86650	         8.77072e+57
          1477.67280	         6.96418e+57
          1478.47910	         6.74611e+57
          1479.28540	         7.62606e+57
          1480.09170	         8.79741e+57
          1480.89800	         8.64487e+57
          1481.70430	         9.39242e+57
          1482.51060	         8.84824e+57
          1483.31690	         7.87030e+57
          1484.12320	         7.44951e+57
          1484.92950	         7.59828e+57
          1485.73580	         8.54298e+57
          1486.54210	         8.79438e+57
          1487.34840	         7.96125e+57
          1488.15470	         7.56786e+57
          1488.96100	         8.86338e+57
          1489.76730	         9.80810e+57
