#sample_428_stacked_spectrum_rest_UV-bands_median_H-alpha_noDC.txt
#median Lum: 1.65739e+42
#Rest-frame wavelength (A) | Luminosity (erg/s/A)
#
          1110.00000	         0.00000e+00
          1110.80630	         3.96893e+59
          1111.61260	        -1.90326e+59
          1112.41890	        -9.30278e+58
          1113.22520	        -5.47712e+58
          1114.03150	        -6.33655e+58
          1114.83780	         2.58940e+59
          1115.64410	         1.39857e+59
          1116.45040	         3.77695e+58
          1117.25670	         1.40050e+59
          1118.06300	         1.28415e+59
          1118.86930	         1.67113e+59
          1119.67560	         6.80882e+58
          1120.48190	        -2.88166e+58
          1121.28820	        -5.53328e+58
          1122.09450	        -1.12379e+58
          1122.90080	        -3.01556e+58
          1123.70710	         2.79762e+58
          1124.51340	         2.01859e+59
          1125.31970	         7.38155e+58
          1126.12600	         2.85082e+57
          1126.93230	        -5.00408e+58
          1127.73860	        -6.09548e+58
          1128.54490	         4.15299e+58
          1129.35120	         1.75839e+57
          1130.15750	         1.52794e+58
          1130.96380	         1.05181e+58
          1131.77010	         6.18451e+58
          1132.57640	         3.75800e+58
          1133.38270	        -2.82970e+57
          1134.18900	         6.48240e+57
          1134.99530	        -1.04610e+58
          1135.80160	         4.08829e+57
          1136.60790	         8.25406e+57
          1137.41420	        -4.09067e+57
          1138.22050	         6.73320e+58
          1139.02680	         2.25595e+58
          1139.83310	         2.74745e+58
          1140.63940	         1.76589e+58
          1141.44570	         3.05871e+57
          1142.25200	        -6.21349e+57
          1143.05830	         1.02696e+58
          1143.86460	         2.91079e+58
          1144.67090	         2.66094e+58
          1145.47720	         1.93971e+58
          1146.28350	         1.45750e+58
          1147.08980	         1.81520e+58
          1147.89610	         9.56134e+57
          1148.70240	         2.36700e+58
          1149.50870	         2.05522e+58
          1150.31500	        -2.65131e+57
          1151.12130	         1.87783e+58
          1151.92760	         8.84091e+57
          1152.73390	         3.72039e+57
          1153.54020	         1.04924e+58
          1154.34650	         2.18255e+58
          1155.15280	         2.47959e+58
          1155.95910	         1.03340e+58
          1156.76540	         1.69338e+58
          1157.57170	         6.39728e+57
          1158.37800	         1.93634e+57
          1159.18430	        -2.80113e+57
          1159.99060	         9.67399e+57
          1160.79690	         7.06146e+57
          1161.60320	         1.84489e+57
          1162.40950	         1.26724e+58
          1163.21580	         2.35215e+58
          1164.02210	         1.30920e+58
          1164.82840	         1.09161e+58
          1165.63470	         2.16056e+58
          1166.44100	         2.61023e+58
          1167.24730	         2.08612e+58
          1168.05360	         9.62253e+57
          1168.85990	         6.40303e+57
          1169.66620	         3.80460e+57
          1170.47250	         4.73635e+57
          1171.27880	         7.78133e+57
          1172.08510	         1.98917e+58
          1172.89140	         1.29548e+58
          1173.69770	         6.56525e+57
          1174.50400	         9.12271e+57
          1175.31030	         2.01156e+58
          1176.11660	         2.02766e+58
          1176.92290	         1.72342e+58
          1177.72920	         1.12014e+58
          1178.53550	         9.19029e+57
          1179.34180	         8.72618e+57
          1180.14810	         7.92318e+57
          1180.95440	         7.69322e+57
          1181.76070	         4.31991e+57
          1182.56700	         2.62319e+57
          1183.37330	         4.40870e+57
          1184.17960	         7.45663e+57
          1184.98590	         6.51625e+57
          1185.79220	         7.44238e+57
          1186.59850	         1.04230e+58
          1187.40480	         1.39232e+58
          1188.21110	         1.39360e+58
          1189.01740	         1.27990e+58
          1189.82370	         1.37143e+58
          1190.63000	         1.22841e+58
          1191.43630	         8.67484e+57
          1192.24260	         1.00647e+58
          1193.04890	         1.45244e+58
          1193.85520	         1.42137e+58
          1194.66150	         6.92107e+57
          1195.46780	         9.23354e+57
          1196.27410	         8.78363e+57
          1197.08040	         6.19083e+57
          1197.88670	         9.53107e+57
          1198.69300	         1.59940e+58
          1199.49930	         1.65808e+58
          1200.30560	         1.03440e+58
          1201.11190	         6.47441e+57
          1201.91820	         5.39892e+57
          1202.72450	         9.61535e+57
          1203.53080	         1.63943e+58
          1204.33710	         6.20008e+57
          1205.14340	         8.38766e+57
          1205.94970	         1.00791e+58
          1206.75600	         5.49520e+57
          1207.56230	         3.14517e+57
          1208.36860	         9.99983e+57
          1209.17490	         6.05455e+57
          1209.98120	         4.54261e+57
          1210.78750	         4.15348e+57
          1211.59380	         9.38508e+57
          1212.40010	         1.62278e+58
          1213.20640	         1.86236e+58
          1214.01270	         2.35950e+58
          1214.81900	         2.84245e+58
          1215.62530	         4.29933e+58
          1216.43160	         9.05301e+58
          1217.23790	         1.51443e+59
          1218.04420	         1.13721e+59
          1218.85050	         8.74972e+58
          1219.65680	         5.55117e+58
          1220.46310	         3.26338e+58
          1221.26940	         2.33706e+58
          1222.07570	         1.02663e+58
          1222.88200	         1.16014e+58
          1223.68830	         1.04897e+58
          1224.49460	         7.85321e+57
          1225.30090	         6.69962e+57
          1226.10720	         8.29403e+57
          1226.91350	         9.27133e+57
          1227.71980	         9.24003e+57
          1228.52610	         1.05309e+58
          1229.33240	         6.67482e+57
          1230.13870	         5.79143e+57
          1230.94500	         7.44182e+57
          1231.75130	         6.73747e+57
          1232.55760	         1.14531e+58
          1233.36390	         1.07053e+58
          1234.17020	         7.46399e+57
          1234.97650	         6.56115e+57
          1235.78280	         6.14277e+57
          1236.58910	         8.99157e+57
          1237.39540	         1.08764e+58
          1238.20170	         1.17792e+58
          1239.00800	         1.24837e+58
          1239.81430	         1.42627e+58
          1240.62060	         1.16621e+58
          1241.42690	         9.05141e+57
          1242.23320	         1.04824e+58
          1243.03950	         8.63380e+57
          1243.84580	         9.14598e+57
          1244.65210	         1.10378e+58
          1245.45840	         9.96146e+57
          1246.26470	         7.83537e+57
          1247.07100	         6.83622e+57
          1247.87730	         5.29868e+57
          1248.68360	         3.31263e+57
          1249.48990	         6.92710e+57
          1250.29620	         9.88343e+57
          1251.10250	         7.06286e+57
          1251.90880	         4.04555e+57
          1252.71510	         4.30013e+57
          1253.52140	         6.44324e+57
          1254.32770	         9.17070e+57
          1255.13400	         1.16585e+58
          1255.94030	         8.68204e+57
          1256.74660	         8.46588e+57
          1257.55290	         9.67689e+57
          1258.35920	         8.52752e+57
          1259.16550	         4.98031e+57
          1259.97180	         3.34432e+57
          1260.77810	         8.36364e+57
          1261.58440	         1.08004e+58
          1262.39070	         6.84678e+57
          1263.19700	         6.24640e+57
          1264.00330	         9.24239e+57
          1264.80960	         1.05609e+58
          1265.61590	         1.32240e+58
          1266.42220	         1.22237e+58
          1267.22850	         1.07988e+58
          1268.03480	         1.27693e+58
          1268.84110	         1.35935e+58
          1269.64740	         1.39204e+58
          1270.45370	         1.39670e+58
          1271.26000	         1.00823e+58
          1272.06630	         1.07065e+58
          1272.87260	         1.29472e+58
          1273.67890	         1.31500e+58
          1274.48520	         1.23143e+58
          1275.29150	         1.06581e+58
          1276.09780	         9.79890e+57
          1276.90410	         1.40011e+58
          1277.71040	         1.36840e+58
          1278.51670	         1.27802e+58
          1279.32300	         1.42182e+58
          1280.12930	         1.26714e+58
          1280.93560	         1.16312e+58
          1281.74190	         1.19756e+58
          1282.54820	         1.27140e+58
          1283.35450	         1.26596e+58
          1284.16080	         1.26117e+58
          1284.96710	         1.44707e+58
          1285.77340	         1.23009e+58
          1286.57970	         1.13507e+58
          1287.38600	         1.35544e+58
          1288.19230	         1.50288e+58
          1288.99860	         1.37590e+58
          1289.80490	         1.17140e+58
          1290.61120	         1.15264e+58
          1291.41750	         1.10226e+58
          1292.22380	         1.03073e+58
          1293.03010	         8.69024e+57
          1293.83640	         1.02369e+58
          1294.64270	         9.72991e+57
          1295.44900	         6.18974e+57
          1296.25530	         6.84212e+57
          1297.06160	         7.91269e+57
          1297.86790	         9.66548e+57
          1298.67420	         9.86219e+57
          1299.48050	         1.00329e+58
          1300.28680	         1.03065e+58
          1301.09310	         8.36870e+57
          1301.89940	         4.83142e+57
          1302.70570	         6.78280e+57
          1303.51200	         7.98188e+57
          1304.31830	         1.00840e+58
          1305.12460	         9.64025e+57
          1305.93090	         9.02055e+57
          1306.73720	         1.05852e+58
          1307.54350	         1.22274e+58
          1308.34980	         1.46675e+58
          1309.15610	         1.69954e+58
          1309.96240	         1.64647e+58
          1310.76870	         1.24208e+58
          1311.57500	         1.02935e+58
          1312.38130	         1.05153e+58
          1313.18760	         1.26681e+58
          1313.99390	         1.50184e+58
          1314.80020	         1.52520e+58
          1315.60650	         1.36648e+58
          1316.41280	         1.18560e+58
          1317.21910	         1.17338e+58
          1318.02540	         1.17080e+58
          1318.83170	         1.15385e+58
          1319.63800	         1.12321e+58
          1320.44430	         1.09291e+58
          1321.25060	         1.19030e+58
          1322.05690	         1.29885e+58
          1322.86320	         1.32523e+58
          1323.66950	         1.19361e+58
          1324.47580	         9.65404e+57
          1325.28210	         9.32969e+57
          1326.08840	         1.12752e+58
          1326.89470	         1.17831e+58
          1327.70100	         1.04816e+58
          1328.50730	         8.54902e+57
          1329.31360	         8.49515e+57
          1330.11990	         8.98099e+57
          1330.92620	         9.76895e+57
          1331.73250	         1.13472e+58
          1332.53880	         9.81884e+57
          1333.34510	         8.30759e+57
          1334.15140	         7.85368e+57
          1334.95770	         7.77781e+57
          1335.76400	         8.71934e+57
          1336.57030	         1.05166e+58
          1337.37660	         1.04188e+58
          1338.18290	         9.58298e+57
          1338.98920	         1.08356e+58
          1339.79550	         1.09846e+58
          1340.60180	         9.72715e+57
          1341.40810	         1.13553e+58
          1342.21440	         1.15339e+58
          1343.02070	         1.07660e+58
          1343.82700	         1.17116e+58
          1344.63330	         1.23814e+58
          1345.43960	         1.17526e+58
          1346.24590	         1.05851e+58
          1347.05220	         1.13694e+58
          1347.85850	         1.06348e+58
          1348.66480	         1.20311e+58
          1349.47110	         1.34113e+58
          1350.27740	         1.21915e+58
          1351.08370	         1.20315e+58
          1351.89000	         1.09652e+58
          1352.69630	         1.09141e+58
          1353.50260	         1.22870e+58
          1354.30890	         1.16812e+58
          1355.11520	         1.00420e+58
          1355.92150	         9.14541e+57
          1356.72780	         9.36070e+57
          1357.53410	         1.11030e+58
          1358.34040	         1.11435e+58
          1359.14670	         9.57468e+57
          1359.95300	         1.02339e+58
          1360.75930	         1.02049e+58
          1361.56560	         9.25325e+57
          1362.37190	         1.06033e+58
          1363.17820	         1.11933e+58
          1363.98450	         1.28875e+58
          1364.79080	         1.33779e+58
          1365.59710	         1.32093e+58
          1366.40340	         1.20917e+58
          1367.20970	         1.16555e+58
          1368.01600	         1.00614e+58
          1368.82230	         9.12505e+57
          1369.62860	         1.00145e+58
          1370.43490	         9.82998e+57
          1371.24120	         9.65885e+57
          1372.04750	         8.49386e+57
          1372.85380	         1.02414e+58
          1373.66010	         1.13309e+58
          1374.46640	         1.00905e+58
          1375.27270	         9.91560e+57
          1376.07900	         8.35204e+57
          1376.88530	         7.70291e+57
          1377.69160	         8.50265e+57
          1378.49790	         6.56023e+57
          1379.30420	         5.55871e+57
          1380.11050	         8.75886e+57
          1380.91680	         8.73287e+57
          1381.72310	         7.73375e+57
          1382.52940	         8.55385e+57
          1383.33570	         7.99488e+57
          1384.14200	         8.19200e+57
          1384.94830	         1.04448e+58
          1385.75460	         1.07471e+58
          1386.56090	         1.04688e+58
          1387.36720	         1.06633e+58
          1388.17350	         1.32540e+58
          1388.97980	         1.27211e+58
          1389.78610	         1.04850e+58
          1390.59240	         9.02929e+57
          1391.39870	         7.48391e+57
          1392.20500	         8.24508e+57
          1393.01130	         7.51355e+57
          1393.81760	         6.02427e+57
          1394.62390	         6.16249e+57
          1395.43020	         6.01959e+57
          1396.23650	         6.39629e+57
          1397.04280	         6.73427e+57
          1397.84910	         6.95452e+57
          1398.65540	         9.65729e+57
          1399.46170	         1.13495e+58
          1400.26800	         8.83846e+57
          1401.07430	         6.22763e+57
          1401.88060	         6.90765e+57
          1402.68690	         8.59454e+57
          1403.49320	         9.54568e+57
          1404.29950	         8.61955e+57
          1405.10580	         9.13468e+57
          1405.91210	         1.07220e+58
          1406.71840	         1.05792e+58
          1407.52470	         9.66580e+57
          1408.33100	         1.07370e+58
          1409.13730	         1.27301e+58
          1409.94360	         1.15864e+58
          1410.74990	         1.10937e+58
          1411.55620	         9.96068e+57
          1412.36250	         8.11329e+57
          1413.16880	         8.17028e+57
          1413.97510	         9.17054e+57
          1414.78140	         1.00563e+58
          1415.58770	         1.09632e+58
          1416.39400	         1.13279e+58
          1417.20030	         1.24731e+58
          1418.00660	         1.01758e+58
          1418.81290	         9.91953e+57
          1419.61920	         1.19078e+58
          1420.42550	         1.25610e+58
          1421.23180	         1.29737e+58
          1422.03810	         1.06403e+58
          1422.84440	         9.63758e+57
          1423.65070	         1.04042e+58
          1424.45700	         1.01513e+58
          1425.26330	         8.61500e+57
          1426.06960	         8.43717e+57
          1426.87590	         1.07837e+58
          1427.68220	         1.07285e+58
          1428.48850	         1.03101e+58
          1429.29480	         9.31423e+57
          1430.10110	         9.48915e+57
          1430.90740	         9.05883e+57
          1431.71370	         7.92425e+57
          1432.52000	         7.70213e+57
          1433.32630	         8.16604e+57
          1434.13260	         8.20782e+57
          1434.93890	         7.14669e+57
          1435.74520	         8.13167e+57
          1436.55150	         9.59442e+57
          1437.35780	         8.78443e+57
          1438.16410	         8.94132e+57
          1438.97040	         8.47537e+57
          1439.77670	         8.65606e+57
          1440.58300	         9.16743e+57
          1441.38930	         9.04419e+57
          1442.19560	         9.92064e+57
          1443.00190	         9.67458e+57
          1443.80820	         1.00740e+58
          1444.61450	         9.95854e+57
          1445.42080	         8.80010e+57
          1446.22710	         9.91979e+57
          1447.03340	         9.49762e+57
          1447.83970	         8.65677e+57
          1448.64600	         8.98725e+57
          1449.45230	         9.10828e+57
          1450.25860	         9.89277e+57
          1451.06490	         9.84062e+57
          1451.87120	         7.10578e+57
          1452.67750	         6.98414e+57
          1453.48380	         8.53423e+57
          1454.29010	         7.74203e+57
          1455.09640	         7.39526e+57
          1455.90270	         8.48431e+57
          1456.70900	         8.82552e+57
          1457.51530	         9.17339e+57
          1458.32160	         1.10584e+58
          1459.12790	         1.16311e+58
          1459.93420	         9.35267e+57
          1460.74050	         8.23607e+57
          1461.54680	         8.27334e+57
          1462.35310	         8.30055e+57
          1463.15940	         9.39788e+57
          1463.96570	         1.02140e+58
          1464.77200	         1.10075e+58
          1465.57830	         9.06827e+57
          1466.38460	         8.84692e+57
          1467.19090	         9.25407e+57
          1467.99720	         8.52007e+57
          1468.80350	         8.17417e+57
          1469.60980	         8.75547e+57
          1470.41610	         1.02482e+58
          1471.22240	         9.29933e+57
          1472.02870	         9.24976e+57
          1472.83500	         9.46054e+57
          1473.64130	         8.71420e+57
          1474.44760	         9.12918e+57
          1475.25390	         9.45810e+57
          1476.06020	         8.75645e+57
          1476.86650	         8.51857e+57
          1477.67280	         7.92984e+57
          1478.47910	         6.76891e+57
          1479.28540	         6.64811e+57
          1480.09170	         8.31737e+57
          1480.89800	         7.69528e+57
          1481.70430	         7.14150e+57
          1482.51060	         7.80194e+57
          1483.31690	         8.27431e+57
          1484.12320	         7.94921e+57
          1484.92950	         7.47425e+57
          1485.73580	         7.42833e+57
          1486.54210	         8.50143e+57
          1487.34840	         7.92868e+57
          1488.15470	         8.04564e+57
          1488.96100	         8.25748e+57
          1489.76730	         8.37372e+57
