#sample_253_stacked_spectrum_rest_UV-bands_median_H-alpha_noDC.txt
#median Lum: 1.71247e+42
#Rest-frame wavelength (A) | Luminosity (erg/s/A)
#
          1110.00000	         0.00000e+00
          1110.80630	        -3.38828e+58
          1111.61260	        -3.82453e+58
          1112.41890	         1.57906e+59
          1113.22520	         4.96711e+58
          1114.03150	        -2.24926e+58
          1114.83780	         1.26449e+59
          1115.64410	         1.25184e+59
          1116.45040	        -5.70997e+58
          1117.25670	         2.91518e+58
          1118.06300	         2.07081e+59
          1118.86930	        -4.88542e+58
          1119.67560	         2.47849e+58
          1120.48190	        -8.24825e+58
          1121.28820	        -1.41713e+59
          1122.09450	        -6.93234e+57
          1122.90080	         8.36070e+58
          1123.70710	         1.56509e+59
          1124.51340	         7.53981e+58
          1125.31970	         6.33649e+58
          1126.12600	         1.30266e+58
          1126.93230	        -4.75952e+58
          1127.73860	        -5.67973e+58
          1128.54490	         4.66696e+56
          1129.35120	         2.57707e+58
          1130.15750	         1.06762e+58
          1130.96380	        -2.68535e+58
          1131.77010	         1.51835e+58
          1132.57640	         2.98116e+58
          1133.38270	         3.14815e+57
          1134.18900	         2.53562e+58
          1134.99530	        -3.47529e+57
          1135.80160	         6.82135e+57
          1136.60790	        -1.74816e+57
          1137.41420	        -1.35989e+58
          1138.22050	         3.28158e+58
          1139.02680	         3.05692e+58
          1139.83310	        -3.72384e+56
          1140.63940	         3.54016e+58
          1141.44570	        -6.61863e+57
          1142.25200	         1.01447e+58
          1143.05830	         3.68472e+58
          1143.86460	         1.75803e+58
          1144.67090	         3.64574e+58
          1145.47720	         1.75563e+58
          1146.28350	         3.42639e+57
          1147.08980	         9.73506e+57
          1147.89610	         2.17987e+58
          1148.70240	         2.84937e+58
          1149.50870	         2.78492e+58
          1150.31500	         1.85938e+58
          1151.12130	         6.46596e+57
          1151.92760	         4.47030e+57
          1152.73390	         5.63726e+57
          1153.54020	         9.25896e+57
          1154.34650	         2.52449e+58
          1155.15280	         2.00629e+58
          1155.95910	         1.53943e+58
          1156.76540	         1.04691e+58
          1157.57170	         9.36159e+56
          1158.37800	        -1.47858e+57
          1159.18430	         6.12405e+57
          1159.99060	         1.96589e+58
          1160.79690	         6.02264e+57
          1161.60320	         1.43705e+58
          1162.40950	         1.20891e+58
          1163.21580	         2.32579e+58
          1164.02210	         5.93193e+57
          1164.82840	         1.06603e+58
          1165.63470	         1.74622e+58
          1166.44100	         2.96993e+58
          1167.24730	         1.57400e+58
          1168.05360	         9.75894e+57
          1168.85990	         4.23805e+57
          1169.66620	         3.41715e+57
          1170.47250	         1.01128e+58
          1171.27880	         1.54582e+58
          1172.08510	         1.26173e+58
          1172.89140	         8.12439e+57
          1173.69770	         1.67245e+58
          1174.50400	         1.80953e+58
          1175.31030	         1.85273e+58
          1176.11660	         1.72349e+58
          1176.92290	         1.60057e+58
          1177.72920	         1.09704e+58
          1178.53550	         3.21135e+57
          1179.34180	         6.08097e+56
          1180.14810	         2.57634e+57
          1180.95440	         4.77155e+57
          1181.76070	         3.19631e+57
          1182.56700	         5.33125e+57
          1183.37330	         7.47590e+57
          1184.17960	         9.26834e+57
          1184.98590	         1.00527e+58
          1185.79220	         7.10937e+57
          1186.59850	         1.03343e+58
          1187.40480	         1.09977e+58
          1188.21110	         1.75033e+58
          1189.01740	         1.32586e+58
          1189.82370	         1.42340e+58
          1190.63000	         1.31537e+58
          1191.43630	         1.42057e+58
          1192.24260	         1.09199e+58
          1193.04890	         1.31960e+58
          1193.85520	         1.36447e+58
          1194.66150	         9.56080e+57
          1195.46780	         9.25827e+57
          1196.27410	         1.35447e+58
          1197.08040	         1.18369e+58
          1197.88670	         1.61832e+58
          1198.69300	         1.45332e+58
          1199.49930	         1.36752e+58
          1200.30560	         1.11153e+58
          1201.11190	         8.99240e+57
          1201.91820	         1.42632e+58
          1202.72450	         9.25683e+57
          1203.53080	         1.63850e+58
          1204.33710	         1.13303e+58
          1205.14340	         8.81210e+57
          1205.94970	         6.27957e+57
          1206.75600	         9.41830e+57
          1207.56230	         6.28798e+57
          1208.36860	         4.30333e+57
          1209.17490	         1.63314e+57
          1209.98120	         8.95904e+57
          1210.78750	         1.20420e+58
          1211.59380	         1.02109e+58
          1212.40010	         1.39255e+58
          1213.20640	         2.19134e+58
          1214.01270	         2.39879e+58
          1214.81900	         2.33249e+58
          1215.62530	         4.21657e+58
          1216.43160	         9.22919e+58
          1217.23790	         1.50896e+59
          1218.04420	         1.20760e+59
          1218.85050	         9.15927e+58
          1219.65680	         5.93273e+58
          1220.46310	         3.17278e+58
          1221.26940	         2.07593e+58
          1222.07570	         1.41219e+58
          1222.88200	         8.16847e+57
          1223.68830	         8.57687e+57
          1224.49460	         7.52941e+57
          1225.30090	         6.23939e+57
          1226.10720	         5.71062e+57
          1226.91350	         5.50286e+57
          1227.71980	         7.21629e+57
          1228.52610	         1.11798e+58
          1229.33240	         7.94214e+57
          1230.13870	         8.81543e+57
          1230.94500	         6.70340e+57
          1231.75130	         4.10775e+57
          1232.55760	         8.21534e+57
          1233.36390	         7.43283e+57
          1234.17020	         7.30957e+57
          1234.97650	         9.30273e+57
          1235.78280	         9.23071e+57
          1236.58910	         8.82839e+57
          1237.39540	         9.44603e+57
          1238.20170	         1.08887e+58
          1239.00800	         1.36592e+58
          1239.81430	         1.29610e+58
          1240.62060	         1.08671e+58
          1241.42690	         1.27718e+58
          1242.23320	         1.18700e+58
          1243.03950	         9.02199e+57
          1243.84580	         1.05312e+58
          1244.65210	         9.85394e+57
          1245.45840	         8.49757e+57
          1246.26470	         7.32794e+57
          1247.07100	         7.53203e+57
          1247.87730	         9.51692e+57
          1248.68360	         5.45008e+57
          1249.48990	         8.41618e+57
          1250.29620	         1.03989e+58
          1251.10250	         8.28689e+57
          1251.90880	         4.95695e+57
          1252.71510	         4.79684e+57
          1253.52140	         5.96296e+57
          1254.32770	         9.09853e+57
          1255.13400	         1.22350e+58
          1255.94030	         9.52287e+57
          1256.74660	         1.01607e+58
          1257.55290	         1.23681e+58
          1258.35920	         1.04508e+58
          1259.16550	         7.88211e+57
          1259.97180	         5.91397e+57
          1260.77810	         8.25916e+57
          1261.58440	         1.09077e+58
          1262.39070	         7.55572e+57
          1263.19700	         7.87724e+57
          1264.00330	         9.02794e+57
          1264.80960	         1.07817e+58
          1265.61590	         1.22153e+58
          1266.42220	         9.96470e+57
          1267.22850	         1.00593e+58
          1268.03480	         1.40739e+58
          1268.84110	         1.54006e+58
          1269.64740	         1.36879e+58
          1270.45370	         1.28449e+58
          1271.26000	         1.14690e+58
          1272.06630	         1.30133e+58
          1272.87260	         1.35867e+58
          1273.67890	         1.17089e+58
          1274.48520	         1.19688e+58
          1275.29150	         1.46277e+58
          1276.09780	         1.13090e+58
          1276.90410	         1.30759e+58
          1277.71040	         1.40227e+58
          1278.51670	         1.28435e+58
          1279.32300	         1.38218e+58
          1280.12930	         1.16498e+58
          1280.93560	         1.14695e+58
          1281.74190	         1.25195e+58
          1282.54820	         1.27771e+58
          1283.35450	         9.94296e+57
          1284.16080	         9.68744e+57
          1284.96710	         1.23537e+58
          1285.77340	         1.19983e+58
          1286.57970	         1.13023e+58
          1287.38600	         1.42054e+58
          1288.19230	         1.80628e+58
          1288.99860	         1.64317e+58
          1289.80490	         1.13058e+58
          1290.61120	         1.25337e+58
          1291.41750	         1.36676e+58
          1292.22380	         1.03329e+58
          1293.03010	         1.03801e+58
          1293.83640	         1.19873e+58
          1294.64270	         1.04044e+58
          1295.44900	         7.02814e+57
          1296.25530	         7.35847e+57
          1297.06160	         8.96498e+57
          1297.86790	         8.43978e+57
          1298.67420	         6.74761e+57
          1299.48050	         9.42462e+57
          1300.28680	         1.08965e+58
          1301.09310	         8.82818e+57
          1301.89940	         4.90062e+57
          1302.70570	         6.40237e+57
          1303.51200	         8.00176e+57
          1304.31830	         9.27998e+57
          1305.12460	         1.12615e+58
          1305.93090	         1.15579e+58
          1306.73720	         1.20656e+58
          1307.54350	         1.47356e+58
          1308.34980	         1.53846e+58
          1309.15610	         1.44041e+58
          1309.96240	         1.42240e+58
          1310.76870	         1.38564e+58
          1311.57500	         1.03892e+58
          1312.38130	         9.11704e+57
          1313.18760	         1.46448e+58
          1313.99390	         1.64093e+58
          1314.80020	         1.45073e+58
          1315.60650	         1.45129e+58
          1316.41280	         1.18129e+58
          1317.21910	         1.04254e+58
          1318.02540	         1.01916e+58
          1318.83170	         1.17738e+58
          1319.63800	         1.15332e+58
          1320.44430	         9.70561e+57
          1321.25060	         1.29256e+58
          1322.05690	         1.31483e+58
          1322.86320	         1.19099e+58
          1323.66950	         1.09797e+58
          1324.47580	         8.41832e+57
          1325.28210	         9.07024e+57
          1326.08840	         1.13180e+58
          1326.89470	         1.41623e+58
          1327.70100	         1.22824e+58
          1328.50730	         8.26169e+57
          1329.31360	         1.03269e+58
          1330.11990	         1.10425e+58
          1330.92620	         1.12212e+58
          1331.73250	         1.09287e+58
          1332.53880	         9.28843e+57
          1333.34510	         9.65845e+57
          1334.15140	         1.01752e+58
          1334.95770	         1.00165e+58
          1335.76400	         1.06669e+58
          1336.57030	         1.21851e+58
          1337.37660	         1.14636e+58
          1338.18290	         1.02302e+58
          1338.98920	         1.19889e+58
          1339.79550	         1.23916e+58
          1340.60180	         1.20446e+58
          1341.40810	         1.18628e+58
          1342.21440	         1.13371e+58
          1343.02070	         1.28833e+58
          1343.82700	         1.14768e+58
          1344.63330	         1.09757e+58
          1345.43960	         1.32731e+58
          1346.24590	         9.71035e+57
          1347.05220	         1.23833e+58
          1347.85850	         1.12908e+58
          1348.66480	         1.05517e+58
          1349.47110	         1.19836e+58
          1350.27740	         1.22468e+58
          1351.08370	         1.23865e+58
          1351.89000	         1.28581e+58
          1352.69630	         1.21585e+58
          1353.50260	         1.26983e+58
          1354.30890	         1.35138e+58
          1355.11520	         1.33154e+58
          1355.92150	         1.07854e+58
          1356.72780	         1.00714e+58
          1357.53410	         1.00809e+58
          1358.34040	         9.09261e+57
          1359.14670	         9.28546e+57
          1359.95300	         1.02495e+58
          1360.75930	         1.06787e+58
          1361.56560	         1.04873e+58
          1362.37190	         1.13159e+58
          1363.17820	         1.04711e+58
          1363.98450	         1.09595e+58
          1364.79080	         1.34196e+58
          1365.59710	         1.36934e+58
          1366.40340	         1.11871e+58
          1367.20970	         1.00093e+58
          1368.01600	         9.81311e+57
          1368.82230	         9.57838e+57
          1369.62860	         1.16535e+58
          1370.43490	         1.10033e+58
          1371.24120	         9.78390e+57
          1372.04750	         8.82975e+57
          1372.85380	         9.64378e+57
          1373.66010	         1.02062e+58
          1374.46640	         9.98559e+57
          1375.27270	         1.00283e+58
          1376.07900	         9.07696e+57
          1376.88530	         9.04381e+57
          1377.69160	         9.48749e+57
          1378.49790	         8.20302e+57
          1379.30420	         7.55880e+57
          1380.11050	         8.36551e+57
          1380.91680	         7.85767e+57
          1381.72310	         8.23099e+57
          1382.52940	         7.99183e+57
          1383.33570	         7.99872e+57
          1384.14200	         9.97814e+57
          1384.94830	         1.09665e+58
          1385.75460	         1.12943e+58
          1386.56090	         1.15673e+58
          1387.36720	         1.03956e+58
          1388.17350	         1.23340e+58
          1388.97980	         1.16229e+58
          1389.78610	         7.97088e+57
          1390.59240	         7.48802e+57
          1391.39870	         8.59133e+57
          1392.20500	         8.19825e+57
          1393.01130	         6.94381e+57
          1393.81760	         8.60685e+57
          1394.62390	         8.73367e+57
          1395.43020	         6.85693e+57
          1396.23650	         6.29032e+57
          1397.04280	         6.93067e+57
          1397.84910	         8.92455e+57
          1398.65540	         9.37520e+57
          1399.46170	         9.19239e+57
          1400.26800	         8.58190e+57
          1401.07430	         7.92799e+57
          1401.88060	         8.64939e+57
          1402.68690	         9.93668e+57
          1403.49320	         9.87589e+57
          1404.29950	         9.27867e+57
          1405.10580	         1.02221e+58
          1405.91210	         1.04407e+58
          1406.71840	         1.06322e+58
          1407.52470	         1.04411e+58
          1408.33100	         1.04713e+58
          1409.13730	         1.16100e+58
          1409.94360	         1.22699e+58
          1410.74990	         1.25004e+58
          1411.55620	         1.07779e+58
          1412.36250	         9.40316e+57
          1413.16880	         8.42299e+57
          1413.97510	         7.80146e+57
          1414.78140	         8.64592e+57
          1415.58770	         1.10674e+58
          1416.39400	         1.03229e+58
          1417.20030	         9.84252e+57
          1418.00660	         9.02734e+57
          1418.81290	         8.85750e+57
          1419.61920	         1.11315e+58
          1420.42550	         1.24048e+58
          1421.23180	         1.29380e+58
          1422.03810	         1.18298e+58
          1422.84440	         1.07438e+58
          1423.65070	         1.21581e+58
          1424.45700	         1.09672e+58
          1425.26330	         8.53361e+57
          1426.06960	         9.13576e+57
          1426.87590	         1.00956e+58
          1427.68220	         1.01071e+58
          1428.48850	         1.11900e+58
          1429.29480	         1.07018e+58
          1430.10110	         9.14285e+57
          1430.90740	         7.32647e+57
          1431.71370	         8.15837e+57
          1432.52000	         8.85720e+57
          1433.32630	         8.71822e+57
          1434.13260	         8.08186e+57
          1434.93890	         7.11511e+57
          1435.74520	         7.92727e+57
          1436.55150	         9.10820e+57
          1437.35780	         9.12011e+57
          1438.16410	         9.14352e+57
          1438.97040	         1.05344e+58
          1439.77670	         9.74886e+57
          1440.58300	         9.81079e+57
          1441.38930	         9.47635e+57
          1442.19560	         9.58407e+57
          1443.00190	         9.91210e+57
          1443.80820	         9.36863e+57
          1444.61450	         8.32867e+57
          1445.42080	         8.65563e+57
          1446.22710	         1.02276e+58
          1447.03340	         1.04591e+58
          1447.83970	         1.21749e+58
          1448.64600	         1.16644e+58
          1449.45230	         9.35024e+57
          1450.25860	         1.05135e+58
          1451.06490	         9.40562e+57
          1451.87120	         7.37585e+57
          1452.67750	         7.84422e+57
          1453.48380	         9.52145e+57
          1454.29010	         7.87615e+57
          1455.09640	         7.56507e+57
          1455.90270	         8.81680e+57
          1456.70900	         8.60357e+57
          1457.51530	         9.66708e+57
          1458.32160	         1.11943e+58
          1459.12790	         1.12057e+58
          1459.93420	         9.76797e+57
          1460.74050	         7.51480e+57
          1461.54680	         6.65782e+57
          1462.35310	         7.74609e+57
          1463.15940	         1.01155e+58
          1463.96570	         1.21827e+58
          1464.77200	         1.19156e+58
          1465.57830	         1.04303e+58
          1466.38460	         8.92224e+57
          1467.19090	         7.52478e+57
          1467.99720	         7.98799e+57
          1468.80350	         9.88662e+57
          1469.60980	         1.01794e+58
          1470.41610	         1.01810e+58
          1471.22240	         8.88689e+57
          1472.02870	         8.89114e+57
          1472.83500	         1.06621e+58
          1473.64130	         1.07759e+58
          1474.44760	         1.02115e+58
          1475.25390	         9.84904e+57
          1476.06020	         8.49723e+57
          1476.86650	         7.33846e+57
          1477.67280	         7.50148e+57
          1478.47910	         6.74212e+57
          1479.28540	         7.20844e+57
          1480.09170	         9.80035e+57
          1480.89800	         8.68567e+57
          1481.70430	         7.78654e+57
          1482.51060	         8.10925e+57
          1483.31690	         7.46905e+57
          1484.12320	         7.31435e+57
          1484.92950	         7.95550e+57
          1485.73580	         8.87447e+57
          1486.54210	         9.22140e+57
          1487.34840	         9.69754e+57
          1488.15470	         9.42730e+57
          1488.96100	         9.01780e+57
          1489.76730	         9.28998e+57
