#sample_342_stacked_spectrum_rest_UV-bands_median_H-alpha_noDC.txt
#median Lum: 1.67937e+42
#Rest-frame wavelength (A) | Luminosity (erg/s/A)
#
          1110.00000	         0.00000e+00
          1110.80630	         1.87120e+59
          1111.61260	        -1.10616e+59
          1112.41890	         2.12240e+59
          1113.22520	         3.66154e+58
          1114.03150	         1.69651e+59
          1114.83780	         5.19675e+59
          1115.64410	        -2.92297e+57
          1116.45040	        -6.03881e+58
          1117.25670	        -1.67029e+58
          1118.06300	         6.80480e+58
          1118.86930	         3.88133e+58
          1119.67560	         8.20099e+58
          1120.48190	        -6.90428e+58
          1121.28820	        -7.81186e+58
          1122.09450	         6.26748e+58
          1122.90080	         1.11630e+59
          1123.70710	         7.72895e+58
          1124.51340	         3.57480e+58
          1125.31970	         8.71465e+57
          1126.12600	         4.64945e+58
          1126.93230	        -2.11798e+58
          1127.73860	        -2.24180e+58
          1128.54490	         7.52033e+58
          1129.35120	         4.79543e+55
          1130.15750	        -1.64280e+58
          1130.96380	        -2.24041e+58
          1131.77010	         2.50712e+58
          1132.57640	         5.25159e+58
          1133.38270	         3.11977e+58
          1134.18900	         1.77116e+58
          1134.99530	         3.01813e+58
          1135.80160	         3.29609e+58
          1136.60790	         1.12619e+58
          1137.41420	         2.99989e+58
          1138.22050	         7.47441e+58
          1139.02680	         3.93532e+58
          1139.83310	         9.14404e+57
          1140.63940	         2.15252e+58
          1141.44570	         6.65939e+57
          1142.25200	         4.05153e+57
          1143.05830	         7.16613e+57
          1143.86460	         1.54070e+58
          1144.67090	         7.33332e+57
          1145.47720	         5.78918e+57
          1146.28350	         2.61786e+58
          1147.08980	         7.32970e+57
          1147.89610	         1.72623e+58
          1148.70240	         2.55338e+58
          1149.50870	         2.23704e+58
          1150.31500	         1.16384e+58
          1151.12130	         6.17895e+57
          1151.92760	         1.56143e+58
          1152.73390	         5.05921e+56
          1153.54020	        -2.27490e+57
          1154.34650	         1.95652e+58
          1155.15280	         2.62601e+58
          1155.95910	         8.64403e+57
          1156.76540	         7.36620e+57
          1157.57170	        -1.72489e+57
          1158.37800	         1.35478e+58
          1159.18430	         6.35723e+57
          1159.99060	         1.07434e+58
          1160.79690	         7.33328e+57
          1161.60320	         1.20653e+58
          1162.40950	         8.91278e+57
          1163.21580	         9.37525e+57
          1164.02210	         3.82036e+57
          1164.82840	         1.28166e+58
          1165.63470	         1.92770e+58
          1166.44100	         3.20655e+58
          1167.24730	         2.00295e+58
          1168.05360	         3.64191e+57
          1168.85990	         7.98972e+57
          1169.66620	         8.60967e+57
          1170.47250	         9.11093e+57
          1171.27880	         1.47172e+58
          1172.08510	         1.48746e+58
          1172.89140	         8.77490e+57
          1173.69770	         1.43407e+58
          1174.50400	         1.18010e+58
          1175.31030	         1.54425e+58
          1176.11660	         1.79801e+58
          1176.92290	         1.21877e+58
          1177.72920	         1.11018e+58
          1178.53550	         9.60849e+57
          1179.34180	         6.03193e+57
          1180.14810	         9.01159e+57
          1180.95440	         1.16233e+58
          1181.76070	         8.77995e+57
          1182.56700	         1.32894e+58
          1183.37330	         1.31650e+58
          1184.17960	         1.09885e+58
          1184.98590	         1.15939e+58
          1185.79220	         9.54264e+57
          1186.59850	         1.11250e+58
          1187.40480	         6.10069e+57
          1188.21110	         1.47303e+58
          1189.01740	         6.64230e+57
          1189.82370	         1.11362e+58
          1190.63000	         1.21558e+58
          1191.43630	         1.09615e+58
          1192.24260	         6.31814e+57
          1193.04890	         1.38405e+58
          1193.85520	         1.22199e+58
          1194.66150	         5.99316e+57
          1195.46780	         6.02991e+57
          1196.27410	         1.35522e+58
          1197.08040	         1.20330e+58
          1197.88670	         1.34764e+58
          1198.69300	         1.56301e+58
          1199.49930	         1.55882e+58
          1200.30560	         9.07775e+57
          1201.11190	         7.52059e+57
          1201.91820	         7.33865e+57
          1202.72450	         4.34146e+57
          1203.53080	         1.37001e+58
          1204.33710	         1.00319e+58
          1205.14340	         8.91142e+57
          1205.94970	         6.84417e+57
          1206.75600	         5.26064e+57
          1207.56230	         5.00923e+57
          1208.36860	         1.12255e+58
          1209.17490	         5.40278e+57
          1209.98120	         7.40411e+57
          1210.78750	         1.04321e+58
          1211.59380	         1.65802e+58
          1212.40010	         1.95634e+58
          1213.20640	         2.18522e+58
          1214.01270	         2.05468e+58
          1214.81900	         2.36354e+58
          1215.62530	         4.03278e+58
          1216.43160	         8.08597e+58
          1217.23790	         1.42664e+59
          1218.04420	         1.12176e+59
          1218.85050	         8.41234e+58
          1219.65680	         6.04742e+58
          1220.46310	         3.47428e+58
          1221.26940	         1.77631e+58
          1222.07570	         1.32673e+58
          1222.88200	         1.12982e+58
          1223.68830	         9.32417e+57
          1224.49460	         5.22911e+57
          1225.30090	         6.02063e+57
          1226.10720	         4.91165e+57
          1226.91350	         7.22887e+57
          1227.71980	         9.93813e+57
          1228.52610	         1.17591e+58
          1229.33240	         9.21623e+57
          1230.13870	         8.27545e+57
          1230.94500	         1.05302e+58
          1231.75130	         9.19625e+57
          1232.55760	         7.18846e+57
          1233.36390	         8.60988e+57
          1234.17020	         8.21062e+57
          1234.97650	         6.12992e+57
          1235.78280	         9.63818e+57
          1236.58910	         1.07052e+58
          1237.39540	         1.08462e+58
          1238.20170	         1.05365e+58
          1239.00800	         1.24121e+58
          1239.81430	         1.38073e+58
          1240.62060	         1.07779e+58
          1241.42690	         1.04214e+58
          1242.23320	         1.20980e+58
          1243.03950	         8.99856e+57
          1243.84580	         8.35960e+57
          1244.65210	         9.57887e+57
          1245.45840	         1.02757e+58
          1246.26470	         1.27428e+58
          1247.07100	         9.21568e+57
          1247.87730	         4.97566e+57
          1248.68360	         2.78382e+57
          1249.48990	         7.22516e+57
          1250.29620	         6.22614e+57
          1251.10250	         4.66830e+57
          1251.90880	         5.19180e+57
          1252.71510	         4.64300e+57
          1253.52140	         9.20253e+57
          1254.32770	         1.09484e+58
          1255.13400	         1.29164e+58
          1255.94030	         1.32224e+58
          1256.74660	         1.09674e+58
          1257.55290	         1.06556e+58
          1258.35920	         8.27205e+57
          1259.16550	         4.45462e+57
          1259.97180	         5.56002e+57
          1260.77810	         1.03358e+58
          1261.58440	         1.32177e+58
          1262.39070	         9.88955e+57
          1263.19700	         8.33397e+57
          1264.00330	         9.81621e+57
          1264.80960	         1.15934e+58
          1265.61590	         1.48683e+58
          1266.42220	         1.30131e+58
          1267.22850	         9.86195e+57
          1268.03480	         1.51998e+58
          1268.84110	         1.64467e+58
          1269.64740	         1.22522e+58
          1270.45370	         1.11892e+58
          1271.26000	         1.16890e+58
          1272.06630	         1.20471e+58
          1272.87260	         1.27113e+58
          1273.67890	         1.34752e+58
          1274.48520	         1.27637e+58
          1275.29150	         1.18536e+58
          1276.09780	         1.16780e+58
          1276.90410	         1.30680e+58
          1277.71040	         1.10304e+58
          1278.51670	         1.16957e+58
          1279.32300	         1.35051e+58
          1280.12930	         1.31711e+58
          1280.93560	         1.21648e+58
          1281.74190	         1.12840e+58
          1282.54820	         1.12711e+58
          1283.35450	         1.09500e+58
          1284.16080	         1.05548e+58
          1284.96710	         1.20583e+58
          1285.77340	         1.26857e+58
          1286.57970	         1.29622e+58
          1287.38600	         1.42277e+58
          1288.19230	         1.41850e+58
          1288.99860	         1.37769e+58
          1289.80490	         1.19674e+58
          1290.61120	         1.35765e+58
          1291.41750	         1.37646e+58
          1292.22380	         1.08703e+58
          1293.03010	         1.22260e+58
          1293.83640	         1.31093e+58
          1294.64270	         1.08124e+58
          1295.44900	         7.60098e+57
          1296.25530	         6.95269e+57
          1297.06160	         9.18422e+57
          1297.86790	         1.14873e+58
          1298.67420	         9.69530e+57
          1299.48050	         9.09654e+57
          1300.28680	         9.97079e+57
          1301.09310	         7.60975e+57
          1301.89940	         4.33654e+57
          1302.70570	         4.59864e+57
          1303.51200	         6.92257e+57
          1304.31830	         1.00179e+58
          1305.12460	         1.08516e+58
          1305.93090	         9.80709e+57
          1306.73720	         1.10908e+58
          1307.54350	         1.38411e+58
          1308.34980	         1.61248e+58
          1309.15610	         1.69099e+58
          1309.96240	         1.60253e+58
          1310.76870	         1.35591e+58
          1311.57500	         1.15325e+58
          1312.38130	         1.30316e+58
          1313.18760	         1.50755e+58
          1313.99390	         1.66682e+58
          1314.80020	         1.56331e+58
          1315.60650	         1.46887e+58
          1316.41280	         1.33265e+58
          1317.21910	         1.31459e+58
          1318.02540	         1.38977e+58
          1318.83170	         1.36314e+58
          1319.63800	         1.25066e+58
          1320.44430	         1.12702e+58
          1321.25060	         1.23840e+58
          1322.05690	         1.22122e+58
          1322.86320	         1.17683e+58
          1323.66950	         1.01785e+58
          1324.47580	         8.91345e+57
          1325.28210	         9.34935e+57
          1326.08840	         1.19725e+58
          1326.89470	         1.33035e+58
          1327.70100	         1.10657e+58
          1328.50730	         8.71056e+57
          1329.31360	         9.78204e+57
          1330.11990	         1.03271e+58
          1330.92620	         8.66928e+57
          1331.73250	         1.02757e+58
          1332.53880	         1.12591e+58
          1333.34510	         9.17582e+57
          1334.15140	         8.03318e+57
          1334.95770	         8.44303e+57
          1335.76400	         9.72181e+57
          1336.57030	         1.14269e+58
          1337.37660	         1.11640e+58
          1338.18290	         1.10099e+58
          1338.98920	         1.19461e+58
          1339.79550	         1.14910e+58
          1340.60180	         1.26298e+58
          1341.40810	         1.41977e+58
          1342.21440	         1.15940e+58
          1343.02070	         1.07895e+58
          1343.82700	         1.24571e+58
          1344.63330	         1.20829e+58
          1345.43960	         1.31143e+58
          1346.24590	         1.08078e+58
          1347.05220	         9.89699e+57
          1347.85850	         9.45783e+57
          1348.66480	         1.08327e+58
          1349.47110	         1.15303e+58
          1350.27740	         1.13592e+58
          1351.08370	         1.09361e+58
          1351.89000	         1.18642e+58
          1352.69630	         1.20390e+58
          1353.50260	         1.16476e+58
          1354.30890	         1.27009e+58
          1355.11520	         1.32204e+58
          1355.92150	         1.24443e+58
          1356.72780	         1.21326e+58
          1357.53410	         1.08608e+58
          1358.34040	         1.02488e+58
          1359.14670	         9.13244e+57
          1359.95300	         1.01246e+58
          1360.75930	         1.07905e+58
          1361.56560	         1.08608e+58
          1362.37190	         1.20039e+58
          1363.17820	         1.19806e+58
          1363.98450	         1.31211e+58
          1364.79080	         1.42541e+58
          1365.59710	         1.20939e+58
          1366.40340	         1.19063e+58
          1367.20970	         1.09759e+58
          1368.01600	         9.77791e+57
          1368.82230	         1.01706e+58
          1369.62860	         1.06297e+58
          1370.43490	         8.24011e+57
          1371.24120	         8.99094e+57
          1372.04750	         9.55474e+57
          1372.85380	         1.11157e+58
          1373.66010	         1.12717e+58
          1374.46640	         1.00734e+58
          1375.27270	         1.11739e+58
          1376.07900	         9.81895e+57
          1376.88530	         8.57956e+57
          1377.69160	         9.41620e+57
          1378.49790	         7.32118e+57
          1379.30420	         6.81008e+57
          1380.11050	         9.48846e+57
          1380.91680	         9.42034e+57
          1381.72310	         8.76177e+57
          1382.52940	         9.13459e+57
          1383.33570	         9.02794e+57
          1384.14200	         9.60191e+57
          1384.94830	         1.01864e+58
          1385.75460	         1.00951e+58
          1386.56090	         1.01393e+58
          1387.36720	         1.01629e+58
          1388.17350	         1.23468e+58
          1388.97980	         1.11655e+58
          1389.78610	         7.66385e+57
          1390.59240	         7.60356e+57
          1391.39870	         7.23498e+57
          1392.20500	         7.47753e+57
          1393.01130	         6.62541e+57
          1393.81760	         6.91762e+57
          1394.62390	         7.94029e+57
          1395.43020	         7.40244e+57
          1396.23650	         7.07506e+57
          1397.04280	         8.52617e+57
          1397.84910	         9.41758e+57
          1398.65540	         1.01893e+58
          1399.46170	         1.04949e+58
          1400.26800	         8.64618e+57
          1401.07430	         7.74907e+57
          1401.88060	         8.15111e+57
          1402.68690	         8.63171e+57
          1403.49320	         9.12587e+57
          1404.29950	         9.57931e+57
          1405.10580	         1.09370e+58
          1405.91210	         1.20669e+58
          1406.71840	         1.12453e+58
          1407.52470	         1.01369e+58
          1408.33100	         9.26762e+57
          1409.13730	         1.15917e+58
          1409.94360	         1.26178e+58
          1410.74990	         1.08172e+58
          1411.55620	         9.80378e+57
          1412.36250	         8.95497e+57
          1413.16880	         8.09284e+57
          1413.97510	         7.40552e+57
          1414.78140	         8.03096e+57
          1415.58770	         9.66579e+57
          1416.39400	         1.13205e+58
          1417.20030	         1.06404e+58
          1418.00660	         9.55017e+57
          1418.81290	         1.02730e+58
          1419.61920	         1.08306e+58
          1420.42550	         1.33346e+58
          1421.23180	         1.45012e+58
          1422.03810	         1.29334e+58
          1422.84440	         1.19752e+58
          1423.65070	         1.17057e+58
          1424.45700	         1.10328e+58
          1425.26330	         8.75825e+57
          1426.06960	         9.12802e+57
          1426.87590	         9.40501e+57
          1427.68220	         9.19405e+57
          1428.48850	         1.02498e+58
          1429.29480	         1.04684e+58
          1430.10110	         8.85373e+57
          1430.90740	         7.81306e+57
          1431.71370	         9.97595e+57
          1432.52000	         9.69700e+57
          1433.32630	         8.04251e+57
          1434.13260	         8.18230e+57
          1434.93890	         8.20199e+57
          1435.74520	         9.26563e+57
          1436.55150	         9.61510e+57
          1437.35780	         8.59382e+57
          1438.16410	         8.98505e+57
          1438.97040	         9.24344e+57
          1439.77670	         9.42208e+57
          1440.58300	         9.53166e+57
          1441.38930	         1.03465e+58
          1442.19560	         1.01421e+58
          1443.00190	         1.05238e+58
          1443.80820	         1.21089e+58
          1444.61450	         1.08471e+58
          1445.42080	         9.42935e+57
          1446.22710	         1.03046e+58
          1447.03340	         1.02138e+58
          1447.83970	         9.32570e+57
          1448.64600	         9.21350e+57
          1449.45230	         1.06832e+58
          1450.25860	         1.03950e+58
          1451.06490	         8.91537e+57
          1451.87120	         8.29694e+57
          1452.67750	         8.64882e+57
          1453.48380	         8.79282e+57
          1454.29010	         8.01984e+57
          1455.09640	         6.89567e+57
          1455.90270	         8.29562e+57
          1456.70900	         8.93860e+57
          1457.51530	         9.49852e+57
          1458.32160	         1.17768e+58
          1459.12790	         1.11630e+58
          1459.93420	         9.89499e+57
          1460.74050	         7.22324e+57
          1461.54680	         6.64809e+57
          1462.35310	         7.71536e+57
          1463.15940	         9.32111e+57
          1463.96570	         1.12608e+58
          1464.77200	         1.39846e+58
          1465.57830	         1.22502e+58
          1466.38460	         9.66597e+57
          1467.19090	         8.12254e+57
          1467.99720	         8.30877e+57
          1468.80350	         9.51167e+57
          1469.60980	         9.27986e+57
          1470.41610	         9.51112e+57
          1471.22240	         8.28645e+57
          1472.02870	         9.37735e+57
          1472.83500	         1.02130e+58
          1473.64130	         1.04924e+58
          1474.44760	         9.41323e+57
          1475.25390	         7.93112e+57
          1476.06020	         9.40173e+57
          1476.86650	         8.69916e+57
          1477.67280	         7.74048e+57
          1478.47910	         7.80694e+57
          1479.28540	         8.04117e+57
          1480.09170	         8.58067e+57
          1480.89800	         8.35518e+57
          1481.70430	         8.41555e+57
          1482.51060	         8.71956e+57
          1483.31690	         7.35836e+57
          1484.12320	         6.85248e+57
          1484.92950	         6.38870e+57
          1485.73580	         7.78842e+57
          1486.54210	         9.03115e+57
          1487.34840	         9.03762e+57
          1488.15470	         9.42333e+57
          1488.96100	         9.71334e+57
          1489.76730	         9.45690e+57
