#sample_222_stacked_spectrum_rest_UV-bands_median_H-alpha_noDC.txt
#median Lum: 1.70708e+42
#Rest-frame wavelength (A) | Luminosity (erg/s/A)
#
          1110.00000	         0.00000e+00
          1110.80630	         5.33247e+58
          1111.61260	         1.60418e+59
          1112.41890	        -2.28051e+59
          1113.22520	        -1.85067e+59
          1114.03150	        -1.45477e+59
          1114.83780	         1.01425e+59
          1115.64410	         2.36360e+59
          1116.45040	         3.68385e+59
          1117.25670	         6.12179e+57
          1118.06300	         1.76686e+59
          1118.86930	         3.80693e+58
          1119.67560	         1.00766e+59
          1120.48190	        -2.62714e+58
          1121.28820	        -1.90702e+59
          1122.09450	        -5.51887e+58
          1122.90080	         1.82234e+58
          1123.70710	         2.60399e+58
          1124.51340	         8.08470e+58
          1125.31970	         1.22132e+58
          1126.12600	         1.15986e+58
          1126.93230	        -3.11095e+58
          1127.73860	        -5.90697e+58
          1128.54490	        -2.26537e+58
          1129.35120	         8.09212e+57
          1130.15750	        -3.31029e+58
          1130.96380	        -2.36006e+58
          1131.77010	         3.71601e+58
          1132.57640	         1.57256e+58
          1133.38270	         4.31985e+58
          1134.18900	         2.59271e+58
          1134.99530	        -4.70155e+57
          1135.80160	         1.48669e+58
          1136.60790	         3.87126e+57
          1137.41420	        -4.77392e+57
          1138.22050	         3.49853e+58
          1139.02680	         4.90195e+58
          1139.83310	         1.19905e+58
          1140.63940	         3.34782e+57
          1141.44570	        -5.15950e+57
          1142.25200	        -5.38052e+57
          1143.05830	        -3.25208e+57
          1143.86460	         1.51775e+58
          1144.67090	         2.92062e+58
          1145.47720	         8.44338e+57
          1146.28350	         2.08548e+58
          1147.08980	         1.11682e+58
          1147.89610	         1.50344e+58
          1148.70240	         2.15282e+58
          1149.50870	         2.70702e+58
          1150.31500	         1.33609e+58
          1151.12130	         3.64713e+57
          1151.92760	        -6.34485e+57
          1152.73390	        -2.42746e+57
          1153.54020	         1.80550e+58
          1154.34650	         3.04645e+58
          1155.15280	         2.65562e+58
          1155.95910	         8.80148e+56
          1156.76540	        -1.11437e+57
          1157.57170	        -5.78920e+57
          1158.37800	        -6.07484e+57
          1159.18430	        -3.21392e+57
          1159.99060	         6.77479e+57
          1160.79690	         7.97046e+56
          1161.60320	         1.40567e+58
          1162.40950	         4.38852e+57
          1163.21580	         6.88613e+57
          1164.02210	         1.58346e+58
          1164.82840	         1.46437e+58
          1165.63470	         2.63262e+58
          1166.44100	         3.21003e+58
          1167.24730	         1.91765e+58
          1168.05360	         9.96241e+57
          1168.85990	         1.06036e+58
          1169.66620	         1.23144e+57
          1170.47250	         6.48796e+57
          1171.27880	         1.15014e+58
          1172.08510	         1.72886e+58
          1172.89140	         2.19596e+58
          1173.69770	         4.04530e+57
          1174.50400	         9.39690e+57
          1175.31030	         1.78003e+58
          1176.11660	         1.78283e+58
          1176.92290	         1.93101e+58
          1177.72920	         1.42307e+58
          1178.53550	         6.73164e+57
          1179.34180	         5.39725e+57
          1180.14810	         7.94996e+57
          1180.95440	         5.50020e+57
          1181.76070	         3.76893e+57
          1182.56700	         5.59415e+57
          1183.37330	         1.15031e+58
          1184.17960	         1.52225e+58
          1184.98590	         1.06922e+58
          1185.79220	         1.17379e+58
          1186.59850	         1.24457e+58
          1187.40480	         1.08119e+58
          1188.21110	         1.87787e+58
          1189.01740	         9.29327e+57
          1189.82370	         1.05969e+58
          1190.63000	         1.77068e+58
          1191.43630	         1.98125e+58
          1192.24260	         1.00977e+58
          1193.04890	         1.43159e+58
          1193.85520	         1.61185e+58
          1194.66150	         2.23826e+57
          1195.46780	         1.11076e+58
          1196.27410	         1.86280e+58
          1197.08040	         9.63978e+57
          1197.88670	         1.24127e+58
          1198.69300	         1.80353e+58
          1199.49930	         1.76677e+58
          1200.30560	         1.15317e+58
          1201.11190	         9.02910e+57
          1201.91820	         1.04533e+58
          1202.72450	         8.39130e+57
          1203.53080	         1.53575e+58
          1204.33710	         1.00608e+58
          1205.14340	         6.83000e+57
          1205.94970	         7.69216e+57
          1206.75600	         7.69026e+57
          1207.56230	         7.39904e+57
          1208.36860	         8.95668e+57
          1209.17490	         4.31028e+57
          1209.98120	         6.34134e+57
          1210.78750	         8.51343e+57
          1211.59380	         9.71564e+57
          1212.40010	         1.71193e+58
          1213.20640	         1.73845e+58
          1214.01270	         1.96631e+58
          1214.81900	         2.49505e+58
          1215.62530	         4.23340e+58
          1216.43160	         9.00042e+58
          1217.23790	         1.51235e+59
          1218.04420	         1.16368e+59
          1218.85050	         8.86565e+58
          1219.65680	         5.21928e+58
          1220.46310	         2.86767e+58
          1221.26940	         2.19550e+58
          1222.07570	         1.53721e+58
          1222.88200	         1.20055e+58
          1223.68830	         1.03391e+58
          1224.49460	         6.72538e+57
          1225.30090	         4.22479e+57
          1226.10720	         6.06929e+57
          1226.91350	         7.28640e+57
          1227.71980	         7.21200e+57
          1228.52610	         9.62127e+57
          1229.33240	         5.64140e+57
          1230.13870	         5.75556e+57
          1230.94500	         8.68982e+57
          1231.75130	         7.76222e+57
          1232.55760	         7.49647e+57
          1233.36390	         1.02170e+58
          1234.17020	         1.16952e+58
          1234.97650	         9.14411e+57
          1235.78280	         9.10618e+57
          1236.58910	         1.04169e+58
          1237.39540	         1.13235e+58
          1238.20170	         1.06848e+58
          1239.00800	         1.27631e+58
          1239.81430	         1.67049e+58
          1240.62060	         1.05340e+58
          1241.42690	         9.17194e+57
          1242.23320	         1.37505e+58
          1243.03950	         8.41320e+57
          1243.84580	         8.39231e+57
          1244.65210	         1.11527e+58
          1245.45840	         1.13668e+58
          1246.26470	         8.64030e+57
          1247.07100	         6.38625e+57
          1247.87730	         5.65559e+57
          1248.68360	         4.12247e+57
          1249.48990	         5.74632e+57
          1250.29620	         1.39830e+58
          1251.10250	         1.11203e+58
          1251.90880	         4.51536e+57
          1252.71510	         5.39345e+57
          1253.52140	         7.74808e+57
          1254.32770	         1.14880e+58
          1255.13400	         1.33191e+58
          1255.94030	         1.08871e+58
          1256.74660	         1.05092e+58
          1257.55290	         8.99024e+57
          1258.35920	         6.31918e+57
          1259.16550	         2.91996e+57
          1259.97180	         5.99198e+57
          1260.77810	         1.15845e+58
          1261.58440	         1.17488e+58
          1262.39070	         6.19932e+57
          1263.19700	         7.25929e+57
          1264.00330	         1.11263e+58
          1264.80960	         1.31646e+58
          1265.61590	         1.53346e+58
          1266.42220	         1.43526e+58
          1267.22850	         1.25574e+58
          1268.03480	         1.50600e+58
          1268.84110	         1.39778e+58
          1269.64740	         1.32827e+58
          1270.45370	         1.64255e+58
          1271.26000	         1.49716e+58
          1272.06630	         1.27560e+58
          1272.87260	         1.19478e+58
          1273.67890	         1.38491e+58
          1274.48520	         1.15309e+58
          1275.29150	         9.71095e+57
          1276.09780	         1.12497e+58
          1276.90410	         1.38231e+58
          1277.71040	         1.13043e+58
          1278.51670	         9.98573e+57
          1279.32300	         1.23713e+58
          1280.12930	         1.05352e+58
          1280.93560	         9.96817e+57
          1281.74190	         1.11654e+58
          1282.54820	         1.18420e+58
          1283.35450	         1.08555e+58
          1284.16080	         1.22987e+58
          1284.96710	         1.32099e+58
          1285.77340	         1.16916e+58
          1286.57970	         1.22988e+58
          1287.38600	         1.29713e+58
          1288.19230	         1.83256e+58
          1288.99860	         1.90897e+58
          1289.80490	         1.52724e+58
          1290.61120	         1.59640e+58
          1291.41750	         1.37763e+58
          1292.22380	         1.13691e+58
          1293.03010	         1.05900e+58
          1293.83640	         1.21662e+58
          1294.64270	         1.02191e+58
          1295.44900	         6.67285e+57
          1296.25530	         5.51093e+57
          1297.06160	         7.87109e+57
          1297.86790	         9.61039e+57
          1298.67420	         7.82464e+57
          1299.48050	         8.54290e+57
          1300.28680	         1.04024e+58
          1301.09310	         8.74184e+57
          1301.89940	         3.83003e+57
          1302.70570	         4.71338e+57
          1303.51200	         8.03659e+57
          1304.31830	         1.16108e+58
          1305.12460	         1.09804e+58
          1305.93090	         1.08783e+58
          1306.73720	         1.23438e+58
          1307.54350	         1.47890e+58
          1308.34980	         1.52680e+58
          1309.15610	         1.58677e+58
          1309.96240	         1.59219e+58
          1310.76870	         1.37800e+58
          1311.57500	         1.22116e+58
          1312.38130	         9.74320e+57
          1313.18760	         1.44715e+58
          1313.99390	         1.61878e+58
          1314.80020	         1.69191e+58
          1315.60650	         1.50346e+58
          1316.41280	         1.38699e+58
          1317.21910	         1.22989e+58
          1318.02540	         1.23891e+58
          1318.83170	         1.26916e+58
          1319.63800	         1.25471e+58
          1320.44430	         1.19621e+58
          1321.25060	         1.12857e+58
          1322.05690	         1.21492e+58
          1322.86320	         1.21412e+58
          1323.66950	         1.20031e+58
          1324.47580	         9.95675e+57
          1325.28210	         9.67229e+57
          1326.08840	         1.12485e+58
          1326.89470	         1.26505e+58
          1327.70100	         1.14734e+58
          1328.50730	         7.97731e+57
          1329.31360	         9.82545e+57
          1330.11990	         1.01347e+58
          1330.92620	         7.44846e+57
          1331.73250	         1.00155e+58
          1332.53880	         1.17894e+58
          1333.34510	         9.62304e+57
          1334.15140	         8.23651e+57
          1334.95770	         8.84674e+57
          1335.76400	         1.14632e+58
          1336.57030	         1.13776e+58
          1337.37660	         1.02662e+58
          1338.18290	         1.00229e+58
          1338.98920	         1.05153e+58
          1339.79550	         1.10059e+58
          1340.60180	         1.08339e+58
          1341.40810	         1.27028e+58
          1342.21440	         1.25405e+58
          1343.02070	         1.21570e+58
          1343.82700	         1.30224e+58
          1344.63330	         1.18523e+58
          1345.43960	         1.07813e+58
          1346.24590	         9.89075e+57
          1347.05220	         1.17223e+58
          1347.85850	         1.06923e+58
          1348.66480	         1.14115e+58
          1349.47110	         1.15429e+58
          1350.27740	         9.97452e+57
          1351.08370	         1.15082e+58
          1351.89000	         1.31249e+58
          1352.69630	         1.25307e+58
          1353.50260	         1.15379e+58
          1354.30890	         1.26506e+58
          1355.11520	         1.23387e+58
          1355.92150	         1.00946e+58
          1356.72780	         9.15388e+57
          1357.53410	         1.10877e+58
          1358.34040	         1.26936e+58
          1359.14670	         1.15068e+58
          1359.95300	         1.13663e+58
          1360.75930	         1.09070e+58
          1361.56560	         1.05679e+58
          1362.37190	         1.11233e+58
          1363.17820	         1.06454e+58
          1363.98450	         1.16996e+58
          1364.79080	         1.23744e+58
          1365.59710	         1.23594e+58
          1366.40340	         1.18250e+58
          1367.20970	         1.07603e+58
          1368.01600	         1.01522e+58
          1368.82230	         8.59524e+57
          1369.62860	         8.89057e+57
          1370.43490	         9.33456e+57
          1371.24120	         1.05095e+58
          1372.04750	         8.72743e+57
          1372.85380	         1.16591e+58
          1373.66010	         1.17932e+58
          1374.46640	         1.07425e+58
          1375.27270	         1.15327e+58
          1376.07900	         9.68220e+57
          1376.88530	         8.64227e+57
          1377.69160	         8.55411e+57
          1378.49790	         6.54932e+57
          1379.30420	         7.11156e+57
          1380.11050	         9.50745e+57
          1380.91680	         8.31236e+57
          1381.72310	         7.06799e+57
          1382.52940	         7.60572e+57
          1383.33570	         8.08679e+57
          1384.14200	         9.94958e+57
          1384.94830	         1.01402e+58
          1385.75460	         1.08088e+58
          1386.56090	         1.32024e+58
          1387.36720	         1.29792e+58
          1388.17350	         1.30355e+58
          1388.97980	         1.03316e+58
          1389.78610	         6.95868e+57
          1390.59240	         7.22747e+57
          1391.39870	         7.28771e+57
          1392.20500	         8.65758e+57
          1393.01130	         8.16171e+57
          1393.81760	         8.13490e+57
          1394.62390	         7.95983e+57
          1395.43020	         5.38392e+57
          1396.23650	         5.77825e+57
          1397.04280	         7.63281e+57
          1397.84910	         8.03393e+57
          1398.65540	         8.12638e+57
          1399.46170	         9.86937e+57
          1400.26800	         9.27830e+57
          1401.07430	         8.59210e+57
          1401.88060	         7.72761e+57
          1402.68690	         8.55766e+57
          1403.49320	         9.57130e+57
          1404.29950	         9.67831e+57
          1405.10580	         1.14488e+58
          1405.91210	         1.09715e+58
          1406.71840	         1.04214e+58
          1407.52470	         1.04654e+58
          1408.33100	         1.06933e+58
          1409.13730	         1.17453e+58
          1409.94360	         1.03847e+58
          1410.74990	         1.06016e+58
          1411.55620	         1.05388e+58
          1412.36250	         8.40350e+57
          1413.16880	         7.44913e+57
          1413.97510	         7.43854e+57
          1414.78140	         8.20546e+57
          1415.58770	         9.73092e+57
          1416.39400	         1.00749e+58
          1417.20030	         1.12675e+58
          1418.00660	         9.96782e+57
          1418.81290	         8.94798e+57
          1419.61920	         9.92862e+57
          1420.42550	         1.22768e+58
          1421.23180	         1.29206e+58
          1422.03810	         1.30840e+58
          1422.84440	         1.22551e+58
          1423.65070	         1.27540e+58
          1424.45700	         1.14869e+58
          1425.26330	         8.36827e+57
          1426.06960	         9.07846e+57
          1426.87590	         9.69454e+57
          1427.68220	         9.47978e+57
          1428.48850	         1.06617e+58
          1429.29480	         1.00369e+58
          1430.10110	         9.24061e+57
          1430.90740	         8.56054e+57
          1431.71370	         8.33727e+57
          1432.52000	         9.10370e+57
          1433.32630	         8.38440e+57
          1434.13260	         8.16628e+57
          1434.93890	         8.78976e+57
          1435.74520	         9.41870e+57
          1436.55150	         8.87745e+57
          1437.35780	         8.83700e+57
          1438.16410	         9.35262e+57
          1438.97040	         9.30408e+57
          1439.77670	         9.38707e+57
          1440.58300	         9.46395e+57
          1441.38930	         1.06176e+58
          1442.19560	         1.04088e+58
          1443.00190	         9.08407e+57
          1443.80820	         1.00598e+58
          1444.61450	         1.02168e+58
          1445.42080	         8.87945e+57
          1446.22710	         9.92960e+57
          1447.03340	         9.89985e+57
          1447.83970	         1.11663e+58
          1448.64600	         1.15211e+58
          1449.45230	         1.08612e+58
          1450.25860	         1.01109e+58
          1451.06490	         9.01655e+57
          1451.87120	         7.57314e+57
          1452.67750	         8.01078e+57
          1453.48380	         7.91959e+57
          1454.29010	         7.07945e+57
          1455.09640	         7.59622e+57
          1455.90270	         9.11208e+57
          1456.70900	         8.47087e+57
          1457.51530	         9.33704e+57
          1458.32160	         1.13979e+58
          1459.12790	         1.08905e+58
          1459.93420	         9.27672e+57
          1460.74050	         7.38300e+57
          1461.54680	         8.13087e+57
          1462.35310	         8.85629e+57
          1463.15940	         9.99461e+57
          1463.96570	         1.09217e+58
          1464.77200	         1.14226e+58
          1465.57830	         1.05083e+58
          1466.38460	         8.42203e+57
          1467.19090	         9.24723e+57
          1467.99720	         1.01730e+58
          1468.80350	         9.31781e+57
          1469.60980	         9.10699e+57
          1470.41610	         9.78757e+57
          1471.22240	         8.86811e+57
          1472.02870	         9.65107e+57
          1472.83500	         1.01995e+58
          1473.64130	         9.52435e+57
          1474.44760	         9.81265e+57
          1475.25390	         9.83709e+57
          1476.06020	         9.42698e+57
          1476.86650	         7.85514e+57
          1477.67280	         8.16306e+57
          1478.47910	         8.42415e+57
          1479.28540	         7.50789e+57
          1480.09170	         8.77631e+57
          1480.89800	         9.12417e+57
          1481.70430	         8.10985e+57
          1482.51060	         8.05800e+57
          1483.31690	         7.67146e+57
          1484.12320	         8.12371e+57
          1484.92950	         7.66654e+57
          1485.73580	         7.33869e+57
          1486.54210	         8.21190e+57
          1487.34840	         9.37752e+57
          1488.15470	         8.38457e+57
          1488.96100	         7.89148e+57
          1489.76730	         8.64971e+57
