#sample_455_stacked_spectrum_rest_UV-bands_median_H-alpha_noDC.txt
#median Lum: 1.66618e+42
#Rest-frame wavelength (A) | Luminosity (erg/s/A)
#
          1110.00000	         0.00000e+00
          1110.80630	         8.12402e+58
          1111.61260	         1.07410e+59
          1112.41890	         3.73459e+59
          1113.22520	        -1.14526e+59
          1114.03150	         1.24857e+58
          1114.83780	         1.52706e+59
          1115.64410	         1.21950e+59
          1116.45040	         9.33563e+58
          1117.25670	        -2.95548e+58
          1118.06300	         1.27143e+59
          1118.86930	        -2.22199e+58
          1119.67560	         1.40115e+59
          1120.48190	         1.07708e+58
          1121.28820	        -1.24299e+59
          1122.09450	         2.44588e+58
          1122.90080	         6.07989e+58
          1123.70710	         1.30065e+59
          1124.51340	         6.95844e+58
          1125.31970	         2.00752e+57
          1126.12600	         2.52295e+57
          1126.93230	         1.04734e+58
          1127.73860	        -4.47374e+58
          1128.54490	         7.81764e+57
          1129.35120	         4.31603e+58
          1130.15750	        -3.66973e+58
          1130.96380	        -9.41659e+57
          1131.77010	         7.14194e+58
          1132.57640	         2.09450e+58
          1133.38270	         1.06678e+58
          1134.18900	         7.73250e+56
          1134.99530	        -1.76113e+58
          1135.80160	        -9.69913e+57
          1136.60790	         1.10899e+58
          1137.41420	        -5.22517e+57
          1138.22050	         3.56888e+58
          1139.02680	         3.19857e+58
          1139.83310	         1.73712e+58
          1140.63940	         1.32288e+58
          1141.44570	        -2.61433e+58
          1142.25200	         8.36903e+57
          1143.05830	         3.92636e+58
          1143.86460	         2.82593e+58
          1144.67090	         1.23963e+58
          1145.47720	         5.35083e+57
          1146.28350	         1.64394e+58
          1147.08980	         3.31318e+58
          1147.89610	         2.96861e+58
          1148.70240	         2.50823e+58
          1149.50870	         2.06353e+58
          1150.31500	         1.94166e+58
          1151.12130	         1.85584e+58
          1151.92760	         4.63938e+57
          1152.73390	        -2.86588e+57
          1153.54020	         3.84946e+57
          1154.34650	         2.82261e+58
          1155.15280	         2.35576e+58
          1155.95910	         1.54161e+57
          1156.76540	        -1.09620e+57
          1157.57170	         7.50603e+57
          1158.37800	        -3.99904e+57
          1159.18430	        -9.19695e+57
          1159.99060	         1.38540e+57
          1160.79690	         7.36815e+57
          1161.60320	         1.84560e+58
          1162.40950	         2.12020e+58
          1163.21580	         8.08237e+57
          1164.02210	         1.66125e+58
          1164.82840	         6.31190e+57
          1165.63470	         2.11212e+58
          1166.44100	         3.21159e+58
          1167.24730	         2.55434e+58
          1168.05360	         2.41100e+57
          1168.85990	         1.31853e+58
          1169.66620	         1.43237e+58
          1170.47250	         1.96677e+58
          1171.27880	         1.11013e+58
          1172.08510	         6.10185e+57
          1172.89140	         1.70429e+58
          1173.69770	         1.50303e+57
          1174.50400	         4.81716e+57
          1175.31030	         1.16056e+58
          1176.11660	         1.71806e+58
          1176.92290	         1.49826e+58
          1177.72920	         1.14477e+58
          1178.53550	         9.45397e+57
          1179.34180	         1.87830e+57
          1180.14810	         5.68013e+57
          1180.95440	         8.60645e+57
          1181.76070	         6.92754e+57
          1182.56700	         1.01520e+58
          1183.37330	         8.87604e+57
          1184.17960	         1.02164e+58
          1184.98590	         9.39864e+57
          1185.79220	         1.37121e+58
          1186.59850	         9.27509e+57
          1187.40480	         7.55525e+57
          1188.21110	         1.29694e+58
          1189.01740	         8.90166e+57
          1189.82370	         8.27409e+57
          1190.63000	         1.30983e+58
          1191.43630	         1.51621e+58
          1192.24260	         1.04224e+58
          1193.04890	         9.76878e+57
          1193.85520	         1.04133e+58
          1194.66150	         1.15061e+58
          1195.46780	         1.27002e+58
          1196.27410	         1.33345e+58
          1197.08040	         1.34444e+58
          1197.88670	         1.76481e+58
          1198.69300	         1.72028e+58
          1199.49930	         1.30540e+58
          1200.30560	         9.02340e+57
          1201.11190	         1.19110e+58
          1201.91820	         1.20700e+58
          1202.72450	         1.13626e+58
          1203.53080	         1.61055e+58
          1204.33710	         1.10041e+58
          1205.14340	         7.15678e+57
          1205.94970	         4.23946e+57
          1206.75600	         4.96543e+57
          1207.56230	         4.30845e+57
          1208.36860	         9.16112e+57
          1209.17490	         2.60397e+57
          1209.98120	         3.78065e+57
          1210.78750	         7.46049e+57
          1211.59380	         1.32294e+58
          1212.40010	         1.97918e+58
          1213.20640	         2.11060e+58
          1214.01270	         2.11165e+58
          1214.81900	         2.53944e+58
          1215.62530	         4.71253e+58
          1216.43160	         9.24122e+58
          1217.23790	         1.54865e+59
          1218.04420	         1.15819e+59
          1218.85050	         8.64671e+58
          1219.65680	         5.59274e+58
          1220.46310	         3.60511e+58
          1221.26940	         2.27364e+58
          1222.07570	         1.20916e+58
          1222.88200	         1.07600e+58
          1223.68830	         1.11712e+58
          1224.49460	         7.98897e+57
          1225.30090	         4.05672e+57
          1226.10720	         2.93115e+57
          1226.91350	         5.63025e+57
          1227.71980	         1.05830e+58
          1228.52610	         1.30794e+58
          1229.33240	         8.77941e+57
          1230.13870	         8.76810e+57
          1230.94500	         8.55940e+57
          1231.75130	         7.11890e+57
          1232.55760	         1.04724e+58
          1233.36390	         8.63998e+57
          1234.17020	         1.03198e+58
          1234.97650	         8.56201e+57
          1235.78280	         6.30082e+57
          1236.58910	         8.06400e+57
          1237.39540	         1.11489e+58
          1238.20170	         1.16992e+58
          1239.00800	         1.30496e+58
          1239.81430	         1.27273e+58
          1240.62060	         1.11756e+58
          1241.42690	         9.94237e+57
          1242.23320	         1.04119e+58
          1243.03950	         8.48240e+57
          1243.84580	         8.88410e+57
          1244.65210	         9.68517e+57
          1245.45840	         8.61043e+57
          1246.26470	         6.88190e+57
          1247.07100	         7.10019e+57
          1247.87730	         8.30535e+57
          1248.68360	         6.15375e+57
          1249.48990	         1.00447e+58
          1250.29620	         1.21862e+58
          1251.10250	         6.92647e+57
          1251.90880	         4.33224e+57
          1252.71510	         8.08089e+57
          1253.52140	         8.34401e+57
          1254.32770	         8.56721e+57
          1255.13400	         1.26191e+58
          1255.94030	         1.24924e+58
          1256.74660	         1.06834e+58
          1257.55290	         1.20778e+58
          1258.35920	         8.21329e+57
          1259.16550	         6.79858e+57
          1259.97180	         6.54754e+57
          1260.77810	         9.03467e+57
          1261.58440	         1.22450e+58
          1262.39070	         1.04802e+58
          1263.19700	         8.76101e+57
          1264.00330	         9.74437e+57
          1264.80960	         1.00658e+58
          1265.61590	         1.06064e+58
          1266.42220	         1.10636e+58
          1267.22850	         1.01981e+58
          1268.03480	         1.39312e+58
          1268.84110	         1.62100e+58
          1269.64740	         1.41942e+58
          1270.45370	         1.30756e+58
          1271.26000	         1.04171e+58
          1272.06630	         9.62330e+57
          1272.87260	         8.84477e+57
          1273.67890	         1.03919e+58
          1274.48520	         1.16211e+58
          1275.29150	         1.21990e+58
          1276.09780	         1.15808e+58
          1276.90410	         1.57903e+58
          1277.71040	         1.41304e+58
          1278.51670	         1.08531e+58
          1279.32300	         1.28333e+58
          1280.12930	         1.36455e+58
          1280.93560	         1.42430e+58
          1281.74190	         1.49757e+58
          1282.54820	         1.38624e+58
          1283.35450	         1.01594e+58
          1284.16080	         8.79833e+57
          1284.96710	         1.08804e+58
          1285.77340	         1.20237e+58
          1286.57970	         1.11884e+58
          1287.38600	         1.40662e+58
          1288.19230	         1.75888e+58
          1288.99860	         1.46320e+58
          1289.80490	         1.01374e+58
          1290.61120	         1.29668e+58
          1291.41750	         1.49665e+58
          1292.22380	         1.21381e+58
          1293.03010	         9.79288e+57
          1293.83640	         1.18338e+58
          1294.64270	         1.11150e+58
          1295.44900	         1.03209e+58
          1296.25530	         9.99315e+57
          1297.06160	         9.78984e+57
          1297.86790	         9.40676e+57
          1298.67420	         9.99113e+57
          1299.48050	         9.91923e+57
          1300.28680	         1.09101e+58
          1301.09310	         7.88702e+57
          1301.89940	         4.79805e+57
          1302.70570	         7.45012e+57
          1303.51200	         8.08585e+57
          1304.31830	         1.09777e+58
          1305.12460	         1.15095e+58
          1305.93090	         1.11344e+58
          1306.73720	         1.30711e+58
          1307.54350	         1.42317e+58
          1308.34980	         1.54676e+58
          1309.15610	         1.62201e+58
          1309.96240	         1.58738e+58
          1310.76870	         1.43310e+58
          1311.57500	         1.22317e+58
          1312.38130	         1.16456e+58
          1313.18760	         1.32731e+58
          1313.99390	         1.44091e+58
          1314.80020	         1.64179e+58
          1315.60650	         1.59077e+58
          1316.41280	         1.15044e+58
          1317.21910	         1.14379e+58
          1318.02540	         1.39670e+58
          1318.83170	         1.34244e+58
          1319.63800	         1.23314e+58
          1320.44430	         1.19055e+58
          1321.25060	         1.22789e+58
          1322.05690	         1.24753e+58
          1322.86320	         1.25797e+58
          1323.66950	         1.25695e+58
          1324.47580	         1.07135e+58
          1325.28210	         1.07366e+58
          1326.08840	         1.02404e+58
          1326.89470	         1.15829e+58
          1327.70100	         1.18940e+58
          1328.50730	         9.57090e+57
          1329.31360	         1.02673e+58
          1330.11990	         9.56087e+57
          1330.92620	         8.66188e+57
          1331.73250	         1.04092e+58
          1332.53880	         8.97350e+57
          1333.34510	         9.08944e+57
          1334.15140	         9.88785e+57
          1334.95770	         9.86088e+57
          1335.76400	         1.04703e+58
          1336.57030	         1.12616e+58
          1337.37660	         9.91500e+57
          1338.18290	         9.39252e+57
          1338.98920	         1.00528e+58
          1339.79550	         1.04297e+58
          1340.60180	         1.18594e+58
          1341.40810	         1.36691e+58
          1342.21440	         1.24512e+58
          1343.02070	         1.18071e+58
          1343.82700	         1.44183e+58
          1344.63330	         1.37930e+58
          1345.43960	         1.25170e+58
          1346.24590	         1.06942e+58
          1347.05220	         1.16940e+58
          1347.85850	         1.09538e+58
          1348.66480	         1.12192e+58
          1349.47110	         1.20357e+58
          1350.27740	         1.25595e+58
          1351.08370	         1.20852e+58
          1351.89000	         1.23271e+58
          1352.69630	         1.19543e+58
          1353.50260	         1.02873e+58
          1354.30890	         1.14488e+58
          1355.11520	         1.20379e+58
          1355.92150	         1.24282e+58
          1356.72780	         9.39769e+57
          1357.53410	         8.16870e+57
          1358.34040	         1.09337e+58
          1359.14670	         9.41303e+57
          1359.95300	         9.22464e+57
          1360.75930	         1.06164e+58
          1361.56560	         1.09430e+58
          1362.37190	         1.23818e+58
          1363.17820	         1.13047e+58
          1363.98450	         1.20283e+58
          1364.79080	         1.30625e+58
          1365.59710	         1.22294e+58
          1366.40340	         1.17123e+58
          1367.20970	         1.07448e+58
          1368.01600	         9.28695e+57
          1368.82230	         9.07629e+57
          1369.62860	         9.93212e+57
          1370.43490	         1.11138e+58
          1371.24120	         1.19236e+58
          1372.04750	         1.07967e+58
          1372.85380	         1.17637e+58
          1373.66010	         1.11489e+58
          1374.46640	         9.64225e+57
          1375.27270	         9.97175e+57
          1376.07900	         8.82134e+57
          1376.88530	         8.78325e+57
          1377.69160	         8.71887e+57
          1378.49790	         7.97053e+57
          1379.30420	         7.86868e+57
          1380.11050	         9.49713e+57
          1380.91680	         9.69574e+57
          1381.72310	         9.39242e+57
          1382.52940	         8.68254e+57
          1383.33570	         9.38920e+57
          1384.14200	         9.83912e+57
          1384.94830	         1.05228e+58
          1385.75460	         1.12696e+58
          1386.56090	         1.13018e+58
          1387.36720	         1.21143e+58
          1388.17350	         1.26089e+58
          1388.97980	         1.04592e+58
          1389.78610	         9.71239e+57
          1390.59240	         9.08189e+57
          1391.39870	         7.64084e+57
          1392.20500	         8.08332e+57
          1393.01130	         7.11197e+57
          1393.81760	         7.64336e+57
          1394.62390	         8.42269e+57
          1395.43020	         7.47067e+57
          1396.23650	         6.16715e+57
          1397.04280	         6.33013e+57
          1397.84910	         8.02363e+57
          1398.65540	         1.01482e+58
          1399.46170	         9.67858e+57
          1400.26800	         7.26251e+57
          1401.07430	         6.79234e+57
          1401.88060	         7.91992e+57
          1402.68690	         9.21601e+57
          1403.49320	         9.84740e+57
          1404.29950	         8.30655e+57
          1405.10580	         9.60844e+57
          1405.91210	         1.07024e+58
          1406.71840	         9.61587e+57
          1407.52470	         1.04773e+58
          1408.33100	         1.03196e+58
          1409.13730	         1.18153e+58
          1409.94360	         1.28321e+58
          1410.74990	         1.21101e+58
          1411.55620	         9.91353e+57
          1412.36250	         9.90606e+57
          1413.16880	         9.89999e+57
          1413.97510	         8.88011e+57
          1414.78140	         9.38666e+57
          1415.58770	         1.08755e+58
          1416.39400	         1.15991e+58
          1417.20030	         9.52199e+57
          1418.00660	         9.45746e+57
          1418.81290	         1.04710e+58
          1419.61920	         1.12600e+58
          1420.42550	         1.20477e+58
          1421.23180	         1.29163e+58
          1422.03810	         1.22400e+58
          1422.84440	         1.07976e+58
          1423.65070	         1.18376e+58
          1424.45700	         1.00473e+58
          1425.26330	         7.73270e+57
          1426.06960	         8.62441e+57
          1426.87590	         9.59413e+57
          1427.68220	         9.47000e+57
          1428.48850	         1.02341e+58
          1429.29480	         1.05791e+58
          1430.10110	         9.48190e+57
          1430.90740	         8.65650e+57
          1431.71370	         8.48695e+57
          1432.52000	         8.64572e+57
          1433.32630	         8.30180e+57
          1434.13260	         8.04467e+57
          1434.93890	         8.44355e+57
          1435.74520	         9.43299e+57
          1436.55150	         1.01941e+58
          1437.35780	         9.80224e+57
          1438.16410	         9.88783e+57
          1438.97040	         9.28071e+57
          1439.77670	         9.36521e+57
          1440.58300	         9.87236e+57
          1441.38930	         9.82102e+57
          1442.19560	         1.02677e+58
          1443.00190	         9.90001e+57
          1443.80820	         1.05777e+58
          1444.61450	         9.56053e+57
          1445.42080	         8.68322e+57
          1446.22710	         1.06775e+58
          1447.03340	         9.98446e+57
          1447.83970	         1.07620e+58
          1448.64600	         1.06012e+58
          1449.45230	         1.03760e+58
          1450.25860	         9.92167e+57
          1451.06490	         8.45892e+57
          1451.87120	         7.73740e+57
          1452.67750	         7.27496e+57
          1453.48380	         8.09042e+57
          1454.29010	         7.83865e+57
          1455.09640	         7.77215e+57
          1455.90270	         9.61671e+57
          1456.70900	         9.75636e+57
          1457.51530	         1.00805e+58
          1458.32160	         1.11670e+58
          1459.12790	         1.08660e+58
          1459.93420	         9.39656e+57
          1460.74050	         8.43571e+57
          1461.54680	         8.89177e+57
          1462.35310	         7.96968e+57
          1463.15940	         8.91402e+57
          1463.96570	         1.24235e+58
          1464.77200	         1.32382e+58
          1465.57830	         1.13293e+58
          1466.38460	         9.87131e+57
          1467.19090	         8.70533e+57
          1467.99720	         8.37077e+57
          1468.80350	         9.43365e+57
          1469.60980	         9.62069e+57
          1470.41610	         1.09489e+58
          1471.22240	         9.70784e+57
          1472.02870	         9.66849e+57
          1472.83500	         1.13302e+58
          1473.64130	         1.06798e+58
          1474.44760	         1.03049e+58
          1475.25390	         9.03127e+57
          1476.06020	         7.96580e+57
          1476.86650	         8.49871e+57
          1477.67280	         8.27849e+57
          1478.47910	         7.00600e+57
          1479.28540	         6.54730e+57
          1480.09170	         8.64031e+57
          1480.89800	         9.22058e+57
          1481.70430	         8.86409e+57
          1482.51060	         8.11707e+57
          1483.31690	         7.83373e+57
          1484.12320	         7.49647e+57
          1484.92950	         6.98381e+57
          1485.73580	         8.20990e+57
          1486.54210	         1.00638e+58
          1487.34840	         1.07173e+58
          1488.15470	         1.02528e+58
          1488.96100	         8.83131e+57
          1489.76730	         9.18064e+57
