#sample_235_stacked_spectrum_rest_UV-bands_median_H-alpha_noDC.txt
#median Lum: 1.69960e+42
#Rest-frame wavelength (A) | Luminosity (erg/s/A)
#
          1110.00000	         0.00000e+00
          1110.80630	        -7.19877e+58
          1111.61260	         8.65892e+58
          1112.41890	         7.76479e+58
          1113.22520	         1.74227e+59
          1114.03150	         1.35343e+59
          1114.83780	         1.48676e+59
          1115.64410	        -1.89319e+58
          1116.45040	         1.24016e+59
          1117.25670	         1.06460e+59
          1118.06300	        -2.30913e+57
          1118.86930	         5.44252e+58
          1119.67560	         6.64142e+58
          1120.48190	        -4.94037e+58
          1121.28820	        -1.39293e+59
          1122.09450	        -1.28837e+58
          1122.90080	         3.18288e+58
          1123.70710	         6.19230e+58
          1124.51340	         1.61935e+59
          1125.31970	         9.30546e+58
          1126.12600	         3.51827e+58
          1126.93230	        -4.39086e+57
          1127.73860	        -1.82775e+57
          1128.54490	        -1.50213e+58
          1129.35120	        -3.25058e+58
          1130.15750	        -1.86864e+58
          1130.96380	        -3.10568e+58
          1131.77010	         7.38029e+58
          1132.57640	         4.56641e+58
          1133.38270	         5.30454e+58
          1134.18900	         3.89719e+57
          1134.99530	         4.84190e+57
          1135.80160	         1.58450e+58
          1136.60790	         1.74961e+58
          1137.41420	         2.90966e+57
          1138.22050	         6.35225e+58
          1139.02680	         2.33829e+58
          1139.83310	         1.46333e+58
          1140.63940	         2.52023e+58
          1141.44570	         8.36192e+57
          1142.25200	        -1.20857e+58
          1143.05830	         7.57235e+57
          1143.86460	         1.91874e+58
          1144.67090	         1.47673e+58
          1145.47720	         8.47842e+57
          1146.28350	         1.22519e+58
          1147.08980	         1.05849e+58
          1147.89610	         1.99994e+58
          1148.70240	         3.28525e+58
          1149.50870	         2.59249e+58
          1150.31500	         6.44120e+57
          1151.12130	         1.75950e+58
          1151.92760	         5.36226e+57
          1152.73390	         1.23508e+58
          1153.54020	         9.21128e+57
          1154.34650	         1.84298e+58
          1155.15280	         2.10964e+58
          1155.95910	         1.10283e+58
          1156.76540	         1.06699e+58
          1157.57170	         7.17923e+57
          1158.37800	         2.51873e+57
          1159.18430	         6.17851e+57
          1159.99060	         5.91337e+57
          1160.79690	         7.12423e+57
          1161.60320	         1.45755e+58
          1162.40950	         1.19850e+58
          1163.21580	         2.50538e+58
          1164.02210	         5.38147e+57
          1164.82840	         1.24663e+58
          1165.63470	         1.51769e+58
          1166.44100	         2.74866e+58
          1167.24730	         1.56718e+58
          1168.05360	         6.04068e+57
          1168.85990	         8.98549e+57
          1169.66620	         1.61237e+58
          1170.47250	         1.44966e+58
          1171.27880	         7.99527e+57
          1172.08510	         1.62054e+58
          1172.89140	         9.25564e+57
          1173.69770	         2.51597e+57
          1174.50400	         1.00574e+58
          1175.31030	         1.98281e+58
          1176.11660	         1.86228e+58
          1176.92290	         1.69720e+58
          1177.72920	         1.39920e+58
          1178.53550	         9.37066e+57
          1179.34180	         2.32800e+57
          1180.14810	         5.64387e+57
          1180.95440	         1.21762e+58
          1181.76070	         6.44962e+57
          1182.56700	         7.08114e+57
          1183.37330	         5.68517e+57
          1184.17960	         1.13932e+58
          1184.98590	         1.31173e+58
          1185.79220	         5.84779e+57
          1186.59850	         8.28468e+57
          1187.40480	         1.19432e+58
          1188.21110	         1.52068e+58
          1189.01740	         6.94693e+57
          1189.82370	         9.23876e+57
          1190.63000	         1.19685e+58
          1191.43630	         1.33565e+58
          1192.24260	         9.69644e+57
          1193.04890	         1.04367e+58
          1193.85520	         1.13389e+58
          1194.66150	         9.83929e+57
          1195.46780	         1.37984e+58
          1196.27410	         1.74460e+58
          1197.08040	         1.28793e+58
          1197.88670	         1.36770e+58
          1198.69300	         1.42066e+58
          1199.49930	         1.42884e+58
          1200.30560	         1.45549e+58
          1201.11190	         1.14328e+58
          1201.91820	         7.87408e+57
          1202.72450	         9.87028e+57
          1203.53080	         1.70290e+58
          1204.33710	         9.63102e+57
          1205.14340	         4.98230e+57
          1205.94970	         5.10604e+57
          1206.75600	         5.63073e+57
          1207.56230	         4.58369e+57
          1208.36860	         8.69827e+57
          1209.17490	         3.05419e+57
          1209.98120	         6.18747e+57
          1210.78750	         4.44357e+57
          1211.59380	         1.34515e+58
          1212.40010	         1.97590e+58
          1213.20640	         2.15296e+58
          1214.01270	         1.96818e+58
          1214.81900	         2.57282e+58
          1215.62530	         4.81656e+58
          1216.43160	         9.03222e+58
          1217.23790	         1.46931e+59
          1218.04420	         1.13485e+59
          1218.85050	         9.04853e+58
          1219.65680	         5.84522e+58
          1220.46310	         3.53252e+58
          1221.26940	         2.39953e+58
          1222.07570	         1.28349e+58
          1222.88200	         1.26699e+58
          1223.68830	         9.74969e+57
          1224.49460	         4.06371e+57
          1225.30090	         4.39610e+57
          1226.10720	         4.37753e+57
          1226.91350	         7.52633e+57
          1227.71980	         1.05930e+58
          1228.52610	         1.19529e+58
          1229.33240	         1.19157e+58
          1230.13870	         7.64243e+57
          1230.94500	         5.43852e+57
          1231.75130	         4.92713e+57
          1232.55760	         7.60731e+57
          1233.36390	         8.35642e+57
          1234.17020	         8.99104e+57
          1234.97650	         7.78268e+57
          1235.78280	         9.09338e+57
          1236.58910	         9.93253e+57
          1237.39540	         1.03223e+58
          1238.20170	         1.08246e+58
          1239.00800	         1.41607e+58
          1239.81430	         1.63462e+58
          1240.62060	         1.17127e+58
          1241.42690	         1.15039e+58
          1242.23320	         1.19686e+58
          1243.03950	         6.38506e+57
          1243.84580	         7.69917e+57
          1244.65210	         9.64567e+57
          1245.45840	         7.84212e+57
          1246.26470	         1.02641e+58
          1247.07100	         1.01727e+58
          1247.87730	         7.08248e+57
          1248.68360	         3.70460e+57
          1249.48990	         4.88067e+57
          1250.29620	         7.48474e+57
          1251.10250	         6.45330e+57
          1251.90880	         4.86239e+57
          1252.71510	         6.13695e+57
          1253.52140	         6.87379e+57
          1254.32770	         8.54813e+57
          1255.13400	         1.01622e+58
          1255.94030	         1.15565e+58
          1256.74660	         1.15980e+58
          1257.55290	         1.01489e+58
          1258.35920	         8.44821e+57
          1259.16550	         5.54998e+57
          1259.97180	         4.94275e+57
          1260.77810	         9.11820e+57
          1261.58440	         9.44330e+57
          1262.39070	         6.77666e+57
          1263.19700	         7.60741e+57
          1264.00330	         9.63905e+57
          1264.80960	         1.12697e+58
          1265.61590	         1.22288e+58
          1266.42220	         1.20530e+58
          1267.22850	         1.00731e+58
          1268.03480	         1.25022e+58
          1268.84110	         1.44851e+58
          1269.64740	         1.27153e+58
          1270.45370	         1.16510e+58
          1271.26000	         1.17036e+58
          1272.06630	         1.19461e+58
          1272.87260	         1.11387e+58
          1273.67890	         1.15132e+58
          1274.48520	         1.41200e+58
          1275.29150	         1.59092e+58
          1276.09780	         1.31230e+58
          1276.90410	         1.23427e+58
          1277.71040	         1.18717e+58
          1278.51670	         1.12481e+58
          1279.32300	         1.26687e+58
          1280.12930	         1.28793e+58
          1280.93560	         1.15189e+58
          1281.74190	         1.06177e+58
          1282.54820	         1.24903e+58
          1283.35450	         1.37212e+58
          1284.16080	         1.24103e+58
          1284.96710	         1.23724e+58
          1285.77340	         1.12863e+58
          1286.57970	         1.11890e+58
          1287.38600	         1.54419e+58
          1288.19230	         1.87942e+58
          1288.99860	         1.54645e+58
          1289.80490	         1.12390e+58
          1290.61120	         1.22765e+58
          1291.41750	         1.39312e+58
          1292.22380	         1.35092e+58
          1293.03010	         1.27903e+58
          1293.83640	         1.13524e+58
          1294.64270	         7.93073e+57
          1295.44900	         5.62057e+57
          1296.25530	         7.67137e+57
          1297.06160	         9.39441e+57
          1297.86790	         1.02899e+58
          1298.67420	         8.22891e+57
          1299.48050	         7.52884e+57
          1300.28680	         1.02039e+58
          1301.09310	         9.13131e+57
          1301.89940	         3.82424e+57
          1302.70570	         6.87424e+57
          1303.51200	         8.14465e+57
          1304.31830	         9.99148e+57
          1305.12460	         1.00610e+58
          1305.93090	         1.18899e+58
          1306.73720	         1.33102e+58
          1307.54350	         1.39718e+58
          1308.34980	         1.52305e+58
          1309.15610	         1.71825e+58
          1309.96240	         1.64567e+58
          1310.76870	         1.15594e+58
          1311.57500	         7.57164e+57
          1312.38130	         9.54698e+57
          1313.18760	         1.31004e+58
          1313.99390	         1.79996e+58
          1314.80020	         1.65668e+58
          1315.60650	         1.48200e+58
          1316.41280	         1.22314e+58
          1317.21910	         1.26411e+58
          1318.02540	         1.28616e+58
          1318.83170	         1.27723e+58
          1319.63800	         1.23808e+58
          1320.44430	         1.15695e+58
          1321.25060	         1.11549e+58
          1322.05690	         1.25758e+58
          1322.86320	         1.36013e+58
          1323.66950	         1.18210e+58
          1324.47580	         9.91411e+57
          1325.28210	         9.85722e+57
          1326.08840	         1.18161e+58
          1326.89470	         1.29672e+58
          1327.70100	         1.05385e+58
          1328.50730	         7.86415e+57
          1329.31360	         9.24564e+57
          1330.11990	         9.86023e+57
          1330.92620	         9.79959e+57
          1331.73250	         1.03303e+58
          1332.53880	         9.49944e+57
          1333.34510	         8.04620e+57
          1334.15140	         7.66748e+57
          1334.95770	         7.07327e+57
          1335.76400	         9.71416e+57
          1336.57030	         1.10322e+58
          1337.37660	         9.54614e+57
          1338.18290	         1.07140e+58
          1338.98920	         1.15986e+58
          1339.79550	         1.28706e+58
          1340.60180	         1.24432e+58
          1341.40810	         1.29233e+58
          1342.21440	         1.26365e+58
          1343.02070	         1.35723e+58
          1343.82700	         1.40629e+58
          1344.63330	         1.21697e+58
          1345.43960	         1.12569e+58
          1346.24590	         1.20660e+58
          1347.05220	         1.21006e+58
          1347.85850	         1.01760e+58
          1348.66480	         1.18984e+58
          1349.47110	         1.18696e+58
          1350.27740	         1.10483e+58
          1351.08370	         1.08281e+58
          1351.89000	         1.22822e+58
          1352.69630	         1.16028e+58
          1353.50260	         1.03662e+58
          1354.30890	         1.02002e+58
          1355.11520	         1.01014e+58
          1355.92150	         1.00769e+58
          1356.72780	         1.06420e+58
          1357.53410	         1.04153e+58
          1358.34040	         1.17991e+58
          1359.14670	         1.12734e+58
          1359.95300	         1.20502e+58
          1360.75930	         1.12766e+58
          1361.56560	         1.04173e+58
          1362.37190	         1.17564e+58
          1363.17820	         1.19427e+58
          1363.98450	         1.29708e+58
          1364.79080	         1.34526e+58
          1365.59710	         1.26583e+58
          1366.40340	         1.07873e+58
          1367.20970	         9.98879e+57
          1368.01600	         1.06199e+58
          1368.82230	         1.05448e+58
          1369.62860	         1.08565e+58
          1370.43490	         1.02017e+58
          1371.24120	         9.42874e+57
          1372.04750	         8.62644e+57
          1372.85380	         1.14175e+58
          1373.66010	         1.22481e+58
          1374.46640	         1.24696e+58
          1375.27270	         1.07692e+58
          1376.07900	         9.46291e+57
          1376.88530	         9.52782e+57
          1377.69160	         1.07241e+58
          1378.49790	         8.64300e+57
          1379.30420	         7.61342e+57
          1380.11050	         9.64650e+57
          1380.91680	         9.18006e+57
          1381.72310	         9.33618e+57
          1382.52940	         9.04992e+57
          1383.33570	         9.25032e+57
          1384.14200	         1.05173e+58
          1384.94830	         1.05252e+58
          1385.75460	         9.98287e+57
          1386.56090	         1.02610e+58
          1387.36720	         9.67336e+57
          1388.17350	         1.26112e+58
          1388.97980	         1.25879e+58
          1389.78610	         1.03636e+58
          1390.59240	         8.27930e+57
          1391.39870	         7.09215e+57
          1392.20500	         9.21914e+57
          1393.01130	         7.97127e+57
          1393.81760	         6.88293e+57
          1394.62390	         6.03707e+57
          1395.43020	         5.73753e+57
          1396.23650	         6.72048e+57
          1397.04280	         8.24724e+57
          1397.84910	         8.90928e+57
          1398.65540	         8.55190e+57
          1399.46170	         9.65295e+57
          1400.26800	         8.39823e+57
          1401.07430	         7.46581e+57
          1401.88060	         8.12334e+57
          1402.68690	         9.88985e+57
          1403.49320	         9.59043e+57
          1404.29950	         9.14457e+57
          1405.10580	         1.00318e+58
          1405.91210	         1.22197e+58
          1406.71840	         1.29621e+58
          1407.52470	         1.20734e+58
          1408.33100	         1.13672e+58
          1409.13730	         1.11917e+58
          1409.94360	         1.02924e+58
          1410.74990	         1.03502e+58
          1411.55620	         1.01962e+58
          1412.36250	         8.50729e+57
          1413.16880	         8.99627e+57
          1413.97510	         8.24307e+57
          1414.78140	         8.75260e+57
          1415.58770	         9.96297e+57
          1416.39400	         9.07336e+57
          1417.20030	         1.03011e+58
          1418.00660	         1.11209e+58
          1418.81290	         1.12755e+58
          1419.61920	         1.16141e+58
          1420.42550	         1.13023e+58
          1421.23180	         1.18964e+58
          1422.03810	         1.26778e+58
          1422.84440	         1.05505e+58
          1423.65070	         1.08946e+58
          1424.45700	         1.01820e+58
          1425.26330	         8.94761e+57
          1426.06960	         8.63681e+57
          1426.87590	         1.08109e+58
          1427.68220	         1.08948e+58
          1428.48850	         1.05482e+58
          1429.29480	         1.05398e+58
          1430.10110	         9.68995e+57
          1430.90740	         8.98904e+57
          1431.71370	         9.15248e+57
          1432.52000	         9.40988e+57
          1433.32630	         7.30460e+57
          1434.13260	         7.93889e+57
          1434.93890	         9.44331e+57
          1435.74520	         9.54320e+57
          1436.55150	         8.99301e+57
          1437.35780	         7.90960e+57
          1438.16410	         8.01208e+57
          1438.97040	         9.08084e+57
          1439.77670	         9.12136e+57
          1440.58300	         9.13704e+57
          1441.38930	         9.53895e+57
          1442.19560	         1.03148e+58
          1443.00190	         9.35971e+57
          1443.80820	         9.82542e+57
          1444.61450	         1.05619e+58
          1445.42080	         8.79716e+57
          1446.22710	         9.35050e+57
          1447.03340	         9.04274e+57
          1447.83970	         1.10295e+58
          1448.64600	         1.08353e+58
          1449.45230	         9.31430e+57
          1450.25860	         1.03622e+58
          1451.06490	         9.22280e+57
          1451.87120	         7.12510e+57
          1452.67750	         7.20763e+57
          1453.48380	         8.07072e+57
          1454.29010	         7.55848e+57
          1455.09640	         8.14306e+57
          1455.90270	         9.09021e+57
          1456.70900	         9.25018e+57
          1457.51530	         9.91575e+57
          1458.32160	         1.17860e+58
          1459.12790	         1.24479e+58
          1459.93420	         1.08769e+58
          1460.74050	         7.54893e+57
          1461.54680	         7.29033e+57
          1462.35310	         8.62554e+57
          1463.15940	         1.15168e+58
          1463.96570	         1.19353e+58
          1464.77200	         1.26793e+58
          1465.57830	         1.16676e+58
          1466.38460	         9.06103e+57
          1467.19090	         8.69429e+57
          1467.99720	         9.03893e+57
          1468.80350	         9.17787e+57
          1469.60980	         8.48435e+57
          1470.41610	         9.87921e+57
          1471.22240	         1.00398e+58
          1472.02870	         9.80178e+57
          1472.83500	         1.01596e+58
          1473.64130	         9.49380e+57
          1474.44760	         9.08798e+57
          1475.25390	         8.18150e+57
          1476.06020	         8.24670e+57
          1476.86650	         9.39517e+57
          1477.67280	         7.24783e+57
          1478.47910	         5.25660e+57
          1479.28540	         7.81508e+57
          1480.09170	         9.21418e+57
          1480.89800	         9.61356e+57
          1481.70430	         8.34717e+57
          1482.51060	         8.28211e+57
          1483.31690	         8.62211e+57
          1484.12320	         7.86044e+57
          1484.92950	         7.72830e+57
          1485.73580	         8.25196e+57
          1486.54210	         8.88027e+57
          1487.34840	         8.81395e+57
          1488.15470	         8.29930e+57
          1488.96100	         8.50706e+57
          1489.76730	         9.84229e+57
