#sample_395_stacked_spectrum_rest_UV-bands_median_H-alpha_noDC.txt
#median Lum: 1.66530e+42
#Rest-frame wavelength (A) | Luminosity (erg/s/A)
#
          1110.00000	         0.00000e+00
          1110.80630	         1.29287e+59
          1111.61260	        -8.42699e+58
          1112.41890	         1.80071e+59
          1113.22520	         1.15509e+59
          1114.03150	         1.91869e+58
          1114.83780	         9.97135e+58
          1115.64410	        -2.43547e+58
          1116.45040	        -1.43570e+58
          1117.25670	         4.50759e+58
          1118.06300	         3.53973e+58
          1118.86930	        -3.99719e+58
          1119.67560	         1.05388e+59
          1120.48190	        -3.02607e+58
          1121.28820	        -1.34113e+59
          1122.09450	         3.44649e+57
          1122.90080	         5.60152e+57
          1123.70710	         5.54138e+58
          1124.51340	         1.15420e+59
          1125.31970	         5.88024e+58
          1126.12600	         2.28482e+58
          1126.93230	        -6.45275e+58
          1127.73860	        -9.75795e+58
          1128.54490	         9.61900e+57
          1129.35120	         5.91141e+57
          1130.15750	        -2.06647e+58
          1130.96380	         4.08469e+58
          1131.77010	         7.39660e+58
          1132.57640	         4.51127e+58
          1133.38270	         5.36874e+58
          1134.18900	         8.36984e+57
          1134.99530	         4.09527e+58
          1135.80160	         4.54568e+58
          1136.60790	         8.28843e+57
          1137.41420	        -9.75357e+57
          1138.22050	         3.69730e+58
          1139.02680	         4.11519e+58
          1139.83310	         2.37436e+58
          1140.63940	         1.08511e+58
          1141.44570	        -1.36845e+58
          1142.25200	        -9.66791e+57
          1143.05830	         1.96190e+58
          1143.86460	         3.43426e+58
          1144.67090	         1.93262e+58
          1145.47720	         5.95567e+57
          1146.28350	         1.70090e+58
          1147.08980	         1.01362e+58
          1147.89610	         1.18353e+58
          1148.70240	         1.75332e+58
          1149.50870	         1.86183e+58
          1150.31500	         1.08697e+58
          1151.12130	         2.77055e+57
          1151.92760	        -2.20284e+57
          1152.73390	         3.19759e+57
          1153.54020	         6.93158e+57
          1154.34650	         1.43286e+58
          1155.15280	         1.84389e+58
          1155.95910	         9.31250e+57
          1156.76540	         9.42329e+57
          1157.57170	         9.67121e+57
          1158.37800	         2.24563e+57
          1159.18430	        -7.35943e+57
          1159.99060	        -2.05729e+57
          1160.79690	         3.11486e+57
          1161.60320	         1.12956e+58
          1162.40950	         1.52189e+58
          1163.21580	         2.01188e+58
          1164.02210	         1.91135e+58
          1164.82840	         1.26082e+58
          1165.63470	         2.72148e+58
          1166.44100	         2.85525e+58
          1167.24730	         1.85976e+58
          1168.05360	         1.78069e+58
          1168.85990	         4.47797e+57
          1169.66620	         3.90458e+57
          1170.47250	         9.91448e+57
          1171.27880	         2.04163e+58
          1172.08510	         2.13483e+58
          1172.89140	         1.29306e+58
          1173.69770	         3.92976e+57
          1174.50400	         1.16105e+58
          1175.31030	         1.51194e+58
          1176.11660	         1.29358e+58
          1176.92290	         1.45201e+58
          1177.72920	         1.47739e+58
          1178.53550	         8.39802e+57
          1179.34180	         8.20248e+56
          1180.14810	         2.31591e+57
          1180.95440	         5.28688e+57
          1181.76070	         3.73751e+57
          1182.56700	         8.41476e+57
          1183.37330	         1.05062e+58
          1184.17960	         1.50450e+58
          1184.98590	         1.64103e+58
          1185.79220	         1.09239e+58
          1186.59850	         1.15771e+58
          1187.40480	         8.44592e+57
          1188.21110	         1.16388e+58
          1189.01740	         1.06567e+58
          1189.82370	         1.58234e+58
          1190.63000	         1.30113e+58
          1191.43630	         1.60483e+58
          1192.24260	         1.13037e+58
          1193.04890	         1.24701e+58
          1193.85520	         1.03514e+58
          1194.66150	         1.09029e+58
          1195.46780	         1.29717e+58
          1196.27410	         1.08342e+58
          1197.08040	         7.24576e+57
          1197.88670	         1.30511e+58
          1198.69300	         1.56535e+58
          1199.49930	         1.55160e+58
          1200.30560	         1.06861e+58
          1201.11190	         1.38956e+58
          1201.91820	         1.39509e+58
          1202.72450	         7.15196e+57
          1203.53080	         1.29289e+58
          1204.33710	         1.15509e+58
          1205.14340	         1.12641e+58
          1205.94970	         1.04224e+58
          1206.75600	         9.17761e+57
          1207.56230	         3.76323e+57
          1208.36860	         8.28335e+57
          1209.17490	         1.01792e+57
          1209.98120	         1.80718e+57
          1210.78750	         1.02962e+58
          1211.59380	         1.41830e+58
          1212.40010	         1.86776e+58
          1213.20640	         2.00224e+58
          1214.01270	         1.90103e+58
          1214.81900	         2.89880e+58
          1215.62530	         4.73088e+58
          1216.43160	         8.72838e+58
          1217.23790	         1.51297e+59
          1218.04420	         1.23150e+59
          1218.85050	         9.12722e+58
          1219.65680	         5.84363e+58
          1220.46310	         3.54376e+58
          1221.26940	         2.25447e+58
          1222.07570	         1.45561e+58
          1222.88200	         1.21425e+58
          1223.68830	         1.12050e+58
          1224.49460	         6.07142e+57
          1225.30090	         3.98362e+57
          1226.10720	         6.41437e+57
          1226.91350	         7.48181e+57
          1227.71980	         1.07599e+58
          1228.52610	         1.39862e+58
          1229.33240	         9.81356e+57
          1230.13870	         7.19770e+57
          1230.94500	         8.33702e+57
          1231.75130	         8.10290e+57
          1232.55760	         1.06904e+58
          1233.36390	         8.85830e+57
          1234.17020	         8.72477e+57
          1234.97650	         1.00942e+58
          1235.78280	         9.60986e+57
          1236.58910	         9.39698e+57
          1237.39540	         9.85276e+57
          1238.20170	         1.15185e+58
          1239.00800	         1.37786e+58
          1239.81430	         1.63698e+58
          1240.62060	         1.34585e+58
          1241.42690	         1.18484e+58
          1242.23320	         1.28069e+58
          1243.03950	         8.63701e+57
          1243.84580	         9.30070e+57
          1244.65210	         1.27913e+58
          1245.45840	         1.15050e+58
          1246.26470	         9.58212e+57
          1247.07100	         7.10185e+57
          1247.87730	         5.83002e+57
          1248.68360	         5.84951e+57
          1249.48990	         9.91737e+57
          1250.29620	         1.19126e+58
          1251.10250	         1.01533e+58
          1251.90880	         6.57875e+57
          1252.71510	         5.61174e+57
          1253.52140	         7.66815e+57
          1254.32770	         9.12429e+57
          1255.13400	         1.45399e+58
          1255.94030	         1.54242e+58
          1256.74660	         1.13636e+58
          1257.55290	         9.66952e+57
          1258.35920	         7.22495e+57
          1259.16550	         5.83915e+57
          1259.97180	         7.09940e+57
          1260.77810	         9.12448e+57
          1261.58440	         1.11916e+58
          1262.39070	         8.73791e+57
          1263.19700	         7.40934e+57
          1264.00330	         9.44623e+57
          1264.80960	         9.73995e+57
          1265.61590	         1.11179e+58
          1266.42220	         1.18568e+58
          1267.22850	         1.31566e+58
          1268.03480	         1.41801e+58
          1268.84110	         1.27811e+58
          1269.64740	         1.23455e+58
          1270.45370	         1.45992e+58
          1271.26000	         1.24462e+58
          1272.06630	         1.06771e+58
          1272.87260	         1.25400e+58
          1273.67890	         1.44004e+58
          1274.48520	         1.36333e+58
          1275.29150	         1.15563e+58
          1276.09780	         1.01462e+58
          1276.90410	         1.49767e+58
          1277.71040	         1.41732e+58
          1278.51670	         1.26988e+58
          1279.32300	         1.42134e+58
          1280.12930	         1.22196e+58
          1280.93560	         1.19930e+58
          1281.74190	         9.69049e+57
          1282.54820	         1.12895e+58
          1283.35450	         1.38086e+58
          1284.16080	         1.39433e+58
          1284.96710	         1.52365e+58
          1285.77340	         1.15891e+58
          1286.57970	         1.19540e+58
          1287.38600	         1.60749e+58
          1288.19230	         1.75943e+58
          1288.99860	         1.62691e+58
          1289.80490	         1.03863e+58
          1290.61120	         1.25206e+58
          1291.41750	         1.33647e+58
          1292.22380	         1.30492e+58
          1293.03010	         1.10171e+58
          1293.83640	         1.14167e+58
          1294.64270	         1.14998e+58
          1295.44900	         7.36057e+57
          1296.25530	         6.61154e+57
          1297.06160	         1.14063e+58
          1297.86790	         1.03302e+58
          1298.67420	         9.05086e+57
          1299.48050	         1.01440e+58
          1300.28680	         1.10781e+58
          1301.09310	         9.79326e+57
          1301.89940	         5.56275e+57
          1302.70570	         7.51613e+57
          1303.51200	         8.43401e+57
          1304.31830	         1.04939e+58
          1305.12460	         1.05803e+58
          1305.93090	         1.08350e+58
          1306.73720	         1.35867e+58
          1307.54350	         1.51236e+58
          1308.34980	         1.44203e+58
          1309.15610	         1.53118e+58
          1309.96240	         1.55594e+58
          1310.76870	         1.38650e+58
          1311.57500	         1.29032e+58
          1312.38130	         1.08752e+58
          1313.18760	         1.22722e+58
          1313.99390	         1.65915e+58
          1314.80020	         1.74470e+58
          1315.60650	         1.56335e+58
          1316.41280	         1.44282e+58
          1317.21910	         1.32252e+58
          1318.02540	         1.26067e+58
          1318.83170	         1.39578e+58
          1319.63800	         1.16294e+58
          1320.44430	         1.03916e+58
          1321.25060	         1.27134e+58
          1322.05690	         1.28889e+58
          1322.86320	         1.29986e+58
          1323.66950	         1.11640e+58
          1324.47580	         8.18080e+57
          1325.28210	         8.34783e+57
          1326.08840	         9.79031e+57
          1326.89470	         1.20262e+58
          1327.70100	         1.07858e+58
          1328.50730	         7.09915e+57
          1329.31360	         9.23981e+57
          1330.11990	         8.91664e+57
          1330.92620	         8.00081e+57
          1331.73250	         9.72100e+57
          1332.53880	         9.31891e+57
          1333.34510	         1.08900e+58
          1334.15140	         1.05015e+58
          1334.95770	         9.21392e+57
          1335.76400	         1.07825e+58
          1336.57030	         1.08198e+58
          1337.37660	         1.06446e+58
          1338.18290	         1.14882e+58
          1338.98920	         1.10889e+58
          1339.79550	         1.13016e+58
          1340.60180	         1.21967e+58
          1341.40810	         1.36704e+58
          1342.21440	         1.25396e+58
          1343.02070	         1.36823e+58
          1343.82700	         1.60085e+58
          1344.63330	         1.44536e+58
          1345.43960	         1.45016e+58
          1346.24590	         1.24660e+58
          1347.05220	         1.22901e+58
          1347.85850	         1.11284e+58
          1348.66480	         1.12611e+58
          1349.47110	         1.19943e+58
          1350.27740	         1.10103e+58
          1351.08370	         1.30758e+58
          1351.89000	         1.32864e+58
          1352.69630	         1.25109e+58
          1353.50260	         1.14572e+58
          1354.30890	         1.13721e+58
          1355.11520	         1.04383e+58
          1355.92150	         1.12703e+58
          1356.72780	         1.19120e+58
          1357.53410	         1.13905e+58
          1358.34040	         1.09243e+58
          1359.14670	         9.65534e+57
          1359.95300	         1.05138e+58
          1360.75930	         1.03558e+58
          1361.56560	         1.03993e+58
          1362.37190	         1.14501e+58
          1363.17820	         1.06980e+58
          1363.98450	         1.20227e+58
          1364.79080	         1.20716e+58
          1365.59710	         1.17029e+58
          1366.40340	         1.15279e+58
          1367.20970	         1.08712e+58
          1368.01600	         1.01842e+58
          1368.82230	         9.66178e+57
          1369.62860	         1.00414e+58
          1370.43490	         8.93594e+57
          1371.24120	         8.37433e+57
          1372.04750	         9.11867e+57
          1372.85380	         1.07979e+58
          1373.66010	         1.03685e+58
          1374.46640	         1.19120e+58
          1375.27270	         1.20218e+58
          1376.07900	         9.48999e+57
          1376.88530	         8.32133e+57
          1377.69160	         8.06485e+57
          1378.49790	         7.16326e+57
          1379.30420	         7.96030e+57
          1380.11050	         1.02321e+58
          1380.91680	         8.96536e+57
          1381.72310	         7.56502e+57
          1382.52940	         8.02668e+57
          1383.33570	         9.93115e+57
          1384.14200	         1.01389e+58
          1384.94830	         1.04240e+58
          1385.75460	         1.13156e+58
          1386.56090	         1.11682e+58
          1387.36720	         1.06160e+58
          1388.17350	         1.23171e+58
          1388.97980	         9.52126e+57
          1389.78610	         7.49773e+57
          1390.59240	         7.58738e+57
          1391.39870	         8.33094e+57
          1392.20500	         8.66904e+57
          1393.01130	         8.81955e+57
          1393.81760	         8.67351e+57
          1394.62390	         8.96822e+57
          1395.43020	         7.55478e+57
          1396.23650	         6.60796e+57
          1397.04280	         7.68643e+57
          1397.84910	         9.26984e+57
          1398.65540	         1.00635e+58
          1399.46170	         1.07678e+58
          1400.26800	         9.47298e+57
          1401.07430	         8.84430e+57
          1401.88060	         8.59581e+57
          1402.68690	         1.00069e+58
          1403.49320	         1.08649e+58
          1404.29950	         1.05717e+58
          1405.10580	         1.12291e+58
          1405.91210	         1.34203e+58
          1406.71840	         1.18822e+58
          1407.52470	         9.57457e+57
          1408.33100	         1.02388e+58
          1409.13730	         1.17618e+58
          1409.94360	         1.24974e+58
          1410.74990	         1.13321e+58
          1411.55620	         9.37539e+57
          1412.36250	         8.72776e+57
          1413.16880	         9.51365e+57
          1413.97510	         9.51961e+57
          1414.78140	         9.04207e+57
          1415.58770	         1.10520e+58
          1416.39400	         1.14587e+58
          1417.20030	         1.00544e+58
          1418.00660	         9.92231e+57
          1418.81290	         1.07123e+58
          1419.61920	         1.07443e+58
          1420.42550	         1.35101e+58
          1421.23180	         1.52007e+58
          1422.03810	         1.39220e+58
          1422.84440	         1.20660e+58
          1423.65070	         1.25794e+58
          1424.45700	         1.15221e+58
          1425.26330	         8.33001e+57
          1426.06960	         8.47320e+57
          1426.87590	         9.51596e+57
          1427.68220	         1.02522e+58
          1428.48850	         1.01752e+58
          1429.29480	         1.06217e+58
          1430.10110	         1.04014e+58
          1430.90740	         8.53485e+57
          1431.71370	         8.98065e+57
          1432.52000	         8.51678e+57
          1433.32630	         7.85864e+57
          1434.13260	         8.04664e+57
          1434.93890	         7.80615e+57
          1435.74520	         9.08455e+57
          1436.55150	         1.05975e+58
          1437.35780	         1.03733e+58
          1438.16410	         9.83748e+57
          1438.97040	         9.63783e+57
          1439.77670	         9.96321e+57
          1440.58300	         1.06708e+58
          1441.38930	         9.79129e+57
          1442.19560	         9.75732e+57
          1443.00190	         9.16555e+57
          1443.80820	         1.04024e+58
          1444.61450	         9.56637e+57
          1445.42080	         8.37214e+57
          1446.22710	         1.00216e+58
          1447.03340	         1.06693e+58
          1447.83970	         1.14191e+58
          1448.64600	         1.12843e+58
          1449.45230	         1.11055e+58
          1450.25860	         1.13850e+58
          1451.06490	         9.54726e+57
          1451.87120	         7.60254e+57
          1452.67750	         7.43519e+57
          1453.48380	         8.19121e+57
          1454.29010	         8.02696e+57
          1455.09640	         8.29244e+57
          1455.90270	         9.94739e+57
          1456.70900	         9.41394e+57
          1457.51530	         1.03067e+58
          1458.32160	         1.21912e+58
          1459.12790	         1.12940e+58
          1459.93420	         9.14577e+57
          1460.74050	         7.46729e+57
          1461.54680	         7.41669e+57
          1462.35310	         7.71773e+57
          1463.15940	         8.45888e+57
          1463.96570	         1.01316e+58
          1464.77200	         1.25504e+58
          1465.57830	         1.05101e+58
          1466.38460	         9.07144e+57
          1467.19090	         8.91279e+57
          1467.99720	         8.54284e+57
          1468.80350	         9.45118e+57
          1469.60980	         1.05227e+58
          1470.41610	         1.03363e+58
          1471.22240	         8.96851e+57
          1472.02870	         1.00030e+58
          1472.83500	         1.00566e+58
          1473.64130	         8.56414e+57
          1474.44760	         9.01114e+57
          1475.25390	         9.27525e+57
          1476.06020	         8.76058e+57
          1476.86650	         8.02375e+57
          1477.67280	         9.14214e+57
          1478.47910	         8.01266e+57
          1479.28540	         7.55074e+57
          1480.09170	         8.57141e+57
          1480.89800	         8.92667e+57
          1481.70430	         9.43903e+57
          1482.51060	         9.40687e+57
          1483.31690	         8.85399e+57
          1484.12320	         8.28168e+57
          1484.92950	         8.02601e+57
          1485.73580	         8.93949e+57
          1486.54210	         8.67448e+57
          1487.34840	         9.27470e+57
          1488.15470	         9.31116e+57
          1488.96100	         8.54057e+57
          1489.76730	         9.66463e+57
