#sample_398_stacked_spectrum_rest_UV-bands_median_H-alpha_noDC.txt
#median Lum: 1.70602e+42
#Rest-frame wavelength (A) | Luminosity (erg/s/A)
#
          1110.00000	         0.00000e+00
          1110.80630	         2.63420e+59
          1111.61260	         1.28795e+59
          1112.41890	         1.61543e+59
          1113.22520	         2.85371e+58
          1114.03150	        -1.60525e+59
          1114.83780	         6.13438e+58
          1115.64410	         1.23640e+59
          1116.45040	         5.08691e+58
          1117.25670	         2.23231e+59
          1118.06300	        -2.09391e+57
          1118.86930	        -9.77444e+58
          1119.67560	         1.08778e+59
          1120.48190	        -9.15837e+58
          1121.28820	        -2.32857e+59
          1122.09450	        -7.02436e+58
          1122.90080	        -2.55412e+58
          1123.70710	         3.94092e+58
          1124.51340	         5.65222e+58
          1125.31970	         1.20218e+58
          1126.12600	        -2.37698e+57
          1126.93230	        -4.92140e+58
          1127.73860	        -5.72652e+58
          1128.54490	         2.47189e+58
          1129.35120	         7.22346e+57
          1130.15750	        -4.60941e+58
          1130.96380	        -4.23458e+57
          1131.77010	         7.24932e+58
          1132.57640	         7.96210e+58
          1133.38270	         4.44618e+58
          1134.18900	         1.99520e+58
          1134.99530	         2.18723e+58
          1135.80160	         1.89196e+58
          1136.60790	        -2.91976e+57
          1137.41420	        -1.30429e+58
          1138.22050	         3.13990e+58
          1139.02680	         1.74670e+58
          1139.83310	         9.94575e+57
          1140.63940	         2.04808e+58
          1141.44570	         2.86967e+57
          1142.25200	        -2.05071e+58
          1143.05830	         9.91924e+57
          1143.86460	         1.33586e+58
          1144.67090	         1.58708e+58
          1145.47720	         7.75098e+57
          1146.28350	         4.32613e+57
          1147.08980	         7.22770e+57
          1147.89610	         1.17796e+58
          1148.70240	         3.42356e+58
          1149.50870	         2.76242e+58
          1150.31500	         6.28726e+57
          1151.12130	         1.21783e+58
          1151.92760	         2.13981e+58
          1152.73390	         1.48914e+58
          1153.54020	         9.20750e+57
          1154.34650	         2.69989e+58
          1155.15280	         2.72308e+58
          1155.95910	         8.52198e+57
          1156.76540	         1.63190e+58
          1157.57170	         3.53731e+57
          1158.37800	        -4.88161e+57
          1159.18430	        -4.86035e+57
          1159.99060	         4.51018e+57
          1160.79690	         2.68561e+56
          1161.60320	         9.12581e+57
          1162.40950	         1.37482e+58
          1163.21580	         1.88145e+58
          1164.02210	         1.17546e+58
          1164.82840	         1.29978e+58
          1165.63470	         1.53632e+58
          1166.44100	         2.80296e+58
          1167.24730	         2.48598e+58
          1168.05360	         6.83254e+57
          1168.85990	         5.93450e+57
          1169.66620	         9.88300e+57
          1170.47250	         7.95024e+57
          1171.27880	         9.72135e+57
          1172.08510	         1.59409e+58
          1172.89140	         1.39992e+58
          1173.69770	         8.70580e+57
          1174.50400	         1.72771e+58
          1175.31030	         1.70974e+58
          1176.11660	         1.66746e+58
          1176.92290	         1.47916e+58
          1177.72920	         1.25633e+58
          1178.53550	         7.41287e+57
          1179.34180	         5.15240e+57
          1180.14810	         8.33591e+57
          1180.95440	         7.44349e+57
          1181.76070	         4.45413e+57
          1182.56700	         6.93367e+57
          1183.37330	         9.49206e+57
          1184.17960	         1.01871e+58
          1184.98590	         8.80741e+57
          1185.79220	         5.34684e+57
          1186.59850	         7.89595e+57
          1187.40480	         6.11550e+57
          1188.21110	         1.18559e+58
          1189.01740	         1.05333e+58
          1189.82370	         1.24089e+58
          1190.63000	         1.65395e+58
          1191.43630	         1.45406e+58
          1192.24260	         8.79988e+57
          1193.04890	         1.33064e+58
          1193.85520	         1.17755e+58
          1194.66150	         1.02432e+58
          1195.46780	         1.60172e+58
          1196.27410	         1.46970e+58
          1197.08040	         1.26360e+58
          1197.88670	         1.80217e+58
          1198.69300	         1.71109e+58
          1199.49930	         1.61544e+58
          1200.30560	         1.38512e+58
          1201.11190	         1.11571e+58
          1201.91820	         8.48165e+57
          1202.72450	         9.23696e+57
          1203.53080	         1.73479e+58
          1204.33710	         1.06889e+58
          1205.14340	         4.29209e+57
          1205.94970	         5.41112e+57
          1206.75600	         4.90127e+57
          1207.56230	         5.22684e+57
          1208.36860	         8.26915e+57
          1209.17490	         4.33705e+57
          1209.98120	         3.57368e+57
          1210.78750	         6.06446e+57
          1211.59380	         9.04189e+57
          1212.40010	         1.83537e+58
          1213.20640	         2.08548e+58
          1214.01270	         1.97157e+58
          1214.81900	         2.66548e+58
          1215.62530	         4.86613e+58
          1216.43160	         9.36734e+58
          1217.23790	         1.51632e+59
          1218.04420	         1.11528e+59
          1218.85050	         8.34995e+58
          1219.65680	         5.78037e+58
          1220.46310	         3.37975e+58
          1221.26940	         2.08870e+58
          1222.07570	         1.43207e+58
          1222.88200	         1.15482e+58
          1223.68830	         8.85307e+57
          1224.49460	         9.38229e+57
          1225.30090	         6.86244e+57
          1226.10720	         7.09111e+57
          1226.91350	         6.87562e+57
          1227.71980	         5.74198e+57
          1228.52610	         1.22171e+58
          1229.33240	         1.17080e+58
          1230.13870	         1.13839e+58
          1230.94500	         7.88262e+57
          1231.75130	         8.46259e+57
          1232.55760	         8.66372e+57
          1233.36390	         9.78504e+57
          1234.17020	         9.04765e+57
          1234.97650	         8.40825e+57
          1235.78280	         9.59098e+57
          1236.58910	         8.84850e+57
          1237.39540	         1.03382e+58
          1238.20170	         9.92327e+57
          1239.00800	         1.03712e+58
          1239.81430	         1.18726e+58
          1240.62060	         7.38196e+57
          1241.42690	         9.48720e+57
          1242.23320	         1.27466e+58
          1243.03950	         9.08531e+57
          1243.84580	         9.45614e+57
          1244.65210	         1.24588e+58
          1245.45840	         1.04058e+58
          1246.26470	         7.87853e+57
          1247.07100	         8.86020e+57
          1247.87730	         5.52600e+57
          1248.68360	         2.90527e+57
          1249.48990	         6.61610e+57
          1250.29620	         7.93660e+57
          1251.10250	         6.15709e+57
          1251.90880	         2.17192e+57
          1252.71510	         3.48603e+57
          1253.52140	         5.39001e+57
          1254.32770	         9.49479e+57
          1255.13400	         1.42175e+58
          1255.94030	         1.15718e+58
          1256.74660	         1.13346e+58
          1257.55290	         1.32691e+58
          1258.35920	         8.68222e+57
          1259.16550	         5.09297e+57
          1259.97180	         4.60263e+57
          1260.77810	         7.86026e+57
          1261.58440	         8.45967e+57
          1262.39070	         5.77082e+57
          1263.19700	         8.62417e+57
          1264.00330	         9.18498e+57
          1264.80960	         1.00512e+58
          1265.61590	         1.38954e+58
          1266.42220	         1.16364e+58
          1267.22850	         8.67513e+57
          1268.03480	         1.35606e+58
          1268.84110	         1.43822e+58
          1269.64740	         1.44660e+58
          1270.45370	         1.45325e+58
          1271.26000	         1.22401e+58
          1272.06630	         1.34963e+58
          1272.87260	         1.41088e+58
          1273.67890	         1.38243e+58
          1274.48520	         1.22070e+58
          1275.29150	         1.33615e+58
          1276.09780	         1.19442e+58
          1276.90410	         1.56649e+58
          1277.71040	         1.50266e+58
          1278.51670	         1.30842e+58
          1279.32300	         1.36915e+58
          1280.12930	         1.34454e+58
          1280.93560	         1.20252e+58
          1281.74190	         1.17405e+58
          1282.54820	         1.20640e+58
          1283.35450	         1.13459e+58
          1284.16080	         1.35853e+58
          1284.96710	         1.24522e+58
          1285.77340	         8.77753e+57
          1286.57970	         1.06595e+58
          1287.38600	         1.44849e+58
          1288.19230	         1.80643e+58
          1288.99860	         1.83367e+58
          1289.80490	         1.32478e+58
          1290.61120	         1.11364e+58
          1291.41750	         1.24666e+58
          1292.22380	         1.17026e+58
          1293.03010	         1.06328e+58
          1293.83640	         1.12536e+58
          1294.64270	         9.47598e+57
          1295.44900	         6.31818e+57
          1296.25530	         8.09985e+57
          1297.06160	         8.46483e+57
          1297.86790	         7.54433e+57
          1298.67420	         8.33232e+57
          1299.48050	         8.65821e+57
          1300.28680	         9.35701e+57
          1301.09310	         7.36361e+57
          1301.89940	         4.97001e+57
          1302.70570	         5.95824e+57
          1303.51200	         6.96520e+57
          1304.31830	         9.51279e+57
          1305.12460	         1.07955e+58
          1305.93090	         1.20801e+58
          1306.73720	         1.28293e+58
          1307.54350	         1.22342e+58
          1308.34980	         1.32290e+58
          1309.15610	         1.57585e+58
          1309.96240	         1.64099e+58
          1310.76870	         1.40086e+58
          1311.57500	         1.05177e+58
          1312.38130	         8.58543e+57
          1313.18760	         1.18022e+58
          1313.99390	         1.56394e+58
          1314.80020	         1.59283e+58
          1315.60650	         1.67242e+58
          1316.41280	         1.23901e+58
          1317.21910	         1.05534e+58
          1318.02540	         1.30387e+58
          1318.83170	         1.32598e+58
          1319.63800	         1.17156e+58
          1320.44430	         1.21915e+58
          1321.25060	         1.31182e+58
          1322.05690	         1.25417e+58
          1322.86320	         1.18503e+58
          1323.66950	         1.15308e+58
          1324.47580	         1.07169e+58
          1325.28210	         1.01988e+58
          1326.08840	         1.08707e+58
          1326.89470	         1.09433e+58
          1327.70100	         1.13594e+58
          1328.50730	         9.35825e+57
          1329.31360	         9.31227e+57
          1330.11990	         1.07584e+58
          1330.92620	         1.08819e+58
          1331.73250	         1.10412e+58
          1332.53880	         1.09142e+58
          1333.34510	         9.49367e+57
          1334.15140	         1.02327e+58
          1334.95770	         9.58958e+57
          1335.76400	         1.06010e+58
          1336.57030	         1.05087e+58
          1337.37660	         9.83762e+57
          1338.18290	         1.08110e+58
          1338.98920	         1.02706e+58
          1339.79550	         1.02278e+58
          1340.60180	         1.31053e+58
          1341.40810	         1.47494e+58
          1342.21440	         1.29601e+58
          1343.02070	         1.19889e+58
          1343.82700	         1.25346e+58
          1344.63330	         1.26510e+58
          1345.43960	         1.40135e+58
          1346.24590	         1.33164e+58
          1347.05220	         1.36929e+58
          1347.85850	         1.17679e+58
          1348.66480	         1.16420e+58
          1349.47110	         1.23436e+58
          1350.27740	         1.10193e+58
          1351.08370	         1.12563e+58
          1351.89000	         1.14979e+58
          1352.69630	         1.28589e+58
          1353.50260	         1.20863e+58
          1354.30890	         1.17383e+58
          1355.11520	         1.29184e+58
          1355.92150	         1.17872e+58
          1356.72780	         1.07086e+58
          1357.53410	         1.17052e+58
          1358.34040	         1.20544e+58
          1359.14670	         1.11937e+58
          1359.95300	         1.11706e+58
          1360.75930	         1.09116e+58
          1361.56560	         1.04280e+58
          1362.37190	         1.19965e+58
          1363.17820	         1.24051e+58
          1363.98450	         1.22483e+58
          1364.79080	         1.25408e+58
          1365.59710	         1.35525e+58
          1366.40340	         1.14016e+58
          1367.20970	         9.07577e+57
          1368.01600	         8.42514e+57
          1368.82230	         9.51092e+57
          1369.62860	         1.23816e+58
          1370.43490	         1.04850e+58
          1371.24120	         8.79508e+57
          1372.04750	         8.54849e+57
          1372.85380	         1.09425e+58
          1373.66010	         1.09994e+58
          1374.46640	         1.08579e+58
          1375.27270	         1.14958e+58
          1376.07900	         1.07127e+58
          1376.88530	         8.60900e+57
          1377.69160	         8.23350e+57
          1378.49790	         7.96006e+57
          1379.30420	         8.65694e+57
          1380.11050	         9.04531e+57
          1380.91680	         8.22153e+57
          1381.72310	         8.53086e+57
          1382.52940	         7.58457e+57
          1383.33570	         8.11272e+57
          1384.14200	         8.98140e+57
          1384.94830	         1.03661e+58
          1385.75460	         1.06395e+58
          1386.56090	         1.07649e+58
          1387.36720	         1.25337e+58
          1388.17350	         1.28720e+58
          1388.97980	         1.02867e+58
          1389.78610	         8.52931e+57
          1390.59240	         7.60365e+57
          1391.39870	         7.40503e+57
          1392.20500	         8.37113e+57
          1393.01130	         8.78854e+57
          1393.81760	         9.27901e+57
          1394.62390	         9.15641e+57
          1395.43020	         6.74955e+57
          1396.23650	         8.07541e+57
          1397.04280	         8.45665e+57
          1397.84910	         7.67432e+57
          1398.65540	         8.12789e+57
          1399.46170	         9.69235e+57
          1400.26800	         8.06240e+57
          1401.07430	         6.24628e+57
          1401.88060	         7.81086e+57
          1402.68690	         9.50474e+57
          1403.49320	         9.64412e+57
          1404.29950	         9.09485e+57
          1405.10580	         1.02790e+58
          1405.91210	         1.03921e+58
          1406.71840	         1.10818e+58
          1407.52470	         1.09148e+58
          1408.33100	         1.04302e+58
          1409.13730	         1.14702e+58
          1409.94360	         1.09042e+58
          1410.74990	         1.00073e+58
          1411.55620	         9.44814e+57
          1412.36250	         7.89306e+57
          1413.16880	         8.58176e+57
          1413.97510	         9.90253e+57
          1414.78140	         1.02808e+58
          1415.58770	         1.03785e+58
          1416.39400	         1.01056e+58
          1417.20030	         1.23936e+58
          1418.00660	         1.00891e+58
          1418.81290	         9.01807e+57
          1419.61920	         9.89485e+57
          1420.42550	         1.18921e+58
          1421.23180	         1.31930e+58
          1422.03810	         1.36073e+58
          1422.84440	         1.24928e+58
          1423.65070	         1.29213e+58
          1424.45700	         1.05232e+58
          1425.26330	         9.38007e+57
          1426.06960	         9.00012e+57
          1426.87590	         9.20443e+57
          1427.68220	         1.11286e+58
          1428.48850	         1.18609e+58
          1429.29480	         9.27570e+57
          1430.10110	         8.67026e+57
          1430.90740	         8.20623e+57
          1431.71370	         8.90404e+57
          1432.52000	         8.86833e+57
          1433.32630	         7.99890e+57
          1434.13260	         8.03714e+57
          1434.93890	         8.72246e+57
          1435.74520	         9.69218e+57
          1436.55150	         1.00521e+58
          1437.35780	         9.96514e+57
          1438.16410	         9.27941e+57
          1438.97040	         9.27697e+57
          1439.77670	         9.52084e+57
          1440.58300	         9.46351e+57
          1441.38930	         9.75075e+57
          1442.19560	         1.07352e+58
          1443.00190	         1.02643e+58
          1443.80820	         1.05705e+58
          1444.61450	         1.01543e+58
          1445.42080	         9.18252e+57
          1446.22710	         1.05146e+58
          1447.03340	         1.01812e+58
          1447.83970	         1.01917e+58
          1448.64600	         9.81855e+57
          1449.45230	         9.81846e+57
          1450.25860	         1.01140e+58
          1451.06490	         1.00385e+58
          1451.87120	         8.84676e+57
          1452.67750	         8.24165e+57
          1453.48380	         9.56976e+57
          1454.29010	         8.35810e+57
          1455.09640	         7.28172e+57
          1455.90270	         8.74736e+57
          1456.70900	         8.47750e+57
          1457.51530	         9.76886e+57
          1458.32160	         1.18994e+58
          1459.12790	         1.01837e+58
          1459.93420	         8.03300e+57
          1460.74050	         7.21168e+57
          1461.54680	         7.64413e+57
          1462.35310	         8.24372e+57
          1463.15940	         9.56615e+57
          1463.96570	         1.06793e+58
          1464.77200	         1.03073e+58
          1465.57830	         9.62539e+57
          1466.38460	         8.39336e+57
          1467.19090	         7.69323e+57
          1467.99720	         7.83923e+57
          1468.80350	         9.01274e+57
          1469.60980	         9.26646e+57
          1470.41610	         1.04652e+58
          1471.22240	         1.00107e+58
          1472.02870	         8.12008e+57
          1472.83500	         8.75425e+57
          1473.64130	         1.11640e+58
          1474.44760	         1.03704e+58
          1475.25390	         9.63165e+57
          1476.06020	         8.56007e+57
          1476.86650	         8.32142e+57
          1477.67280	         7.98761e+57
          1478.47910	         7.19968e+57
          1479.28540	         6.56003e+57
          1480.09170	         7.81695e+57
          1480.89800	         8.64129e+57
          1481.70430	         8.69455e+57
          1482.51060	         8.29534e+57
          1483.31690	         7.78651e+57
          1484.12320	         8.74712e+57
          1484.92950	         7.48642e+57
          1485.73580	         8.07286e+57
          1486.54210	         9.12976e+57
          1487.34840	         8.46354e+57
          1488.15470	         7.91058e+57
          1488.96100	         8.34872e+57
          1489.76730	         9.22910e+57
