#sample_102_stacked_spectrum_rest_UV-bands_median_H-alpha_noDC.txt
#median Lum: 1.69467e+42
#Rest-frame wavelength (A) | Luminosity (erg/s/A)
#
          1110.00000	         0.00000e+00
          1110.80630	         2.39014e+59
          1111.61260	         3.47391e+59
          1112.41890	        -3.54296e+58
          1113.22520	        -7.58264e+58
          1114.03150	        -2.31942e+59
          1114.83780	        -1.35576e+59
          1115.64410	         2.13394e+59
          1116.45040	         2.99516e+59
          1117.25670	         1.19616e+59
          1118.06300	         1.93865e+59
          1118.86930	         6.31772e+58
          1119.67560	         6.32242e+57
          1120.48190	         1.29526e+58
          1121.28820	        -3.82383e+58
          1122.09450	         4.93088e+58
          1122.90080	        -5.62358e+57
          1123.70710	         3.26184e+58
          1124.51340	         1.43466e+59
          1125.31970	         4.73410e+58
          1126.12600	        -6.20870e+58
          1126.93230	        -6.30702e+58
          1127.73860	        -3.78385e+58
          1128.54490	         1.81439e+58
          1129.35120	         2.49165e+58
          1130.15750	        -3.31426e+58
          1130.96380	         4.14568e+57
          1131.77010	         5.79865e+58
          1132.57640	         1.93083e+58
          1133.38270	         1.00947e+58
          1134.18900	         3.45249e+56
          1134.99530	         2.80457e+58
          1135.80160	         1.86629e+58
          1136.60790	         4.00543e+57
          1137.41420	        -3.98347e+57
          1138.22050	         3.37772e+58
          1139.02680	         4.50414e+58
          1139.83310	         3.66745e+58
          1140.63940	         3.46296e+58
          1141.44570	         4.94351e+57
          1142.25200	        -1.22505e+58
          1143.05830	         1.92385e+58
          1143.86460	         1.25677e+58
          1144.67090	         8.31203e+57
          1145.47720	         1.98668e+58
          1146.28350	         8.64406e+57
          1147.08980	         1.37754e+58
          1147.89610	         3.42404e+58
          1148.70240	         2.98313e+58
          1149.50870	         2.71298e+58
          1150.31500	         1.17707e+58
          1151.12130	         4.91761e+57
          1151.92760	        -1.64591e+57
          1152.73390	         9.59221e+55
          1153.54020	         6.14768e+57
          1154.34650	         2.52481e+58
          1155.15280	         2.28061e+58
          1155.95910	         5.24581e+57
          1156.76540	         1.12310e+58
          1157.57170	         1.44984e+57
          1158.37800	        -8.38500e+57
          1159.18430	         8.13073e+57
          1159.99060	         1.04156e+58
          1160.79690	         1.24608e+58
          1161.60320	         1.55588e+58
          1162.40950	         1.87650e+58
          1163.21580	         1.67029e+58
          1164.02210	         1.45962e+58
          1164.82840	         1.73351e+58
          1165.63470	         2.46085e+58
          1166.44100	         2.77018e+58
          1167.24730	         2.19692e+58
          1168.05360	         1.12039e+58
          1168.85990	         1.35345e+58
          1169.66620	         1.21793e+58
          1170.47250	         1.84460e+58
          1171.27880	         1.63308e+58
          1172.08510	         8.22712e+57
          1172.89140	         3.62282e+57
          1173.69770	         4.49254e+57
          1174.50400	         1.27557e+58
          1175.31030	         1.55863e+58
          1176.11660	         1.82108e+58
          1176.92290	         1.60322e+58
          1177.72920	         1.16196e+58
          1178.53550	         9.14013e+57
          1179.34180	         7.53364e+57
          1180.14810	         1.00032e+58
          1180.95440	         1.01215e+58
          1181.76070	         7.64479e+57
          1182.56700	         6.48365e+57
          1183.37330	         5.20364e+57
          1184.17960	         7.62380e+57
          1184.98590	         8.48403e+57
          1185.79220	         1.53531e+58
          1186.59850	         1.17989e+58
          1187.40480	         6.52175e+57
          1188.21110	         1.14483e+58
          1189.01740	         6.69037e+57
          1189.82370	         7.29907e+57
          1190.63000	         7.38964e+57
          1191.43630	         1.25879e+58
          1192.24260	         1.07310e+58
          1193.04890	         1.32549e+58
          1193.85520	         1.04154e+58
          1194.66150	         5.55191e+57
          1195.46780	         1.70794e+58
          1196.27410	         1.17060e+58
          1197.08040	         8.07376e+57
          1197.88670	         1.53621e+58
          1198.69300	         1.63800e+58
          1199.49930	         1.43142e+58
          1200.30560	         8.99691e+57
          1201.11190	         1.02676e+58
          1201.91820	         1.37419e+58
          1202.72450	         1.24141e+58
          1203.53080	         1.91391e+58
          1204.33710	         1.09116e+58
          1205.14340	         7.10317e+57
          1205.94970	         6.07964e+57
          1206.75600	         9.28706e+57
          1207.56230	         4.55633e+57
          1208.36860	         1.02673e+58
          1209.17490	         5.91087e+57
          1209.98120	         6.66518e+57
          1210.78750	         1.25888e+58
          1211.59380	         1.40335e+58
          1212.40010	         1.97879e+58
          1213.20640	         1.85337e+58
          1214.01270	         2.04051e+58
          1214.81900	         2.65884e+58
          1215.62530	         4.43838e+58
          1216.43160	         9.15415e+58
          1217.23790	         1.54290e+59
          1218.04420	         1.18426e+59
          1218.85050	         8.28224e+58
          1219.65680	         5.18932e+58
          1220.46310	         3.23386e+58
          1221.26940	         2.30765e+58
          1222.07570	         1.35454e+58
          1222.88200	         1.15095e+58
          1223.68830	         1.02526e+58
          1224.49460	         9.11919e+57
          1225.30090	         5.03981e+57
          1226.10720	         5.50168e+57
          1226.91350	         4.94614e+57
          1227.71980	         6.53657e+57
          1228.52610	         1.23237e+58
          1229.33240	         1.12253e+58
          1230.13870	         9.47804e+57
          1230.94500	         5.68821e+57
          1231.75130	         6.30158e+57
          1232.55760	         9.05955e+57
          1233.36390	         8.04247e+57
          1234.17020	         7.82966e+57
          1234.97650	         6.46928e+57
          1235.78280	         7.51301e+57
          1236.58910	         7.17371e+57
          1237.39540	         1.06861e+58
          1238.20170	         1.24145e+58
          1239.00800	         1.20060e+58
          1239.81430	         1.55210e+58
          1240.62060	         1.29275e+58
          1241.42690	         1.29422e+58
          1242.23320	         1.55626e+58
          1243.03950	         1.13561e+58
          1243.84580	         7.91243e+57
          1244.65210	         8.74594e+57
          1245.45840	         8.45198e+57
          1246.26470	         6.96329e+57
          1247.07100	         7.52358e+57
          1247.87730	         6.94465e+57
          1248.68360	         5.87153e+57
          1249.48990	         6.92650e+57
          1250.29620	         6.20995e+57
          1251.10250	         7.53413e+57
          1251.90880	         8.87892e+57
          1252.71510	         7.95839e+57
          1253.52140	         5.05069e+57
          1254.32770	         8.02349e+57
          1255.13400	         1.41804e+58
          1255.94030	         1.50689e+58
          1256.74660	         1.11472e+58
          1257.55290	         7.72249e+57
          1258.35920	         8.80643e+57
          1259.16550	         8.19456e+57
          1259.97180	         5.04009e+57
          1260.77810	         9.42379e+57
          1261.58440	         1.26895e+58
          1262.39070	         8.54068e+57
          1263.19700	         6.26662e+57
          1264.00330	         7.80072e+57
          1264.80960	         1.14220e+58
          1265.61590	         1.29928e+58
          1266.42220	         1.23174e+58
          1267.22850	         1.22415e+58
          1268.03480	         1.46656e+58
          1268.84110	         1.45397e+58
          1269.64740	         1.26303e+58
          1270.45370	         1.37112e+58
          1271.26000	         1.28600e+58
          1272.06630	         1.34395e+58
          1272.87260	         1.18614e+58
          1273.67890	         1.10973e+58
          1274.48520	         1.33619e+58
          1275.29150	         1.48984e+58
          1276.09780	         1.38432e+58
          1276.90410	         1.50940e+58
          1277.71040	         1.35415e+58
          1278.51670	         1.36803e+58
          1279.32300	         1.31540e+58
          1280.12930	         1.10508e+58
          1280.93560	         1.07085e+58
          1281.74190	         1.35105e+58
          1282.54820	         1.37579e+58
          1283.35450	         1.03601e+58
          1284.16080	         1.17059e+58
          1284.96710	         1.46890e+58
          1285.77340	         1.12519e+58
          1286.57970	         1.06345e+58
          1287.38600	         1.57759e+58
          1288.19230	         1.83580e+58
          1288.99860	         1.73020e+58
          1289.80490	         1.33855e+58
          1290.61120	         1.45238e+58
          1291.41750	         1.48196e+58
          1292.22380	         1.29360e+58
          1293.03010	         1.12091e+58
          1293.83640	         1.16928e+58
          1294.64270	         9.99009e+57
          1295.44900	         6.93476e+57
          1296.25530	         8.58180e+57
          1297.06160	         1.05239e+58
          1297.86790	         9.69437e+57
          1298.67420	         1.00198e+58
          1299.48050	         1.09864e+58
          1300.28680	         9.68289e+57
          1301.09310	         7.93518e+57
          1301.89940	         4.37795e+57
          1302.70570	         5.85939e+57
          1303.51200	         7.58423e+57
          1304.31830	         1.02675e+58
          1305.12460	         1.25299e+58
          1305.93090	         1.21056e+58
          1306.73720	         1.31678e+58
          1307.54350	         1.44913e+58
          1308.34980	         1.46133e+58
          1309.15610	         1.45267e+58
          1309.96240	         1.47246e+58
          1310.76870	         1.26624e+58
          1311.57500	         1.23577e+58
          1312.38130	         1.23427e+58
          1313.18760	         1.29934e+58
          1313.99390	         1.48281e+58
          1314.80020	         1.55071e+58
          1315.60650	         1.44255e+58
          1316.41280	         1.20009e+58
          1317.21910	         1.00602e+58
          1318.02540	         1.16258e+58
          1318.83170	         1.33962e+58
          1319.63800	         1.21041e+58
          1320.44430	         1.09222e+58
          1321.25060	         1.16176e+58
          1322.05690	         1.33517e+58
          1322.86320	         1.45352e+58
          1323.66950	         1.30284e+58
          1324.47580	         9.00509e+57
          1325.28210	         7.99729e+57
          1326.08840	         1.07641e+58
          1326.89470	         1.29851e+58
          1327.70100	         1.01792e+58
          1328.50730	         7.90139e+57
          1329.31360	         8.87380e+57
          1330.11990	         9.60981e+57
          1330.92620	         9.95683e+57
          1331.73250	         1.04730e+58
          1332.53880	         8.55927e+57
          1333.34510	         8.17426e+57
          1334.15140	         9.28845e+57
          1334.95770	         9.33868e+57
          1335.76400	         1.19603e+58
          1336.57030	         1.25794e+58
          1337.37660	         1.14780e+58
          1338.18290	         1.08571e+58
          1338.98920	         1.11510e+58
          1339.79550	         1.24196e+58
          1340.60180	         1.24177e+58
          1341.40810	         1.39361e+58
          1342.21440	         1.17023e+58
          1343.02070	         1.15882e+58
          1343.82700	         1.34920e+58
          1344.63330	         1.37055e+58
          1345.43960	         1.29629e+58
          1346.24590	         1.05285e+58
          1347.05220	         1.29290e+58
          1347.85850	         1.36034e+58
          1348.66480	         1.39592e+58
          1349.47110	         1.33610e+58
          1350.27740	         1.17666e+58
          1351.08370	         1.05895e+58
          1351.89000	         1.07685e+58
          1352.69630	         1.29658e+58
          1353.50260	         1.43388e+58
          1354.30890	         1.30436e+58
          1355.11520	         1.22446e+58
          1355.92150	         1.06087e+58
          1356.72780	         9.58038e+57
          1357.53410	         1.04543e+58
          1358.34040	         1.15207e+58
          1359.14670	         1.11599e+58
          1359.95300	         1.06146e+58
          1360.75930	         1.02369e+58
          1361.56560	         1.00541e+58
          1362.37190	         1.22715e+58
          1363.17820	         1.22609e+58
          1363.98450	         1.26651e+58
          1364.79080	         1.36884e+58
          1365.59710	         1.24269e+58
          1366.40340	         1.13893e+58
          1367.20970	         1.07442e+58
          1368.01600	         8.62347e+57
          1368.82230	         9.18694e+57
          1369.62860	         9.68421e+57
          1370.43490	         8.74749e+57
          1371.24120	         9.39231e+57
          1372.04750	         8.32455e+57
          1372.85380	         1.04670e+58
          1373.66010	         1.05558e+58
          1374.46640	         1.04575e+58
          1375.27270	         1.20532e+58
          1376.07900	         1.02938e+58
          1376.88530	         9.15893e+57
          1377.69160	         7.70546e+57
          1378.49790	         6.67381e+57
          1379.30420	         7.36066e+57
          1380.11050	         8.01560e+57
          1380.91680	         7.66684e+57
          1381.72310	         7.98405e+57
          1382.52940	         7.51552e+57
          1383.33570	         8.62871e+57
          1384.14200	         9.75772e+57
          1384.94830	         1.01566e+58
          1385.75460	         1.14139e+58
          1386.56090	         1.14622e+58
          1387.36720	         1.02648e+58
          1388.17350	         1.21155e+58
          1388.97980	         1.16133e+58
          1389.78610	         1.01717e+58
          1390.59240	         8.60879e+57
          1391.39870	         6.78072e+57
          1392.20500	         8.96291e+57
          1393.01130	         9.05291e+57
          1393.81760	         7.73352e+57
          1394.62390	         7.63874e+57
          1395.43020	         6.52223e+57
          1396.23650	         6.40944e+57
          1397.04280	         7.81414e+57
          1397.84910	         8.98837e+57
          1398.65540	         9.05940e+57
          1399.46170	         9.54035e+57
          1400.26800	         9.46709e+57
          1401.07430	         7.67727e+57
          1401.88060	         7.56526e+57
          1402.68690	         8.92016e+57
          1403.49320	         8.70901e+57
          1404.29950	         9.35786e+57
          1405.10580	         9.90808e+57
          1405.91210	         1.15675e+58
          1406.71840	         1.13320e+58
          1407.52470	         9.79258e+57
          1408.33100	         1.00070e+58
          1409.13730	         1.14919e+58
          1409.94360	         1.27291e+58
          1410.74990	         1.14065e+58
          1411.55620	         9.73069e+57
          1412.36250	         8.52673e+57
          1413.16880	         7.83838e+57
          1413.97510	         7.39574e+57
          1414.78140	         8.98199e+57
          1415.58770	         1.13039e+58
          1416.39400	         1.05858e+58
          1417.20030	         1.10291e+58
          1418.00660	         1.16279e+58
          1418.81290	         1.11613e+58
          1419.61920	         1.11631e+58
          1420.42550	         1.16227e+58
          1421.23180	         1.39331e+58
          1422.03810	         1.25451e+58
          1422.84440	         1.03352e+58
          1423.65070	         1.25204e+58
          1424.45700	         1.06814e+58
          1425.26330	         7.42768e+57
          1426.06960	         8.85758e+57
          1426.87590	         1.06748e+58
          1427.68220	         9.88109e+57
          1428.48850	         1.09728e+58
          1429.29480	         1.03264e+58
          1430.10110	         9.32083e+57
          1430.90740	         7.94342e+57
          1431.71370	         7.86026e+57
          1432.52000	         8.75348e+57
          1433.32630	         7.82823e+57
          1434.13260	         7.58181e+57
          1434.93890	         8.65899e+57
          1435.74520	         9.66343e+57
          1436.55150	         1.02680e+58
          1437.35780	         8.72300e+57
          1438.16410	         8.13015e+57
          1438.97040	         8.03606e+57
          1439.77670	         8.92569e+57
          1440.58300	         9.99345e+57
          1441.38930	         9.72551e+57
          1442.19560	         9.67670e+57
          1443.00190	         9.62940e+57
          1443.80820	         1.13619e+58
          1444.61450	         8.71095e+57
          1445.42080	         7.08408e+57
          1446.22710	         1.10803e+58
          1447.03340	         1.07255e+58
          1447.83970	         9.38593e+57
          1448.64600	         1.05895e+58
          1449.45230	         1.19483e+58
          1450.25860	         1.12658e+58
          1451.06490	         9.02928e+57
          1451.87120	         7.44038e+57
          1452.67750	         6.24002e+57
          1453.48380	         7.93796e+57
          1454.29010	         8.74775e+57
          1455.09640	         8.68725e+57
          1455.90270	         9.66955e+57
          1456.70900	         9.35719e+57
          1457.51530	         1.00911e+58
          1458.32160	         1.19855e+58
          1459.12790	         1.22582e+58
          1459.93420	         1.06019e+58
          1460.74050	         7.80372e+57
          1461.54680	         8.02507e+57
          1462.35310	         7.82096e+57
          1463.15940	         9.73638e+57
          1463.96570	         1.09137e+58
          1464.77200	         1.13931e+58
          1465.57830	         9.92845e+57
          1466.38460	         8.83221e+57
          1467.19090	         8.41933e+57
          1467.99720	         9.31391e+57
          1468.80350	         9.67743e+57
          1469.60980	         9.15664e+57
          1470.41610	         9.19719e+57
          1471.22240	         9.01801e+57
          1472.02870	         1.00930e+58
          1472.83500	         1.02876e+58
          1473.64130	         9.72856e+57
          1474.44760	         1.00350e+58
          1475.25390	         8.62163e+57
          1476.06020	         8.92027e+57
          1476.86650	         8.95270e+57
          1477.67280	         7.59781e+57
          1478.47910	         7.52313e+57
          1479.28540	         8.66150e+57
          1480.09170	         9.84984e+57
          1480.89800	         9.27121e+57
          1481.70430	         9.13431e+57
          1482.51060	         9.38676e+57
          1483.31690	         9.74649e+57
          1484.12320	         9.00036e+57
          1484.92950	         8.32567e+57
          1485.73580	         8.75471e+57
          1486.54210	         8.23978e+57
          1487.34840	         8.74859e+57
          1488.15470	         8.74135e+57
          1488.96100	         9.64276e+57
          1489.76730	         9.29319e+57
