#sample_332_stacked_spectrum_rest_UV-bands_median_H-alpha_noDC.txt
#median Lum: 1.68281e+42
#Rest-frame wavelength (A) | Luminosity (erg/s/A)
#
          1110.00000	         0.00000e+00
          1110.80630	         5.62167e+59
          1111.61260	        -1.57449e+59
          1112.41890	        -1.91221e+57
          1113.22520	        -3.53729e+58
          1114.03150	        -3.21511e+59
          1114.83780	        -1.81431e+59
          1115.64410	         9.48533e+57
          1116.45040	        -6.97428e+58
          1117.25670	         9.27073e+58
          1118.06300	         1.75721e+59
          1118.86930	         6.76879e+58
          1119.67560	         4.34627e+58
          1120.48190	        -7.83266e+57
          1121.28820	        -1.01368e+59
          1122.09450	         1.93868e+58
          1122.90080	         3.58922e+58
          1123.70710	         2.59342e+58
          1124.51340	         5.75185e+58
          1125.31970	         5.98705e+58
          1126.12600	         1.34208e+58
          1126.93230	        -4.47378e+58
          1127.73860	        -5.42631e+58
          1128.54490	         3.45310e+58
          1129.35120	         3.12611e+58
          1130.15750	         2.52630e+58
          1130.96380	         1.77980e+58
          1131.77010	         5.51830e+58
          1132.57640	         2.55521e+58
          1133.38270	         7.99219e+57
          1134.18900	         1.65946e+58
          1134.99530	         3.77569e+58
          1135.80160	         3.80980e+58
          1136.60790	         1.47682e+58
          1137.41420	         1.08886e+58
          1138.22050	         4.30234e+58
          1139.02680	         2.93417e+58
          1139.83310	         2.45204e+58
          1140.63940	         2.94735e+58
          1141.44570	         5.68468e+57
          1142.25200	        -1.45456e+58
          1143.05830	        -1.39852e+58
          1143.86460	         1.29490e+58
          1144.67090	         2.45500e+58
          1145.47720	         1.70691e+58
          1146.28350	         5.13367e+57
          1147.08980	         3.33584e+57
          1147.89610	         1.03963e+58
          1148.70240	         1.75958e+58
          1149.50870	         3.10494e+58
          1150.31500	         1.77899e+58
          1151.12130	         1.90141e+58
          1151.92760	         9.00895e+57
          1152.73390	         3.39141e+56
          1153.54020	        -3.21163e+56
          1154.34650	         2.54634e+58
          1155.15280	         1.87001e+58
          1155.95910	         7.50097e+56
          1156.76540	         1.80108e+57
          1157.57170	        -5.54659e+57
          1158.37800	        -4.99324e+57
          1159.18430	        -1.66936e+57
          1159.99060	         1.04517e+58
          1160.79690	         5.63654e+57
          1161.60320	         1.58206e+58
          1162.40950	         1.66632e+58
          1163.21580	         1.30140e+58
          1164.02210	         1.59873e+58
          1164.82840	         1.51546e+58
          1165.63470	         1.95099e+58
          1166.44100	         2.77396e+58
          1167.24730	         2.13511e+58
          1168.05360	         1.24076e+58
          1168.85990	         6.71973e+57
          1169.66620	         6.30103e+57
          1170.47250	         1.54159e+58
          1171.27880	         1.52392e+58
          1172.08510	         1.30757e+58
          1172.89140	         1.57104e+58
          1173.69770	         9.27140e+57
          1174.50400	         1.18771e+58
          1175.31030	         1.66436e+58
          1176.11660	         1.87690e+58
          1176.92290	         1.43548e+58
          1177.72920	         1.39770e+58
          1178.53550	         8.81652e+57
          1179.34180	         2.68220e+57
          1180.14810	         8.80235e+57
          1180.95440	         1.14623e+58
          1181.76070	         7.48619e+57
          1182.56700	         4.76965e+57
          1183.37330	         6.37883e+57
          1184.17960	         1.14672e+58
          1184.98590	         1.07709e+58
          1185.79220	         7.46841e+57
          1186.59850	         1.01572e+58
          1187.40480	         1.40339e+58
          1188.21110	         1.83370e+58
          1189.01740	         9.17598e+57
          1189.82370	         1.14991e+58
          1190.63000	         1.10826e+58
          1191.43630	         1.13420e+58
          1192.24260	         8.61778e+57
          1193.04890	         9.89796e+57
          1193.85520	         8.40022e+57
          1194.66150	         4.89444e+57
          1195.46780	         8.61143e+57
          1196.27410	         1.29560e+58
          1197.08040	         9.53120e+57
          1197.88670	         1.00146e+58
          1198.69300	         1.29710e+58
          1199.49930	         1.45429e+58
          1200.30560	         8.89490e+57
          1201.11190	         7.50936e+57
          1201.91820	         9.28241e+57
          1202.72450	         5.58574e+57
          1203.53080	         1.83095e+58
          1204.33710	         1.01479e+58
          1205.14340	         8.71115e+57
          1205.94970	         5.76507e+57
          1206.75600	         8.39637e+57
          1207.56230	         8.22963e+57
          1208.36860	         1.21953e+58
          1209.17490	         5.92874e+57
          1209.98120	         9.41588e+57
          1210.78750	         7.43401e+57
          1211.59380	         1.05098e+58
          1212.40010	         1.81402e+58
          1213.20640	         1.69818e+58
          1214.01270	         1.83509e+58
          1214.81900	         2.84793e+58
          1215.62530	         4.85237e+58
          1216.43160	         9.56993e+58
          1217.23790	         1.51298e+59
          1218.04420	         1.09692e+59
          1218.85050	         8.21693e+58
          1219.65680	         5.42102e+58
          1220.46310	         3.30311e+58
          1221.26940	         2.40180e+58
          1222.07570	         1.33202e+58
          1222.88200	         1.17450e+58
          1223.68830	         9.06199e+57
          1224.49460	         5.35005e+57
          1225.30090	         5.96693e+57
          1226.10720	         6.85367e+57
          1226.91350	         9.93748e+57
          1227.71980	         1.12144e+58
          1228.52610	         1.07534e+58
          1229.33240	         1.08247e+58
          1230.13870	         8.11898e+57
          1230.94500	         5.67644e+57
          1231.75130	         4.70106e+57
          1232.55760	         1.00135e+58
          1233.36390	         1.10513e+58
          1234.17020	         1.10947e+58
          1234.97650	         1.31323e+58
          1235.78280	         1.02940e+58
          1236.58910	         8.80844e+57
          1237.39540	         9.47100e+57
          1238.20170	         8.11918e+57
          1239.00800	         1.18874e+58
          1239.81430	         1.55996e+58
          1240.62060	         1.23218e+58
          1241.42690	         1.14647e+58
          1242.23320	         1.10627e+58
          1243.03950	         9.40302e+57
          1243.84580	         9.54051e+57
          1244.65210	         1.08088e+58
          1245.45840	         1.05139e+58
          1246.26470	         9.36169e+57
          1247.07100	         6.12682e+57
          1247.87730	         4.91187e+57
          1248.68360	         2.31349e+57
          1249.48990	         5.47004e+57
          1250.29620	         8.33674e+57
          1251.10250	         5.35681e+57
          1251.90880	         4.26703e+57
          1252.71510	         6.23990e+57
          1253.52140	         5.70270e+57
          1254.32770	         9.07483e+57
          1255.13400	         1.09744e+58
          1255.94030	         9.87751e+57
          1256.74660	         1.10839e+58
          1257.55290	         1.00894e+58
          1258.35920	         4.52162e+57
          1259.16550	         3.72134e+57
          1259.97180	         5.60644e+57
          1260.77810	         7.76146e+57
          1261.58440	         1.02396e+58
          1262.39070	         5.85735e+57
          1263.19700	         5.64272e+57
          1264.00330	         1.05776e+58
          1264.80960	         1.23119e+58
          1265.61590	         1.21488e+58
          1266.42220	         1.33054e+58
          1267.22850	         1.09065e+58
          1268.03480	         1.19706e+58
          1268.84110	         1.44133e+58
          1269.64740	         1.29298e+58
          1270.45370	         1.30729e+58
          1271.26000	         1.13371e+58
          1272.06630	         1.26190e+58
          1272.87260	         1.32182e+58
          1273.67890	         1.16680e+58
          1274.48520	         1.21599e+58
          1275.29150	         1.27147e+58
          1276.09780	         1.05512e+58
          1276.90410	         1.36520e+58
          1277.71040	         1.20887e+58
          1278.51670	         9.95014e+57
          1279.32300	         1.21178e+58
          1280.12930	         1.26172e+58
          1280.93560	         1.10257e+58
          1281.74190	         1.21157e+58
          1282.54820	         1.34721e+58
          1283.35450	         9.04454e+57
          1284.16080	         7.66842e+57
          1284.96710	         1.27104e+58
          1285.77340	         1.23192e+58
          1286.57970	         1.11769e+58
          1287.38600	         1.64053e+58
          1288.19230	         1.89979e+58
          1288.99860	         1.56128e+58
          1289.80490	         1.16837e+58
          1290.61120	         1.33817e+58
          1291.41750	         1.36895e+58
          1292.22380	         1.13843e+58
          1293.03010	         9.19382e+57
          1293.83640	         1.00239e+58
          1294.64270	         8.76774e+57
          1295.44900	         4.88439e+57
          1296.25530	         7.15287e+57
          1297.06160	         1.00895e+58
          1297.86790	         9.50272e+57
          1298.67420	         8.93951e+57
          1299.48050	         9.42213e+57
          1300.28680	         9.37659e+57
          1301.09310	         6.06814e+57
          1301.89940	         3.50848e+57
          1302.70570	         6.12383e+57
          1303.51200	         6.37530e+57
          1304.31830	         9.30884e+57
          1305.12460	         1.17116e+58
          1305.93090	         1.12950e+58
          1306.73720	         1.24151e+58
          1307.54350	         1.40572e+58
          1308.34980	         1.25587e+58
          1309.15610	         1.42736e+58
          1309.96240	         1.43250e+58
          1310.76870	         1.10596e+58
          1311.57500	         1.10516e+58
          1312.38130	         1.06332e+58
          1313.18760	         1.01429e+58
          1313.99390	         1.40142e+58
          1314.80020	         1.60361e+58
          1315.60650	         1.50164e+58
          1316.41280	         1.33775e+58
          1317.21910	         1.11543e+58
          1318.02540	         1.20955e+58
          1318.83170	         1.26924e+58
          1319.63800	         1.13815e+58
          1320.44430	         1.18888e+58
          1321.25060	         1.22983e+58
          1322.05690	         1.28130e+58
          1322.86320	         1.20742e+58
          1323.66950	         1.04154e+58
          1324.47580	         9.23931e+57
          1325.28210	         1.06271e+58
          1326.08840	         1.16804e+58
          1326.89470	         1.21012e+58
          1327.70100	         1.05470e+58
          1328.50730	         8.35426e+57
          1329.31360	         8.33480e+57
          1330.11990	         7.99920e+57
          1330.92620	         8.41732e+57
          1331.73250	         1.06904e+58
          1332.53880	         1.13078e+58
          1333.34510	         9.45780e+57
          1334.15140	         9.36272e+57
          1334.95770	         9.25858e+57
          1335.76400	         9.58894e+57
          1336.57030	         1.04531e+58
          1337.37660	         1.02037e+58
          1338.18290	         1.10256e+58
          1338.98920	         1.15674e+58
          1339.79550	         1.06504e+58
          1340.60180	         1.20965e+58
          1341.40810	         1.31251e+58
          1342.21440	         1.15679e+58
          1343.02070	         1.20325e+58
          1343.82700	         1.35037e+58
          1344.63330	         1.35839e+58
          1345.43960	         1.21131e+58
          1346.24590	         1.03565e+58
          1347.05220	         1.12288e+58
          1347.85850	         9.74289e+57
          1348.66480	         9.73749e+57
          1349.47110	         1.21736e+58
          1350.27740	         1.16291e+58
          1351.08370	         1.04905e+58
          1351.89000	         1.00090e+58
          1352.69630	         1.11729e+58
          1353.50260	         1.21968e+58
          1354.30890	         1.16673e+58
          1355.11520	         1.10899e+58
          1355.92150	         1.05980e+58
          1356.72780	         1.11038e+58
          1357.53410	         9.95218e+57
          1358.34040	         1.05006e+58
          1359.14670	         9.93920e+57
          1359.95300	         9.71384e+57
          1360.75930	         1.08090e+58
          1361.56560	         1.12076e+58
          1362.37190	         1.13927e+58
          1363.17820	         1.12093e+58
          1363.98450	         1.19170e+58
          1364.79080	         1.26521e+58
          1365.59710	         1.31554e+58
          1366.40340	         1.30381e+58
          1367.20970	         1.07476e+58
          1368.01600	         9.80396e+57
          1368.82230	         1.04237e+58
          1369.62860	         8.81009e+57
          1370.43490	         8.01243e+57
          1371.24120	         7.93855e+57
          1372.04750	         6.88485e+57
          1372.85380	         8.72647e+57
          1373.66010	         9.43140e+57
          1374.46640	         1.04565e+58
          1375.27270	         1.19217e+58
          1376.07900	         9.71366e+57
          1376.88530	         8.68649e+57
          1377.69160	         8.51124e+57
          1378.49790	         7.13233e+57
          1379.30420	         7.39580e+57
          1380.11050	         8.97458e+57
          1380.91680	         8.29398e+57
          1381.72310	         9.13932e+57
          1382.52940	         8.37537e+57
          1383.33570	         9.10535e+57
          1384.14200	         1.12543e+58
          1384.94830	         9.99698e+57
          1385.75460	         9.97254e+57
          1386.56090	         1.02674e+58
          1387.36720	         9.71332e+57
          1388.17350	         1.12786e+58
          1388.97980	         9.90323e+57
          1389.78610	         7.31487e+57
          1390.59240	         7.54541e+57
          1391.39870	         8.29555e+57
          1392.20500	         8.83929e+57
          1393.01130	         7.87062e+57
          1393.81760	         7.71548e+57
          1394.62390	         7.93191e+57
          1395.43020	         6.16812e+57
          1396.23650	         4.69434e+57
          1397.04280	         5.40183e+57
          1397.84910	         8.64170e+57
          1398.65540	         8.78089e+57
          1399.46170	         9.31081e+57
          1400.26800	         7.96998e+57
          1401.07430	         7.94015e+57
          1401.88060	         9.04298e+57
          1402.68690	         9.24092e+57
          1403.49320	         9.06250e+57
          1404.29950	         9.14370e+57
          1405.10580	         9.67975e+57
          1405.91210	         1.07889e+58
          1406.71840	         1.03763e+58
          1407.52470	         9.48740e+57
          1408.33100	         9.33194e+57
          1409.13730	         1.09524e+58
          1409.94360	         1.20963e+58
          1410.74990	         1.18510e+58
          1411.55620	         1.01195e+58
          1412.36250	         8.40850e+57
          1413.16880	         9.37918e+57
          1413.97510	         9.34208e+57
          1414.78140	         8.40207e+57
          1415.58770	         9.59353e+57
          1416.39400	         9.95300e+57
          1417.20030	         1.00418e+58
          1418.00660	         1.00760e+58
          1418.81290	         1.05336e+58
          1419.61920	         1.07550e+58
          1420.42550	         1.20795e+58
          1421.23180	         1.33996e+58
          1422.03810	         1.23907e+58
          1422.84440	         1.13122e+58
          1423.65070	         1.05571e+58
          1424.45700	         9.57473e+57
          1425.26330	         8.11118e+57
          1426.06960	         8.31767e+57
          1426.87590	         1.00885e+58
          1427.68220	         1.13420e+58
          1428.48850	         1.13297e+58
          1429.29480	         9.34342e+57
          1430.10110	         9.62234e+57
          1430.90740	         8.33352e+57
          1431.71370	         8.85071e+57
          1432.52000	         9.30186e+57
          1433.32630	         8.04977e+57
          1434.13260	         7.23542e+57
          1434.93890	         7.07539e+57
          1435.74520	         7.97746e+57
          1436.55150	         8.25202e+57
          1437.35780	         7.45579e+57
          1438.16410	         7.73448e+57
          1438.97040	         8.79304e+57
          1439.77670	         8.54756e+57
          1440.58300	         8.41868e+57
          1441.38930	         8.33699e+57
          1442.19560	         8.46729e+57
          1443.00190	         9.32353e+57
          1443.80820	         1.03919e+58
          1444.61450	         9.80661e+57
          1445.42080	         8.30377e+57
          1446.22710	         9.89300e+57
          1447.03340	         1.05170e+58
          1447.83970	         1.03718e+58
          1448.64600	         1.14160e+58
          1449.45230	         1.11211e+58
          1450.25860	         1.02913e+58
          1451.06490	         8.39773e+57
          1451.87120	         7.61136e+57
          1452.67750	         7.40215e+57
          1453.48380	         7.96243e+57
          1454.29010	         7.62142e+57
          1455.09640	         7.62675e+57
          1455.90270	         7.98270e+57
          1456.70900	         8.07511e+57
          1457.51530	         9.16344e+57
          1458.32160	         1.17094e+58
          1459.12790	         1.12365e+58
          1459.93420	         1.00069e+58
          1460.74050	         8.02589e+57
          1461.54680	         8.04156e+57
          1462.35310	         8.39499e+57
          1463.15940	         9.72361e+57
          1463.96570	         1.10986e+58
          1464.77200	         1.12783e+58
          1465.57830	         1.00900e+58
          1466.38460	         8.68056e+57
          1467.19090	         8.14434e+57
          1467.99720	         8.74077e+57
          1468.80350	         9.21136e+57
          1469.60980	         8.41279e+57
          1470.41610	         1.00966e+58
          1471.22240	         9.49806e+57
          1472.02870	         8.87442e+57
          1472.83500	         8.47875e+57
          1473.64130	         9.31181e+57
          1474.44760	         1.03548e+58
          1475.25390	         9.00487e+57
          1476.06020	         7.99011e+57
          1476.86650	         7.57308e+57
          1477.67280	         6.63125e+57
          1478.47910	         6.53840e+57
          1479.28540	         7.18446e+57
          1480.09170	         7.20450e+57
          1480.89800	         8.05741e+57
          1481.70430	         9.24913e+57
          1482.51060	         9.23323e+57
          1483.31690	         7.81369e+57
          1484.12320	         8.02151e+57
          1484.92950	         9.08299e+57
          1485.73580	         8.60864e+57
          1486.54210	         8.42166e+57
          1487.34840	         8.33638e+57
          1488.15470	         7.46461e+57
          1488.96100	         8.12059e+57
          1489.76730	         9.14986e+57
