#sample_159_stacked_spectrum_rest_UV-bands_median_H-alpha_noDC.txt
#median Lum: 1.68166e+42
#Rest-frame wavelength (A) | Luminosity (erg/s/A)
#
          1110.00000	         0.00000e+00
          1110.80630	         1.07813e+59
          1111.61260	        -2.86328e+58
          1112.41890	         3.92206e+58
          1113.22520	         1.22143e+59
          1114.03150	        -1.33253e+59
          1114.83780	         2.02602e+59
          1115.64410	         9.14692e+58
          1116.45040	         4.19016e+58
          1117.25670	        -1.51656e+59
          1118.06300	         8.11113e+58
          1118.86930	        -6.63333e+58
          1119.67560	         4.35284e+58
          1120.48190	        -3.84673e+58
          1121.28820	        -9.79357e+58
          1122.09450	         2.10418e+58
          1122.90080	        -7.26001e+58
          1123.70710	         9.41205e+58
          1124.51340	         5.78677e+58
          1125.31970	         4.21431e+58
          1126.12600	         1.25692e+58
          1126.93230	        -4.82276e+58
          1127.73860	        -5.87318e+58
          1128.54490	         1.79681e+58
          1129.35120	         3.61584e+58
          1130.15750	         3.39439e+58
          1130.96380	        -3.12151e+58
          1131.77010	         3.39695e+58
          1132.57640	         5.06071e+58
          1133.38270	         4.27814e+58
          1134.18900	         1.58491e+58
          1134.99530	         4.81463e+58
          1135.80160	         4.28052e+58
          1136.60790	         4.16682e+58
          1137.41420	         5.10529e+57
          1138.22050	         1.39857e+58
          1139.02680	         3.01967e+58
          1139.83310	         2.04264e+58
          1140.63940	         1.73193e+58
          1141.44570	        -1.17578e+58
          1142.25200	         1.38566e+58
          1143.05830	         1.99635e+58
          1143.86460	         2.03375e+58
          1144.67090	         1.17693e+58
          1145.47720	         1.57448e+58
          1146.28350	         1.29930e+58
          1147.08980	         1.01879e+58
          1147.89610	        -4.92970e+57
          1148.70240	         1.03453e+58
          1149.50870	         1.45062e+58
          1150.31500	         3.30176e+57
          1151.12130	        -2.87878e+57
          1151.92760	         4.73387e+57
          1152.73390	         1.52639e+58
          1153.54020	         9.27010e+57
          1154.34650	         2.23335e+58
          1155.15280	         2.94185e+58
          1155.95910	         1.07594e+58
          1156.76540	         9.87707e+57
          1157.57170	         5.59175e+57
          1158.37800	        -6.18090e+56
          1159.18430	        -5.57317e+57
          1159.99060	         3.95410e+57
          1160.79690	         5.57203e+55
          1161.60320	         1.24432e+58
          1162.40950	         1.23150e+58
          1163.21580	         1.27303e+58
          1164.02210	         1.37644e+58
          1164.82840	         1.46531e+58
          1165.63470	         1.31330e+58
          1166.44100	         2.28623e+58
          1167.24730	         2.83978e+58
          1168.05360	         1.52747e+58
          1168.85990	         7.03251e+57
          1169.66620	         8.38605e+57
          1170.47250	         2.53604e+57
          1171.27880	         1.34218e+58
          1172.08510	         1.11070e+58
          1172.89140	        -2.21272e+57
          1173.69770	         3.64788e+57
          1174.50400	         1.10358e+58
          1175.31030	         1.32833e+58
          1176.11660	         9.81344e+57
          1176.92290	         1.08239e+58
          1177.72920	         1.10155e+58
          1178.53550	         5.61397e+57
          1179.34180	         9.01201e+56
          1180.14810	         4.74717e+57
          1180.95440	         9.89846e+57
          1181.76070	         9.84957e+57
          1182.56700	         9.26497e+57
          1183.37330	         6.78810e+57
          1184.17960	         1.18198e+58
          1184.98590	         1.42377e+58
          1185.79220	         6.61047e+57
          1186.59850	         8.44225e+57
          1187.40480	         1.10389e+58
          1188.21110	         1.40578e+58
          1189.01740	         9.25453e+57
          1189.82370	         9.32231e+57
          1190.63000	         1.39757e+58
          1191.43630	         9.89463e+57
          1192.24260	         7.40875e+57
          1193.04890	         1.19566e+58
          1193.85520	         1.57429e+58
          1194.66150	         6.08684e+57
          1195.46780	         8.88447e+57
          1196.27410	         1.26637e+58
          1197.08040	         9.73332e+57
          1197.88670	         1.14668e+58
          1198.69300	         1.24563e+58
          1199.49930	         1.37518e+58
          1200.30560	         1.12393e+58
          1201.11190	         1.13447e+58
          1201.91820	         9.54435e+57
          1202.72450	         7.59025e+57
          1203.53080	         1.05973e+58
          1204.33710	         7.86328e+57
          1205.14340	         6.41700e+57
          1205.94970	         4.56311e+57
          1206.75600	         8.02444e+57
          1207.56230	         6.43912e+57
          1208.36860	         1.04223e+58
          1209.17490	         1.19836e+57
          1209.98120	         2.04215e+56
          1210.78750	         6.08065e+57
          1211.59380	         1.12831e+58
          1212.40010	         1.63392e+58
          1213.20640	         2.44313e+58
          1214.01270	         2.34274e+58
          1214.81900	         2.47769e+58
          1215.62530	         4.31646e+58
          1216.43160	         8.82903e+58
          1217.23790	         1.53353e+59
          1218.04420	         1.16527e+59
          1218.85050	         8.71187e+58
          1219.65680	         5.78601e+58
          1220.46310	         3.18460e+58
          1221.26940	         2.12409e+58
          1222.07570	         1.44828e+58
          1222.88200	         1.40365e+58
          1223.68830	         1.18658e+58
          1224.49460	         9.38151e+57
          1225.30090	         5.51701e+57
          1226.10720	         6.92149e+57
          1226.91350	         7.48043e+57
          1227.71980	         9.91531e+57
          1228.52610	         1.04008e+58
          1229.33240	         8.44132e+57
          1230.13870	         9.71291e+57
          1230.94500	         8.29485e+57
          1231.75130	         7.11034e+57
          1232.55760	         8.24208e+57
          1233.36390	         7.92424e+57
          1234.17020	         9.00341e+57
          1234.97650	         6.93525e+57
          1235.78280	         6.66411e+57
          1236.58910	         8.78298e+57
          1237.39540	         1.00823e+58
          1238.20170	         9.42953e+57
          1239.00800	         1.26005e+58
          1239.81430	         1.48010e+58
          1240.62060	         1.13574e+58
          1241.42690	         1.25269e+58
          1242.23320	         1.39208e+58
          1243.03950	         8.90027e+57
          1243.84580	         7.98777e+57
          1244.65210	         9.36554e+57
          1245.45840	         8.64961e+57
          1246.26470	         8.34227e+57
          1247.07100	         6.95209e+57
          1247.87730	         6.29203e+57
          1248.68360	         3.37357e+57
          1249.48990	         4.01303e+57
          1250.29620	         7.23086e+57
          1251.10250	         3.78120e+57
          1251.90880	         4.63616e+57
          1252.71510	         9.07614e+57
          1253.52140	         8.60873e+57
          1254.32770	         1.08096e+58
          1255.13400	         1.19759e+58
          1255.94030	         9.76995e+57
          1256.74660	         1.12426e+58
          1257.55290	         1.07603e+58
          1258.35920	         9.42720e+57
          1259.16550	         8.12416e+57
          1259.97180	         6.29714e+57
          1260.77810	         7.95389e+57
          1261.58440	         1.26637e+58
          1262.39070	         9.30471e+57
          1263.19700	         6.77256e+57
          1264.00330	         7.54599e+57
          1264.80960	         1.03650e+58
          1265.61590	         1.00043e+58
          1266.42220	         1.19126e+58
          1267.22850	         1.20971e+58
          1268.03480	         1.24785e+58
          1268.84110	         1.38576e+58
          1269.64740	         1.37862e+58
          1270.45370	         1.24737e+58
          1271.26000	         1.13527e+58
          1272.06630	         1.29510e+58
          1272.87260	         1.55448e+58
          1273.67890	         1.36712e+58
          1274.48520	         1.22398e+58
          1275.29150	         1.23398e+58
          1276.09780	         1.17521e+58
          1276.90410	         1.42911e+58
          1277.71040	         1.40541e+58
          1278.51670	         1.03394e+58
          1279.32300	         1.11636e+58
          1280.12930	         1.16022e+58
          1280.93560	         1.10717e+58
          1281.74190	         1.21692e+58
          1282.54820	         1.29534e+58
          1283.35450	         1.05702e+58
          1284.16080	         1.04704e+58
          1284.96710	         1.29807e+58
          1285.77340	         1.26517e+58
          1286.57970	         1.09036e+58
          1287.38600	         1.36431e+58
          1288.19230	         1.79938e+58
          1288.99860	         1.50088e+58
          1289.80490	         1.09327e+58
          1290.61120	         1.35344e+58
          1291.41750	         1.41563e+58
          1292.22380	         1.27065e+58
          1293.03010	         1.29934e+58
          1293.83640	         1.24981e+58
          1294.64270	         1.09989e+58
          1295.44900	         8.59166e+57
          1296.25530	         7.70176e+57
          1297.06160	         1.09689e+58
          1297.86790	         1.08514e+58
          1298.67420	         7.67330e+57
          1299.48050	         8.98190e+57
          1300.28680	         1.12176e+58
          1301.09310	         8.49721e+57
          1301.89940	         4.13685e+57
          1302.70570	         4.01330e+57
          1303.51200	         7.25366e+57
          1304.31830	         1.03595e+58
          1305.12460	         1.05607e+58
          1305.93090	         1.13726e+58
          1306.73720	         1.28629e+58
          1307.54350	         1.40725e+58
          1308.34980	         1.47834e+58
          1309.15610	         1.64792e+58
          1309.96240	         1.59803e+58
          1310.76870	         1.40179e+58
          1311.57500	         1.23214e+58
          1312.38130	         1.08049e+58
          1313.18760	         1.40613e+58
          1313.99390	         1.60459e+58
          1314.80020	         1.73288e+58
          1315.60650	         1.63871e+58
          1316.41280	         1.30910e+58
          1317.21910	         1.00509e+58
          1318.02540	         1.10799e+58
          1318.83170	         1.22639e+58
          1319.63800	         1.28820e+58
          1320.44430	         1.18151e+58
          1321.25060	         1.43992e+58
          1322.05690	         1.42656e+58
          1322.86320	         1.17700e+58
          1323.66950	         1.04036e+58
          1324.47580	         9.25542e+57
          1325.28210	         9.72807e+57
          1326.08840	         1.15367e+58
          1326.89470	         1.31529e+58
          1327.70100	         1.15885e+58
          1328.50730	         9.41911e+57
          1329.31360	         1.03135e+58
          1330.11990	         1.05095e+58
          1330.92620	         9.22340e+57
          1331.73250	         1.10668e+58
          1332.53880	         1.00990e+58
          1333.34510	         8.74851e+57
          1334.15140	         8.56450e+57
          1334.95770	         9.17816e+57
          1335.76400	         1.03351e+58
          1336.57030	         1.10959e+58
          1337.37660	         1.01096e+58
          1338.18290	         1.06095e+58
          1338.98920	         1.13679e+58
          1339.79550	         1.16418e+58
          1340.60180	         1.35202e+58
          1341.40810	         1.36059e+58
          1342.21440	         1.16180e+58
          1343.02070	         1.23032e+58
          1343.82700	         1.19868e+58
          1344.63330	         1.22010e+58
          1345.43960	         1.34163e+58
          1346.24590	         1.09723e+58
          1347.05220	         1.05860e+58
          1347.85850	         1.03361e+58
          1348.66480	         1.10022e+58
          1349.47110	         1.14692e+58
          1350.27740	         1.06204e+58
          1351.08370	         1.16758e+58
          1351.89000	         1.21585e+58
          1352.69630	         1.16521e+58
          1353.50260	         1.13189e+58
          1354.30890	         1.18868e+58
          1355.11520	         1.22902e+58
          1355.92150	         1.18634e+58
          1356.72780	         1.02139e+58
          1357.53410	         1.00034e+58
          1358.34040	         1.13112e+58
          1359.14670	         1.15649e+58
          1359.95300	         1.27514e+58
          1360.75930	         1.28987e+58
          1361.56560	         1.17956e+58
          1362.37190	         1.06754e+58
          1363.17820	         1.08241e+58
          1363.98450	         1.20714e+58
          1364.79080	         1.27201e+58
          1365.59710	         1.19757e+58
          1366.40340	         1.02658e+58
          1367.20970	         7.79007e+57
          1368.01600	         8.27744e+57
          1368.82230	         9.83045e+57
          1369.62860	         1.07226e+58
          1370.43490	         9.97684e+57
          1371.24120	         9.93476e+57
          1372.04750	         8.53303e+57
          1372.85380	         1.04673e+58
          1373.66010	         1.08146e+58
          1374.46640	         1.08162e+58
          1375.27270	         1.13921e+58
          1376.07900	         9.74012e+57
          1376.88530	         8.74314e+57
          1377.69160	         8.47905e+57
          1378.49790	         6.91117e+57
          1379.30420	         7.27976e+57
          1380.11050	         8.61408e+57
          1380.91680	         8.07804e+57
          1381.72310	         7.76024e+57
          1382.52940	         7.20450e+57
          1383.33570	         8.40500e+57
          1384.14200	         1.04836e+58
          1384.94830	         1.10408e+58
          1385.75460	         9.43624e+57
          1386.56090	         9.70510e+57
          1387.36720	         1.04511e+58
          1388.17350	         1.21814e+58
          1388.97980	         9.62201e+57
          1389.78610	         6.98347e+57
          1390.59240	         8.13673e+57
          1391.39870	         7.93553e+57
          1392.20500	         7.83468e+57
          1393.01130	         6.58891e+57
          1393.81760	         7.29109e+57
          1394.62390	         7.44067e+57
          1395.43020	         7.43658e+57
          1396.23650	         7.00231e+57
          1397.04280	         6.84476e+57
          1397.84910	         7.47446e+57
          1398.65540	         8.44066e+57
          1399.46170	         1.01739e+58
          1400.26800	         9.00775e+57
          1401.07430	         7.70373e+57
          1401.88060	         8.96802e+57
          1402.68690	         1.13323e+58
          1403.49320	         1.02538e+58
          1404.29950	         8.90429e+57
          1405.10580	         1.08981e+58
          1405.91210	         1.07297e+58
          1406.71840	         8.89047e+57
          1407.52470	         9.54711e+57
          1408.33100	         9.82215e+57
          1409.13730	         1.10743e+58
          1409.94360	         1.24585e+58
          1410.74990	         1.09736e+58
          1411.55620	         9.68282e+57
          1412.36250	         8.91507e+57
          1413.16880	         7.86169e+57
          1413.97510	         7.15904e+57
          1414.78140	         7.81760e+57
          1415.58770	         1.03972e+58
          1416.39400	         1.15878e+58
          1417.20030	         1.28621e+58
          1418.00660	         1.07336e+58
          1418.81290	         1.02947e+58
          1419.61920	         1.08234e+58
          1420.42550	         1.06184e+58
          1421.23180	         1.29014e+58
          1422.03810	         1.25639e+58
          1422.84440	         1.13966e+58
          1423.65070	         1.16051e+58
          1424.45700	         1.11848e+58
          1425.26330	         9.47532e+57
          1426.06960	         8.61944e+57
          1426.87590	         9.82275e+57
          1427.68220	         1.13868e+58
          1428.48850	         1.16961e+58
          1429.29480	         1.08468e+58
          1430.10110	         9.33326e+57
          1430.90740	         7.85073e+57
          1431.71370	         8.53129e+57
          1432.52000	         8.33684e+57
          1433.32630	         7.79388e+57
          1434.13260	         7.74639e+57
          1434.93890	         8.79720e+57
          1435.74520	         8.91237e+57
          1436.55150	         8.98146e+57
          1437.35780	         9.08304e+57
          1438.16410	         9.09390e+57
          1438.97040	         9.23733e+57
          1439.77670	         9.77190e+57
          1440.58300	         1.01169e+58
          1441.38930	         1.02018e+58
          1442.19560	         9.72179e+57
          1443.00190	         9.98344e+57
          1443.80820	         1.05353e+58
          1444.61450	         9.23525e+57
          1445.42080	         8.71540e+57
          1446.22710	         1.04729e+58
          1447.03340	         9.45859e+57
          1447.83970	         1.08445e+58
          1448.64600	         1.16092e+58
          1449.45230	         1.06142e+58
          1450.25860	         1.01468e+58
          1451.06490	         8.53387e+57
          1451.87120	         7.32757e+57
          1452.67750	         7.08470e+57
          1453.48380	         7.80121e+57
          1454.29010	         7.53802e+57
          1455.09640	         7.47300e+57
          1455.90270	         9.16954e+57
          1456.70900	         9.49341e+57
          1457.51530	         1.02538e+58
          1458.32160	         1.25375e+58
          1459.12790	         1.28186e+58
          1459.93420	         1.05388e+58
          1460.74050	         8.60387e+57
          1461.54680	         8.37059e+57
          1462.35310	         7.13999e+57
          1463.15940	         9.77150e+57
          1463.96570	         1.19441e+58
          1464.77200	         1.20864e+58
          1465.57830	         1.06743e+58
          1466.38460	         8.54114e+57
          1467.19090	         7.28263e+57
          1467.99720	         7.55045e+57
          1468.80350	         8.69618e+57
          1469.60980	         9.17745e+57
          1470.41610	         1.00523e+58
          1471.22240	         9.74729e+57
          1472.02870	         9.66539e+57
          1472.83500	         9.07823e+57
          1473.64130	         9.49777e+57
          1474.44760	         9.94231e+57
          1475.25390	         9.38357e+57
          1476.06020	         7.81232e+57
          1476.86650	         8.19894e+57
          1477.67280	         8.60356e+57
          1478.47910	         8.09314e+57
          1479.28540	         7.48644e+57
          1480.09170	         7.24109e+57
          1480.89800	         8.14612e+57
          1481.70430	         9.75417e+57
          1482.51060	         8.42975e+57
          1483.31690	         7.56102e+57
          1484.12320	         8.14066e+57
          1484.92950	         6.62395e+57
          1485.73580	         6.76190e+57
          1486.54210	         8.27962e+57
          1487.34840	         8.93557e+57
          1488.15470	         8.09112e+57
          1488.96100	         7.92655e+57
          1489.76730	         9.24366e+57
