#sample_223_stacked_spectrum_rest_UV-bands_median_H-alpha_noDC.txt
#median Lum: 1.69255e+42
#Rest-frame wavelength (A) | Luminosity (erg/s/A)
#
          1110.00000	         0.00000e+00
          1110.80630	        -4.69577e+59
          1111.61260	         2.54925e+59
          1112.41890	         3.38650e+59
          1113.22520	        -6.46415e+57
          1114.03150	        -2.18482e+59
          1114.83780	         1.80259e+59
          1115.64410	         4.37890e+58
          1116.45040	         8.77096e+58
          1117.25670	        -5.88483e+58
          1118.06300	         2.19701e+59
          1118.86930	        -3.82431e+57
          1119.67560	         1.42347e+58
          1120.48190	        -9.03603e+58
          1121.28820	        -1.83693e+59
          1122.09450	         9.94401e+57
          1122.90080	         3.22344e+58
          1123.70710	         9.30472e+58
          1124.51340	         1.36654e+59
          1125.31970	        -3.54266e+57
          1126.12600	        -1.94056e+58
          1126.93230	        -2.85079e+58
          1127.73860	        -1.19089e+59
          1128.54490	        -3.35211e+58
          1129.35120	         1.74402e+58
          1130.15750	        -2.76055e+57
          1130.96380	        -1.25213e+58
          1131.77010	         6.48015e+58
          1132.57640	         4.29323e+58
          1133.38270	         6.89018e+57
          1134.18900	         8.20827e+57
          1134.99530	         4.47872e+57
          1135.80160	         2.92525e+58
          1136.60790	         1.02068e+58
          1137.41420	        -2.95573e+56
          1138.22050	         3.32458e+58
          1139.02680	         4.63934e+58
          1139.83310	         2.30697e+58
          1140.63940	         1.81153e+58
          1141.44570	        -1.88970e+58
          1142.25200	        -2.62149e+58
          1143.05830	         1.11376e+58
          1143.86460	         1.62520e+58
          1144.67090	         3.44279e+58
          1145.47720	         1.78335e+58
          1146.28350	        -1.83716e+57
          1147.08980	         1.14360e+58
          1147.89610	         1.44171e+58
          1148.70240	         2.52733e+58
          1149.50870	         2.29152e+58
          1150.31500	         7.35705e+57
          1151.12130	         4.36467e+57
          1151.92760	         3.70128e+57
          1152.73390	         1.03650e+58
          1153.54020	         1.45345e+58
          1154.34650	         2.60728e+58
          1155.15280	         2.55854e+58
          1155.95910	         1.24156e+58
          1156.76540	         7.73726e+57
          1157.57170	         1.05189e+57
          1158.37800	        -6.20007e+56
          1159.18430	        -7.37266e+57
          1159.99060	         7.29917e+57
          1160.79690	         7.15933e+57
          1161.60320	         2.17271e+58
          1162.40950	         1.12134e+58
          1163.21580	         1.02421e+58
          1164.02210	         1.62747e+58
          1164.82840	         7.05905e+57
          1165.63470	         1.45680e+58
          1166.44100	         2.22120e+58
          1167.24730	         2.94775e+58
          1168.05360	         8.89044e+57
          1168.85990	         7.56440e+57
          1169.66620	         9.05696e+57
          1170.47250	         9.95186e+57
          1171.27880	         1.22694e+58
          1172.08510	         1.00916e+58
          1172.89140	         2.65008e+57
          1173.69770	         2.20417e+57
          1174.50400	         5.25753e+57
          1175.31030	         1.55004e+58
          1176.11660	         1.53447e+58
          1176.92290	         1.09594e+58
          1177.72920	         1.24508e+58
          1178.53550	         1.14569e+58
          1179.34180	         9.01795e+57
          1180.14810	         1.06097e+58
          1180.95440	         1.05367e+58
          1181.76070	         7.71781e+57
          1182.56700	         5.81058e+57
          1183.37330	         5.00168e+56
          1184.17960	         7.14081e+57
          1184.98590	         1.12879e+58
          1185.79220	         8.64526e+57
          1186.59850	         9.03510e+57
          1187.40480	         1.24094e+58
          1188.21110	         1.42882e+58
          1189.01740	         8.74704e+57
          1189.82370	         1.18224e+58
          1190.63000	         9.15053e+57
          1191.43630	         1.09095e+58
          1192.24260	         9.98025e+57
          1193.04890	         1.36970e+58
          1193.85520	         1.23710e+58
          1194.66150	         1.59172e+57
          1195.46780	         8.89272e+57
          1196.27410	         1.26157e+58
          1197.08040	         9.75768e+57
          1197.88670	         1.36066e+58
          1198.69300	         1.37762e+58
          1199.49930	         1.61607e+58
          1200.30560	         1.18475e+58
          1201.11190	         7.57620e+57
          1201.91820	         9.61956e+57
          1202.72450	         9.10060e+57
          1203.53080	         1.15870e+58
          1204.33710	         6.13532e+57
          1205.14340	         6.32219e+57
          1205.94970	         4.91246e+57
          1206.75600	         3.82877e+57
          1207.56230	         4.09206e+57
          1208.36860	         8.92642e+57
          1209.17490	         4.61479e+57
          1209.98120	         8.59164e+57
          1210.78750	         7.78139e+57
          1211.59380	         1.23127e+58
          1212.40010	         1.77066e+58
          1213.20640	         2.10183e+58
          1214.01270	         2.17460e+58
          1214.81900	         2.77637e+58
          1215.62530	         5.29719e+58
          1216.43160	         9.52084e+58
          1217.23790	         1.48027e+59
          1218.04420	         1.16316e+59
          1218.85050	         8.20947e+58
          1219.65680	         5.20367e+58
          1220.46310	         3.12216e+58
          1221.26940	         2.42025e+58
          1222.07570	         1.53537e+58
          1222.88200	         1.12390e+58
          1223.68830	         6.62944e+57
          1224.49460	         4.02637e+57
          1225.30090	         4.77851e+57
          1226.10720	         5.79156e+57
          1226.91350	         6.99727e+57
          1227.71980	         7.03639e+57
          1228.52610	         1.40802e+58
          1229.33240	         8.95924e+57
          1230.13870	         8.19200e+57
          1230.94500	         6.95410e+57
          1231.75130	         8.47125e+57
          1232.55760	         1.14319e+58
          1233.36390	         7.68526e+57
          1234.17020	         8.85044e+57
          1234.97650	         6.72989e+57
          1235.78280	         8.01845e+57
          1236.58910	         9.10156e+57
          1237.39540	         9.85826e+57
          1238.20170	         9.41807e+57
          1239.00800	         1.10082e+58
          1239.81430	         1.61161e+58
          1240.62060	         1.26418e+58
          1241.42690	         1.14437e+58
          1242.23320	         1.47706e+58
          1243.03950	         1.03067e+58
          1243.84580	         1.05994e+58
          1244.65210	         1.21338e+58
          1245.45840	         8.93067e+57
          1246.26470	         9.82368e+57
          1247.07100	         8.82747e+57
          1247.87730	         4.63793e+57
          1248.68360	         4.65475e+57
          1249.48990	         7.83322e+57
          1250.29620	         1.29259e+58
          1251.10250	         1.03915e+58
          1251.90880	         8.95378e+57
          1252.71510	         5.35349e+57
          1253.52140	         5.52203e+57
          1254.32770	         1.08944e+58
          1255.13400	         1.39950e+58
          1255.94030	         1.26259e+58
          1256.74660	         9.06813e+57
          1257.55290	         6.78527e+57
          1258.35920	         5.02455e+57
          1259.16550	         3.50525e+57
          1259.97180	         5.99371e+57
          1260.77810	         9.80956e+57
          1261.58440	         1.10379e+58
          1262.39070	         7.17950e+57
          1263.19700	         7.79564e+57
          1264.00330	         8.39145e+57
          1264.80960	         9.44349e+57
          1265.61590	         1.14124e+58
          1266.42220	         1.21332e+58
          1267.22850	         1.10276e+58
          1268.03480	         1.29596e+58
          1268.84110	         1.43806e+58
          1269.64740	         1.29052e+58
          1270.45370	         1.45957e+58
          1271.26000	         1.34746e+58
          1272.06630	         1.32823e+58
          1272.87260	         1.25264e+58
          1273.67890	         1.21415e+58
          1274.48520	         1.34474e+58
          1275.29150	         1.38230e+58
          1276.09780	         1.41758e+58
          1276.90410	         1.54168e+58
          1277.71040	         1.41651e+58
          1278.51670	         1.29350e+58
          1279.32300	         1.41330e+58
          1280.12930	         1.20263e+58
          1280.93560	         1.13367e+58
          1281.74190	         1.31650e+58
          1282.54820	         1.29507e+58
          1283.35450	         1.03517e+58
          1284.16080	         9.57460e+57
          1284.96710	         1.11314e+58
          1285.77340	         1.06420e+58
          1286.57970	         1.02124e+58
          1287.38600	         1.51144e+58
          1288.19230	         1.81633e+58
          1288.99860	         1.53850e+58
          1289.80490	         1.31981e+58
          1290.61120	         1.53673e+58
          1291.41750	         1.27574e+58
          1292.22380	         9.65566e+57
          1293.03010	         9.92308e+57
          1293.83640	         1.09506e+58
          1294.64270	         9.45554e+57
          1295.44900	         5.08817e+57
          1296.25530	         5.55682e+57
          1297.06160	         9.71259e+57
          1297.86790	         9.78437e+57
          1298.67420	         8.93097e+57
          1299.48050	         9.15233e+57
          1300.28680	         8.56487e+57
          1301.09310	         7.98070e+57
          1301.89940	         5.29719e+57
          1302.70570	         7.62225e+57
          1303.51200	         9.91382e+57
          1304.31830	         1.08452e+58
          1305.12460	         1.12521e+58
          1305.93090	         1.27953e+58
          1306.73720	         1.25872e+58
          1307.54350	         1.31767e+58
          1308.34980	         1.44211e+58
          1309.15610	         1.47851e+58
          1309.96240	         1.57193e+58
          1310.76870	         1.21887e+58
          1311.57500	         9.80669e+57
          1312.38130	         1.29150e+58
          1313.18760	         1.60000e+58
          1313.99390	         1.52633e+58
          1314.80020	         1.67913e+58
          1315.60650	         1.67578e+58
          1316.41280	         1.34025e+58
          1317.21910	         1.01750e+58
          1318.02540	         1.06129e+58
          1318.83170	         1.21499e+58
          1319.63800	         1.26437e+58
          1320.44430	         1.16235e+58
          1321.25060	         1.26521e+58
          1322.05690	         1.32431e+58
          1322.86320	         1.25134e+58
          1323.66950	         1.06866e+58
          1324.47580	         9.15143e+57
          1325.28210	         9.34489e+57
          1326.08840	         1.16099e+58
          1326.89470	         1.27562e+58
          1327.70100	         1.00621e+58
          1328.50730	         8.34912e+57
          1329.31360	         9.98142e+57
          1330.11990	         1.08844e+58
          1330.92620	         1.02893e+58
          1331.73250	         1.13921e+58
          1332.53880	         1.03230e+58
          1333.34510	         8.99727e+57
          1334.15140	         7.87254e+57
          1334.95770	         7.46229e+57
          1335.76400	         9.31416e+57
          1336.57030	         1.01296e+58
          1337.37660	         9.86812e+57
          1338.18290	         1.06714e+58
          1338.98920	         1.21449e+58
          1339.79550	         1.23397e+58
          1340.60180	         1.24180e+58
          1341.40810	         1.31916e+58
          1342.21440	         1.24678e+58
          1343.02070	         1.32950e+58
          1343.82700	         1.44818e+58
          1344.63330	         1.26960e+58
          1345.43960	         1.09047e+58
          1346.24590	         1.06605e+58
          1347.05220	         1.20133e+58
          1347.85850	         1.04890e+58
          1348.66480	         1.24786e+58
          1349.47110	         1.41806e+58
          1350.27740	         1.26675e+58
          1351.08370	         1.19172e+58
          1351.89000	         1.08625e+58
          1352.69630	         9.51432e+57
          1353.50260	         9.70604e+57
          1354.30890	         1.18240e+58
          1355.11520	         1.22150e+58
          1355.92150	         1.23284e+58
          1356.72780	         1.15234e+58
          1357.53410	         1.13522e+58
          1358.34040	         1.06402e+58
          1359.14670	         1.12630e+58
          1359.95300	         1.20349e+58
          1360.75930	         1.20548e+58
          1361.56560	         1.22065e+58
          1362.37190	         1.16756e+58
          1363.17820	         1.05080e+58
          1363.98450	         1.09868e+58
          1364.79080	         1.25418e+58
          1365.59710	         1.47482e+58
          1366.40340	         1.26125e+58
          1367.20970	         9.36073e+57
          1368.01600	         9.43395e+57
          1368.82230	         1.02227e+58
          1369.62860	         1.06971e+58
          1370.43490	         9.15638e+57
          1371.24120	         9.50993e+57
          1372.04750	         8.43698e+57
          1372.85380	         1.03099e+58
          1373.66010	         1.18617e+58
          1374.46640	         1.13891e+58
          1375.27270	         1.07107e+58
          1376.07900	         9.29128e+57
          1376.88530	         7.91965e+57
          1377.69160	         8.71353e+57
          1378.49790	         7.51852e+57
          1379.30420	         7.03438e+57
          1380.11050	         8.98264e+57
          1380.91680	         8.02374e+57
          1381.72310	         6.80329e+57
          1382.52940	         7.44275e+57
          1383.33570	         7.79491e+57
          1384.14200	         8.59750e+57
          1384.94830	         8.93498e+57
          1385.75460	         8.99865e+57
          1386.56090	         9.49602e+57
          1387.36720	         1.13096e+58
          1388.17350	         1.24479e+58
          1388.97980	         1.13460e+58
          1389.78610	         9.79302e+57
          1390.59240	         8.52004e+57
          1391.39870	         6.98214e+57
          1392.20500	         7.98922e+57
          1393.01130	         7.69537e+57
          1393.81760	         6.93314e+57
          1394.62390	         8.15746e+57
          1395.43020	         7.64047e+57
          1396.23650	         6.58597e+57
          1397.04280	         7.25734e+57
          1397.84910	         7.63986e+57
          1398.65540	         7.58582e+57
          1399.46170	         9.92014e+57
          1400.26800	         8.85923e+57
          1401.07430	         6.85123e+57
          1401.88060	         7.27518e+57
          1402.68690	         8.42748e+57
          1403.49320	         8.51693e+57
          1404.29950	         8.20604e+57
          1405.10580	         9.02276e+57
          1405.91210	         1.11524e+58
          1406.71840	         1.09258e+58
          1407.52470	         1.05024e+58
          1408.33100	         1.01894e+58
          1409.13730	         1.07177e+58
          1409.94360	         1.28233e+58
          1410.74990	         1.22539e+58
          1411.55620	         9.42396e+57
          1412.36250	         9.77990e+57
          1413.16880	         9.32465e+57
          1413.97510	         6.52231e+57
          1414.78140	         7.86505e+57
          1415.58770	         1.01574e+58
          1416.39400	         1.00571e+58
          1417.20030	         1.17563e+58
          1418.00660	         1.05483e+58
          1418.81290	         1.02152e+58
          1419.61920	         1.10168e+58
          1420.42550	         1.34138e+58
          1421.23180	         1.38711e+58
          1422.03810	         1.20180e+58
          1422.84440	         1.01755e+58
          1423.65070	         1.15455e+58
          1424.45700	         1.14783e+58
          1425.26330	         8.27331e+57
          1426.06960	         8.60511e+57
          1426.87590	         9.91553e+57
          1427.68220	         9.55905e+57
          1428.48850	         1.05310e+58
          1429.29480	         1.08986e+58
          1430.10110	         9.87586e+57
          1430.90740	         9.43527e+57
          1431.71370	         9.48792e+57
          1432.52000	         9.45611e+57
          1433.32630	         8.51898e+57
          1434.13260	         7.94100e+57
          1434.93890	         8.36123e+57
          1435.74520	         8.92057e+57
          1436.55150	         8.99748e+57
          1437.35780	         8.84040e+57
          1438.16410	         9.03830e+57
          1438.97040	         9.35279e+57
          1439.77670	         9.56867e+57
          1440.58300	         9.70370e+57
          1441.38930	         1.01105e+58
          1442.19560	         9.91300e+57
          1443.00190	         9.35450e+57
          1443.80820	         1.06449e+58
          1444.61450	         1.00088e+58
          1445.42080	         9.01110e+57
          1446.22710	         9.66269e+57
          1447.03340	         9.05384e+57
          1447.83970	         1.06480e+58
          1448.64600	         1.13163e+58
          1449.45230	         1.05439e+58
          1450.25860	         9.83845e+57
          1451.06490	         9.22423e+57
          1451.87120	         7.83130e+57
          1452.67750	         7.64008e+57
          1453.48380	         8.88426e+57
          1454.29010	         8.55959e+57
          1455.09640	         7.81603e+57
          1455.90270	         9.34514e+57
          1456.70900	         8.79427e+57
          1457.51530	         8.94488e+57
          1458.32160	         1.09924e+58
          1459.12790	         1.12474e+58
          1459.93420	         9.73401e+57
          1460.74050	         7.85256e+57
          1461.54680	         8.32802e+57
          1462.35310	         9.07032e+57
          1463.15940	         1.02676e+58
          1463.96570	         1.10771e+58
          1464.77200	         1.18486e+58
          1465.57830	         1.05805e+58
          1466.38460	         8.47197e+57
          1467.19090	         8.13122e+57
          1467.99720	         8.79244e+57
          1468.80350	         9.80819e+57
          1469.60980	         9.51901e+57
          1470.41610	         1.07024e+58
          1471.22240	         8.94154e+57
          1472.02870	         9.10313e+57
          1472.83500	         1.05764e+58
          1473.64130	         1.05751e+58
          1474.44760	         1.06100e+58
          1475.25390	         9.06365e+57
          1476.06020	         8.28911e+57
          1476.86650	         9.34152e+57
          1477.67280	         8.73783e+57
          1478.47910	         7.38732e+57
          1479.28540	         7.50176e+57
          1480.09170	         8.87720e+57
          1480.89800	         8.98858e+57
          1481.70430	         7.99557e+57
          1482.51060	         8.21055e+57
          1483.31690	         8.02621e+57
          1484.12320	         7.41957e+57
          1484.92950	         7.33098e+57
          1485.73580	         8.01924e+57
          1486.54210	         8.93216e+57
          1487.34840	         9.03683e+57
          1488.15470	         8.30190e+57
          1488.96100	         7.82735e+57
          1489.76730	         8.32338e+57
