#sample_4_stacked_spectrum_rest_UV-bands_median_H-alpha_noDC.txt
#median Lum: 1.71072e+42
#Rest-frame wavelength (A) | Luminosity (erg/s/A)
#
          1110.00000	         0.00000e+00
          1110.80630	        -1.67719e+59
          1111.61260	         1.10868e+59
          1112.41890	         2.03873e+59
          1113.22520	         5.49912e+58
          1114.03150	        -1.75603e+59
          1114.83780	         1.32499e+59
          1115.64410	         1.23700e+59
          1116.45040	         3.04370e+59
          1117.25670	         9.04686e+58
          1118.06300	         4.13770e+59
          1118.86930	         8.71103e+58
          1119.67560	         1.26666e+59
          1120.48190	        -6.22898e+58
          1121.28820	        -1.12528e+59
          1122.09450	         9.03001e+58
          1122.90080	         4.58846e+58
          1123.70710	         4.78212e+58
          1124.51340	         1.03944e+59
          1125.31970	         4.97707e+58
          1126.12600	         2.83524e+58
          1126.93230	        -4.02269e+58
          1127.73860	        -7.69434e+58
          1128.54490	        -2.21446e+58
          1129.35120	         1.40485e+58
          1130.15750	         1.49044e+58
          1130.96380	        -2.25768e+58
          1131.77010	         4.01954e+58
          1132.57640	        -1.79857e+58
          1133.38270	         1.24589e+58
          1134.18900	         1.80892e+58
          1134.99530	         2.17340e+58
          1135.80160	         5.09107e+58
          1136.60790	         3.19597e+58
          1137.41420	        -1.17794e+58
          1138.22050	         3.98251e+58
          1139.02680	         3.62718e+58
          1139.83310	         1.76088e+58
          1140.63940	         6.60822e+57
          1141.44570	        -2.18051e+57
          1142.25200	         1.94398e+58
          1143.05830	         2.20205e+58
          1143.86460	         3.27120e+58
          1144.67090	         2.51186e+58
          1145.47720	         5.03458e+57
          1146.28350	         3.00669e+57
          1147.08980	         2.86581e+57
          1147.89610	         1.32503e+58
          1148.70240	         2.05816e+58
          1149.50870	         2.83332e+58
          1150.31500	         1.44640e+58
          1151.12130	         4.56312e+57
          1151.92760	         5.78953e+56
          1152.73390	         3.87843e+57
          1153.54020	         9.39475e+57
          1154.34650	         1.56357e+58
          1155.15280	         1.68351e+58
          1155.95910	         1.66169e+58
          1156.76540	         8.28959e+57
          1157.57170	         1.34207e+57
          1158.37800	         1.83416e+57
          1159.18430	        -6.69074e+57
          1159.99060	        -2.65711e+56
          1160.79690	         4.24840e+57
          1161.60320	         1.28651e+58
          1162.40950	         1.79893e+58
          1163.21580	         1.01216e+58
          1164.02210	         1.28997e+58
          1164.82840	         1.65280e+58
          1165.63470	         2.60832e+58
          1166.44100	         2.85923e+58
          1167.24730	         1.73850e+58
          1168.05360	         8.15592e+57
          1168.85990	         9.42792e+57
          1169.66620	         7.05961e+57
          1170.47250	         1.58357e+58
          1171.27880	         1.30148e+58
          1172.08510	         1.53000e+58
          1172.89140	         1.10608e+58
          1173.69770	         3.60513e+57
          1174.50400	         1.00952e+58
          1175.31030	         1.64686e+58
          1176.11660	         1.85742e+58
          1176.92290	         1.50856e+58
          1177.72920	         1.26755e+58
          1178.53550	         9.64360e+57
          1179.34180	         5.59736e+57
          1180.14810	         7.09397e+57
          1180.95440	         1.04916e+58
          1181.76070	         6.95674e+57
          1182.56700	         1.02069e+58
          1183.37330	         8.35609e+57
          1184.17960	         1.29169e+58
          1184.98590	         1.11459e+58
          1185.79220	         7.16272e+57
          1186.59850	         1.16568e+58
          1187.40480	         1.01393e+58
          1188.21110	         1.92370e+58
          1189.01740	         6.37904e+57
          1189.82370	         1.30627e+58
          1190.63000	         1.44798e+58
          1191.43630	         1.03888e+58
          1192.24260	         6.76054e+57
          1193.04890	         1.15638e+58
          1193.85520	         1.38001e+58
          1194.66150	         6.85284e+57
          1195.46780	         1.17599e+58
          1196.27410	         1.56688e+58
          1197.08040	         1.00732e+58
          1197.88670	         1.21349e+58
          1198.69300	         1.38331e+58
          1199.49930	         1.77002e+58
          1200.30560	         1.39332e+58
          1201.11190	         1.38880e+58
          1201.91820	         1.07934e+58
          1202.72450	         7.17234e+57
          1203.53080	         1.08710e+58
          1204.33710	         8.53690e+57
          1205.14340	         1.07829e+58
          1205.94970	         6.29225e+57
          1206.75600	         3.75366e+57
          1207.56230	         8.97225e+57
          1208.36860	         6.95075e+57
          1209.17490	         5.77184e+57
          1209.98120	         7.78935e+57
          1210.78750	         9.60945e+57
          1211.59380	         9.53774e+57
          1212.40010	         1.42801e+58
          1213.20640	         1.87872e+58
          1214.01270	         1.89636e+58
          1214.81900	         2.71571e+58
          1215.62530	         4.76597e+58
          1216.43160	         9.08221e+58
          1217.23790	         1.52292e+59
          1218.04420	         1.17486e+59
          1218.85050	         8.77765e+58
          1219.65680	         5.99776e+58
          1220.46310	         3.89192e+58
          1221.26940	         2.49298e+58
          1222.07570	         1.37921e+58
          1222.88200	         1.19271e+58
          1223.68830	         7.25146e+57
          1224.49460	         8.62829e+57
          1225.30090	         7.04928e+57
          1226.10720	         9.94883e+57
          1226.91350	         8.03718e+57
          1227.71980	         8.65646e+57
          1228.52610	         1.00996e+58
          1229.33240	         9.37254e+57
          1230.13870	         7.77779e+57
          1230.94500	         6.86746e+57
          1231.75130	         8.17908e+57
          1232.55760	         9.41470e+57
          1233.36390	         8.42254e+57
          1234.17020	         7.86487e+57
          1234.97650	         7.98360e+57
          1235.78280	         6.70707e+57
          1236.58910	         7.38593e+57
          1237.39540	         9.23713e+57
          1238.20170	         9.65069e+57
          1239.00800	         1.31602e+58
          1239.81430	         1.72040e+58
          1240.62060	         1.43170e+58
          1241.42690	         1.07522e+58
          1242.23320	         1.06011e+58
          1243.03950	         9.04787e+57
          1243.84580	         9.06338e+57
          1244.65210	         1.04121e+58
          1245.45840	         1.10891e+58
          1246.26470	         8.94065e+57
          1247.07100	         6.19654e+57
          1247.87730	         5.17058e+57
          1248.68360	         2.96477e+57
          1249.48990	         9.43718e+57
          1250.29620	         8.86305e+57
          1251.10250	         4.63202e+57
          1251.90880	         6.27907e+57
          1252.71510	         8.93442e+57
          1253.52140	         8.30205e+57
          1254.32770	         8.99248e+57
          1255.13400	         1.28927e+58
          1255.94030	         1.11497e+58
          1256.74660	         9.68448e+57
          1257.55290	         1.21179e+58
          1258.35920	         1.06794e+58
          1259.16550	         7.73522e+57
          1259.97180	         6.26040e+57
          1260.77810	         7.39858e+57
          1261.58440	         1.02741e+58
          1262.39070	         7.76939e+57
          1263.19700	         6.47471e+57
          1264.00330	         8.70138e+57
          1264.80960	         1.22112e+58
          1265.61590	         1.35076e+58
          1266.42220	         1.08788e+58
          1267.22850	         1.08366e+58
          1268.03480	         1.39370e+58
          1268.84110	         1.47919e+58
          1269.64740	         1.38270e+58
          1270.45370	         1.39351e+58
          1271.26000	         1.39459e+58
          1272.06630	         1.26370e+58
          1272.87260	         1.34105e+58
          1273.67890	         1.24860e+58
          1274.48520	         1.29920e+58
          1275.29150	         1.29937e+58
          1276.09780	         1.24557e+58
          1276.90410	         1.38425e+58
          1277.71040	         1.08200e+58
          1278.51670	         1.26336e+58
          1279.32300	         1.57770e+58
          1280.12930	         1.43037e+58
          1280.93560	         1.36737e+58
          1281.74190	         1.22342e+58
          1282.54820	         1.23455e+58
          1283.35450	         9.64013e+57
          1284.16080	         1.04836e+58
          1284.96710	         1.36329e+58
          1285.77340	         1.34480e+58
          1286.57970	         1.22962e+58
          1287.38600	         1.76613e+58
          1288.19230	         2.06216e+58
          1288.99860	         1.52968e+58
          1289.80490	         1.10601e+58
          1290.61120	         1.33088e+58
          1291.41750	         1.49107e+58
          1292.22380	         1.24869e+58
          1293.03010	         9.49992e+57
          1293.83640	         9.32091e+57
          1294.64270	         9.43200e+57
          1295.44900	         7.91889e+57
          1296.25530	         8.61653e+57
          1297.06160	         1.11325e+58
          1297.86790	         1.17226e+58
          1298.67420	         9.69152e+57
          1299.48050	         1.04594e+58
          1300.28680	         1.08533e+58
          1301.09310	         8.93917e+57
          1301.89940	         4.14290e+57
          1302.70570	         4.24969e+57
          1303.51200	         7.55891e+57
          1304.31830	         9.77542e+57
          1305.12460	         1.02151e+58
          1305.93090	         1.04194e+58
          1306.73720	         1.15114e+58
          1307.54350	         1.35185e+58
          1308.34980	         1.55795e+58
          1309.15610	         1.66079e+58
          1309.96240	         1.67782e+58
          1310.76870	         1.43178e+58
          1311.57500	         1.27281e+58
          1312.38130	         1.30051e+58
          1313.18760	         1.46082e+58
          1313.99390	         1.58372e+58
          1314.80020	         1.60879e+58
          1315.60650	         1.35637e+58
          1316.41280	         1.28725e+58
          1317.21910	         1.11205e+58
          1318.02540	         1.22201e+58
          1318.83170	         1.29513e+58
          1319.63800	         1.09373e+58
          1320.44430	         1.14540e+58
          1321.25060	         1.23421e+58
          1322.05690	         1.14999e+58
          1322.86320	         1.24612e+58
          1323.66950	         1.07322e+58
          1324.47580	         8.91957e+57
          1325.28210	         9.33606e+57
          1326.08840	         1.03808e+58
          1326.89470	         1.23692e+58
          1327.70100	         1.05960e+58
          1328.50730	         8.53029e+57
          1329.31360	         8.55782e+57
          1330.11990	         9.97146e+57
          1330.92620	         8.38092e+57
          1331.73250	         9.92759e+57
          1332.53880	         9.90987e+57
          1333.34510	         9.91150e+57
          1334.15140	         1.06585e+58
          1334.95770	         1.01830e+58
          1335.76400	         1.13173e+58
          1336.57030	         1.17665e+58
          1337.37660	         1.10296e+58
          1338.18290	         1.09116e+58
          1338.98920	         1.12837e+58
          1339.79550	         1.11911e+58
          1340.60180	         1.29997e+58
          1341.40810	         1.39179e+58
          1342.21440	         1.05079e+58
          1343.02070	         1.15950e+58
          1343.82700	         1.51594e+58
          1344.63330	         1.48269e+58
          1345.43960	         1.56114e+58
          1346.24590	         1.17059e+58
          1347.05220	         1.21957e+58
          1347.85850	         1.16936e+58
          1348.66480	         1.27100e+58
          1349.47110	         1.25855e+58
          1350.27740	         1.09739e+58
          1351.08370	         1.02462e+58
          1351.89000	         1.15421e+58
          1352.69630	         1.10552e+58
          1353.50260	         1.12664e+58
          1354.30890	         1.15069e+58
          1355.11520	         1.10619e+58
          1355.92150	         1.01131e+58
          1356.72780	         9.21045e+57
          1357.53410	         9.60567e+57
          1358.34040	         1.15825e+58
          1359.14670	         1.04777e+58
          1359.95300	         1.14999e+58
          1360.75930	         1.16440e+58
          1361.56560	         1.01474e+58
          1362.37190	         1.02801e+58
          1363.17820	         9.98538e+57
          1363.98450	         1.11617e+58
          1364.79080	         1.32699e+58
          1365.59710	         1.24713e+58
          1366.40340	         1.02948e+58
          1367.20970	         8.91385e+57
          1368.01600	         1.02182e+58
          1368.82230	         9.56580e+57
          1369.62860	         1.05652e+58
          1370.43490	         9.96971e+57
          1371.24120	         9.57807e+57
          1372.04750	         9.06886e+57
          1372.85380	         1.06786e+58
          1373.66010	         1.03477e+58
          1374.46640	         1.00877e+58
          1375.27270	         1.04067e+58
          1376.07900	         8.95655e+57
          1376.88530	         9.19174e+57
          1377.69160	         9.01331e+57
          1378.49790	         5.93496e+57
          1379.30420	         7.29692e+57
          1380.11050	         9.96124e+57
          1380.91680	         8.25116e+57
          1381.72310	         7.89063e+57
          1382.52940	         9.12305e+57
          1383.33570	         9.41575e+57
          1384.14200	         1.04450e+58
          1384.94830	         1.16496e+58
          1385.75460	         1.14184e+58
          1386.56090	         1.01441e+58
          1387.36720	         9.60729e+57
          1388.17350	         1.21931e+58
          1388.97980	         1.09683e+58
          1389.78610	         7.15168e+57
          1390.59240	         7.98082e+57
          1391.39870	         8.88048e+57
          1392.20500	         9.43853e+57
          1393.01130	         7.93238e+57
          1393.81760	         7.77490e+57
          1394.62390	         8.18495e+57
          1395.43020	         7.41755e+57
          1396.23650	         7.14815e+57
          1397.04280	         7.33326e+57
          1397.84910	         8.09187e+57
          1398.65540	         8.57170e+57
          1399.46170	         9.25296e+57
          1400.26800	         7.51847e+57
          1401.07430	         8.10930e+57
          1401.88060	         7.51339e+57
          1402.68690	         9.07073e+57
          1403.49320	         9.74939e+57
          1404.29950	         8.22738e+57
          1405.10580	         9.04810e+57
          1405.91210	         1.12319e+58
          1406.71840	         1.11040e+58
          1407.52470	         1.02207e+58
          1408.33100	         1.05109e+58
          1409.13730	         1.13322e+58
          1409.94360	         1.17553e+58
          1410.74990	         1.20935e+58
          1411.55620	         1.06696e+58
          1412.36250	         9.92907e+57
          1413.16880	         9.66808e+57
          1413.97510	         7.99451e+57
          1414.78140	         9.99105e+57
          1415.58770	         1.10709e+58
          1416.39400	         1.07073e+58
          1417.20030	         1.19734e+58
          1418.00660	         1.00851e+58
          1418.81290	         1.03917e+58
          1419.61920	         1.03356e+58
          1420.42550	         1.17748e+58
          1421.23180	         1.36017e+58
          1422.03810	         1.29602e+58
          1422.84440	         1.11075e+58
          1423.65070	         1.24294e+58
          1424.45700	         1.06534e+58
          1425.26330	         8.92584e+57
          1426.06960	         9.06041e+57
          1426.87590	         9.09966e+57
          1427.68220	         9.99906e+57
          1428.48850	         1.01393e+58
          1429.29480	         9.45381e+57
          1430.10110	         9.57020e+57
          1430.90740	         7.73118e+57
          1431.71370	         8.35188e+57
          1432.52000	         8.87343e+57
          1433.32630	         7.69339e+57
          1434.13260	         8.25788e+57
          1434.93890	         8.25258e+57
          1435.74520	         8.18019e+57
          1436.55150	         9.28832e+57
          1437.35780	         9.28477e+57
          1438.16410	         9.51029e+57
          1438.97040	         9.08658e+57
          1439.77670	         8.73896e+57
          1440.58300	         9.93111e+57
          1441.38930	         9.60050e+57
          1442.19560	         9.56294e+57
          1443.00190	         1.00298e+58
          1443.80820	         1.03124e+58
          1444.61450	         1.05221e+58
          1445.42080	         9.23464e+57
          1446.22710	         1.04703e+58
          1447.03340	         1.04876e+58
          1447.83970	         1.01249e+58
          1448.64600	         1.15346e+58
          1449.45230	         1.04002e+58
          1450.25860	         1.03766e+58
          1451.06490	         1.00623e+58
          1451.87120	         8.09335e+57
          1452.67750	         7.25574e+57
          1453.48380	         7.99126e+57
          1454.29010	         7.36553e+57
          1455.09640	         7.98489e+57
          1455.90270	         1.01376e+58
          1456.70900	         9.76013e+57
          1457.51530	         1.05744e+58
          1458.32160	         1.26327e+58
          1459.12790	         1.27891e+58
          1459.93420	         1.05491e+58
          1460.74050	         7.35370e+57
          1461.54680	         8.12727e+57
          1462.35310	         8.55411e+57
          1463.15940	         1.02730e+58
          1463.96570	         1.17376e+58
          1464.77200	         1.17965e+58
          1465.57830	         1.08414e+58
          1466.38460	         9.21149e+57
          1467.19090	         8.75816e+57
          1467.99720	         9.03086e+57
          1468.80350	         9.66429e+57
          1469.60980	         1.01856e+58
          1470.41610	         1.03074e+58
          1471.22240	         8.79819e+57
          1472.02870	         9.09286e+57
          1472.83500	         9.82680e+57
          1473.64130	         9.38600e+57
          1474.44760	         9.19334e+57
          1475.25390	         9.79370e+57
          1476.06020	         9.60511e+57
          1476.86650	         8.53104e+57
          1477.67280	         8.39100e+57
          1478.47910	         7.41791e+57
          1479.28540	         6.97471e+57
          1480.09170	         8.04195e+57
          1480.89800	         8.18560e+57
          1481.70430	         8.65978e+57
          1482.51060	         8.71495e+57
          1483.31690	         8.92891e+57
          1484.12320	         9.04591e+57
          1484.92950	         7.96742e+57
          1485.73580	         8.12231e+57
          1486.54210	         9.61030e+57
          1487.34840	         8.98757e+57
          1488.15470	         7.08246e+57
          1488.96100	         7.89857e+57
          1489.76730	         9.78677e+57
