#sample_99_stacked_spectrum_rest_UV-bands_median_H-alpha_noDC.txt
#median Lum: 1.71038e+42
#Rest-frame wavelength (A) | Luminosity (erg/s/A)
#
          1110.00000	         0.00000e+00
          1110.80630	         2.21235e+59
          1111.61260	         7.87903e+58
          1112.41890	         2.56685e+58
          1113.22520	         2.76147e+59
          1114.03150	         2.51600e+58
          1114.83780	         2.33529e+59
          1115.64410	         7.72236e+57
          1116.45040	         2.49222e+59
          1117.25670	         1.62677e+58
          1118.06300	         1.44800e+59
          1118.86930	        -1.67318e+58
          1119.67560	         1.17700e+59
          1120.48190	        -1.31905e+58
          1121.28820	        -5.64471e+58
          1122.09450	         2.94043e+58
          1122.90080	         9.04654e+58
          1123.70710	         1.67475e+58
          1124.51340	         1.03363e+59
          1125.31970	         1.50571e+58
          1126.12600	         1.29674e+58
          1126.93230	        -3.62845e+58
          1127.73860	        -8.48931e+58
          1128.54490	        -2.64190e+57
          1129.35120	        -4.43937e+57
          1130.15750	        -2.02525e+58
          1130.96380	        -3.53078e+58
          1131.77010	         3.53708e+58
          1132.57640	         4.36385e+58
          1133.38270	         5.21307e+58
          1134.18900	         2.14419e+58
          1134.99530	         1.13192e+58
          1135.80160	         2.33950e+58
          1136.60790	         1.38326e+58
          1137.41420	         2.39667e+58
          1138.22050	         3.26424e+58
          1139.02680	         1.37372e+58
          1139.83310	         8.68816e+57
          1140.63940	         1.28110e+57
          1141.44570	        -2.29524e+58
          1142.25200	        -2.90195e+57
          1143.05830	         3.29896e+58
          1143.86460	         1.75910e+58
          1144.67090	         2.93615e+58
          1145.47720	         1.80531e+58
          1146.28350	         1.23521e+58
          1147.08980	         1.11916e+58
          1147.89610	         1.79586e+58
          1148.70240	         2.48816e+58
          1149.50870	         2.49541e+58
          1150.31500	         1.53879e+58
          1151.12130	         4.26607e+57
          1151.92760	        -9.64470e+57
          1152.73390	        -1.61965e+57
          1153.54020	         6.30406e+57
          1154.34650	         2.66367e+58
          1155.15280	         2.42603e+58
          1155.95910	         2.30645e+57
          1156.76540	         3.46308e+57
          1157.57170	         1.18388e+57
          1158.37800	        -5.42728e+57
          1159.18430	         4.39738e+57
          1159.99060	         1.04325e+58
          1160.79690	         9.87841e+57
          1161.60320	         2.39013e+58
          1162.40950	         1.23438e+58
          1163.21580	         1.25269e+58
          1164.02210	         7.86516e+57
          1164.82840	         1.29123e+58
          1165.63470	         1.92542e+58
          1166.44100	         2.89679e+58
          1167.24730	         1.87703e+58
          1168.05360	         7.62701e+57
          1168.85990	         3.07190e+57
          1169.66620	         6.03349e+57
          1170.47250	         1.62937e+58
          1171.27880	         1.60495e+58
          1172.08510	         1.61147e+58
          1172.89140	         1.25204e+58
          1173.69770	         5.81047e+57
          1174.50400	         5.32497e+57
          1175.31030	         9.87716e+57
          1176.11660	         1.40828e+58
          1176.92290	         1.20655e+58
          1177.72920	         1.17034e+58
          1178.53550	         7.95218e+57
          1179.34180	         4.52484e+57
          1180.14810	         1.05019e+58
          1180.95440	         1.16700e+58
          1181.76070	         4.52901e+57
          1182.56700	         1.01028e+58
          1183.37330	         8.46751e+57
          1184.17960	         1.08263e+58
          1184.98590	         1.47333e+58
          1185.79220	         9.25880e+57
          1186.59850	         1.60773e+58
          1187.40480	         1.60542e+58
          1188.21110	         2.03397e+58
          1189.01740	         1.36415e+58
          1189.82370	         8.99620e+57
          1190.63000	         1.74245e+58
          1191.43630	         1.28083e+58
          1192.24260	         7.34733e+57
          1193.04890	         1.16778e+58
          1193.85520	         1.05676e+58
          1194.66150	        -3.69601e+56
          1195.46780	         7.45349e+57
          1196.27410	         1.33300e+58
          1197.08040	         1.58337e+58
          1197.88670	         2.09519e+58
          1198.69300	         1.63812e+58
          1199.49930	         1.27254e+58
          1200.30560	         9.22728e+57
          1201.11190	         9.54741e+57
          1201.91820	         1.01038e+58
          1202.72450	         8.72240e+57
          1203.53080	         1.28600e+58
          1204.33710	         1.28077e+58
          1205.14340	         7.33495e+57
          1205.94970	         5.32349e+57
          1206.75600	         5.74830e+57
          1207.56230	         6.18028e+57
          1208.36860	         1.22252e+58
          1209.17490	         1.09086e+58
          1209.98120	         8.51675e+57
          1210.78750	         3.78821e+57
          1211.59380	         8.30762e+57
          1212.40010	         2.02698e+58
          1213.20640	         1.85253e+58
          1214.01270	         1.69322e+58
          1214.81900	         2.65082e+58
          1215.62530	         4.80243e+58
          1216.43160	         9.04906e+58
          1217.23790	         1.48348e+59
          1218.04420	         1.13622e+59
          1218.85050	         8.44151e+58
          1219.65680	         5.60309e+58
          1220.46310	         3.32026e+58
          1221.26940	         2.10758e+58
          1222.07570	         1.28738e+58
          1222.88200	         1.29370e+58
          1223.68830	         1.24598e+58
          1224.49460	         7.12151e+57
          1225.30090	         6.10447e+57
          1226.10720	         4.43088e+57
          1226.91350	         3.66627e+57
          1227.71980	         9.00023e+57
          1228.52610	         1.22728e+58
          1229.33240	         9.25028e+57
          1230.13870	         9.08957e+57
          1230.94500	         7.78356e+57
          1231.75130	         4.82312e+57
          1232.55760	         6.60206e+57
          1233.36390	         8.88378e+57
          1234.17020	         9.23820e+57
          1234.97650	         1.02240e+58
          1235.78280	         1.03474e+58
          1236.58910	         8.44160e+57
          1237.39540	         1.03461e+58
          1238.20170	         1.15472e+58
          1239.00800	         1.25687e+58
          1239.81430	         1.41983e+58
          1240.62060	         1.23812e+58
          1241.42690	         9.31387e+57
          1242.23320	         9.45653e+57
          1243.03950	         7.80907e+57
          1243.84580	         7.69229e+57
          1244.65210	         8.80054e+57
          1245.45840	         8.61176e+57
          1246.26470	         7.99862e+57
          1247.07100	         3.85513e+57
          1247.87730	         4.12840e+57
          1248.68360	         3.19170e+57
          1249.48990	         9.40181e+57
          1250.29620	         1.10944e+58
          1251.10250	         5.82848e+57
          1251.90880	         5.19775e+57
          1252.71510	         7.39739e+57
          1253.52140	         7.62466e+57
          1254.32770	         1.05917e+58
          1255.13400	         1.31130e+58
          1255.94030	         1.06501e+58
          1256.74660	         9.77348e+57
          1257.55290	         9.59781e+57
          1258.35920	         6.93027e+57
          1259.16550	         4.67298e+57
          1259.97180	         4.66371e+57
          1260.77810	         7.62779e+57
          1261.58440	         1.04067e+58
          1262.39070	         8.37812e+57
          1263.19700	         9.13891e+57
          1264.00330	         1.08128e+58
          1264.80960	         1.11481e+58
          1265.61590	         1.17999e+58
          1266.42220	         1.31485e+58
          1267.22850	         1.22487e+58
          1268.03480	         1.38903e+58
          1268.84110	         1.45344e+58
          1269.64740	         1.35585e+58
          1270.45370	         1.22290e+58
          1271.26000	         1.06351e+58
          1272.06630	         1.13306e+58
          1272.87260	         1.21458e+58
          1273.67890	         1.19056e+58
          1274.48520	         1.11321e+58
          1275.29150	         1.15872e+58
          1276.09780	         9.10774e+57
          1276.90410	         1.32563e+58
          1277.71040	         1.29578e+58
          1278.51670	         1.36610e+58
          1279.32300	         1.17909e+58
          1280.12930	         9.49980e+57
          1280.93560	         1.02335e+58
          1281.74190	         1.03950e+58
          1282.54820	         1.17553e+58
          1283.35450	         1.06038e+58
          1284.16080	         1.07384e+58
          1284.96710	         1.28678e+58
          1285.77340	         1.20563e+58
          1286.57970	         1.11626e+58
          1287.38600	         1.45252e+58
          1288.19230	         1.63401e+58
          1288.99860	         1.43463e+58
          1289.80490	         1.18284e+58
          1290.61120	         1.42749e+58
          1291.41750	         1.52191e+58
          1292.22380	         1.09612e+58
          1293.03010	         1.09895e+58
          1293.83640	         1.20316e+58
          1294.64270	         1.16487e+58
          1295.44900	         8.13085e+57
          1296.25530	         7.05428e+57
          1297.06160	         1.03209e+58
          1297.86790	         1.09497e+58
          1298.67420	         8.85453e+57
          1299.48050	         9.18926e+57
          1300.28680	         1.07470e+58
          1301.09310	         8.55769e+57
          1301.89940	         3.09259e+57
          1302.70570	         6.23100e+57
          1303.51200	         7.70652e+57
          1304.31830	         8.54069e+57
          1305.12460	         1.01321e+58
          1305.93090	         1.16472e+58
          1306.73720	         1.34828e+58
          1307.54350	         1.38405e+58
          1308.34980	         1.41060e+58
          1309.15610	         1.53777e+58
          1309.96240	         1.55519e+58
          1310.76870	         1.32873e+58
          1311.57500	         1.12072e+58
          1312.38130	         1.25466e+58
          1313.18760	         1.36615e+58
          1313.99390	         1.46126e+58
          1314.80020	         1.58852e+58
          1315.60650	         1.48149e+58
          1316.41280	         1.10910e+58
          1317.21910	         1.05966e+58
          1318.02540	         1.14311e+58
          1318.83170	         1.16567e+58
          1319.63800	         1.25600e+58
          1320.44430	         1.14589e+58
          1321.25060	         1.09875e+58
          1322.05690	         1.22602e+58
          1322.86320	         1.21738e+58
          1323.66950	         9.96529e+57
          1324.47580	         7.33653e+57
          1325.28210	         7.92248e+57
          1326.08840	         9.65792e+57
          1326.89470	         1.22870e+58
          1327.70100	         1.13924e+58
          1328.50730	         7.20110e+57
          1329.31360	         8.52132e+57
          1330.11990	         1.06595e+58
          1330.92620	         9.43183e+57
          1331.73250	         9.54067e+57
          1332.53880	         1.06732e+58
          1333.34510	         1.01225e+58
          1334.15140	         7.96434e+57
          1334.95770	         7.61921e+57
          1335.76400	         8.69266e+57
          1336.57030	         1.00635e+58
          1337.37660	         1.15050e+58
          1338.18290	         1.14460e+58
          1338.98920	         1.14134e+58
          1339.79550	         1.13077e+58
          1340.60180	         1.21717e+58
          1341.40810	         1.41319e+58
          1342.21440	         1.19350e+58
          1343.02070	         1.21155e+58
          1343.82700	         1.42688e+58
          1344.63330	         1.10103e+58
          1345.43960	         1.02672e+58
          1346.24590	         9.24305e+57
          1347.05220	         1.19108e+58
          1347.85850	         1.11005e+58
          1348.66480	         9.88557e+57
          1349.47110	         1.16642e+58
          1350.27740	         1.20991e+58
          1351.08370	         1.13989e+58
          1351.89000	         1.21266e+58
          1352.69630	         1.27802e+58
          1353.50260	         1.25240e+58
          1354.30890	         1.14404e+58
          1355.11520	         1.02550e+58
          1355.92150	         1.02264e+58
          1356.72780	         1.01652e+58
          1357.53410	         1.08713e+58
          1358.34040	         1.14849e+58
          1359.14670	         1.11368e+58
          1359.95300	         1.15163e+58
          1360.75930	         1.10374e+58
          1361.56560	         1.14544e+58
          1362.37190	         1.22305e+58
          1363.17820	         1.05018e+58
          1363.98450	         1.07673e+58
          1364.79080	         1.15440e+58
          1365.59710	         1.20421e+58
          1366.40340	         1.02163e+58
          1367.20970	         8.95013e+57
          1368.01600	         9.77387e+57
          1368.82230	         1.12025e+58
          1369.62860	         1.14744e+58
          1370.43490	         9.42041e+57
          1371.24120	         9.47779e+57
          1372.04750	         9.53529e+57
          1372.85380	         9.99812e+57
          1373.66010	         1.07359e+58
          1374.46640	         1.17683e+58
          1375.27270	         1.07366e+58
          1376.07900	         8.42681e+57
          1376.88530	         7.89779e+57
          1377.69160	         8.18467e+57
          1378.49790	         7.69572e+57
          1379.30420	         7.98052e+57
          1380.11050	         8.95773e+57
          1380.91680	         8.63744e+57
          1381.72310	         8.21144e+57
          1382.52940	         6.55776e+57
          1383.33570	         5.89000e+57
          1384.14200	         9.09927e+57
          1384.94830	         1.07744e+58
          1385.75460	         1.04512e+58
          1386.56090	         9.94152e+57
          1387.36720	         9.80610e+57
          1388.17350	         1.24590e+58
          1388.97980	         1.18719e+58
          1389.78610	         1.06996e+58
          1390.59240	         9.67169e+57
          1391.39870	         6.87634e+57
          1392.20500	         7.57689e+57
          1393.01130	         6.40127e+57
          1393.81760	         5.34217e+57
          1394.62390	         6.42107e+57
          1395.43020	         6.87067e+57
          1396.23650	         6.99680e+57
          1397.04280	         7.54326e+57
          1397.84910	         8.18067e+57
          1398.65540	         9.45608e+57
          1399.46170	         1.05081e+58
          1400.26800	         8.42594e+57
          1401.07430	         7.96497e+57
          1401.88060	         8.32633e+57
          1402.68690	         8.00792e+57
          1403.49320	         8.93330e+57
          1404.29950	         9.07868e+57
          1405.10580	         9.38980e+57
          1405.91210	         1.06602e+58
          1406.71840	         1.14801e+58
          1407.52470	         9.64915e+57
          1408.33100	         9.38776e+57
          1409.13730	         1.08648e+58
          1409.94360	         1.06471e+58
          1410.74990	         1.06737e+58
          1411.55620	         8.42439e+57
          1412.36250	         8.47334e+57
          1413.16880	         8.21088e+57
          1413.97510	         7.15349e+57
          1414.78140	         7.85561e+57
          1415.58770	         1.07596e+58
          1416.39400	         1.14016e+58
          1417.20030	         1.06293e+58
          1418.00660	         9.68566e+57
          1418.81290	         8.95094e+57
          1419.61920	         1.01580e+58
          1420.42550	         1.28357e+58
          1421.23180	         1.36889e+58
          1422.03810	         1.25942e+58
          1422.84440	         1.10445e+58
          1423.65070	         1.25486e+58
          1424.45700	         1.02598e+58
          1425.26330	         7.13445e+57
          1426.06960	         7.50567e+57
          1426.87590	         9.82854e+57
          1427.68220	         1.11117e+58
          1428.48850	         1.04447e+58
          1429.29480	         1.04374e+58
          1430.10110	         1.04187e+58
          1430.90740	         8.24185e+57
          1431.71370	         8.17733e+57
          1432.52000	         8.39829e+57
          1433.32630	         7.51893e+57
          1434.13260	         7.60671e+57
          1434.93890	         8.59436e+57
          1435.74520	         1.03755e+58
          1436.55150	         1.02253e+58
          1437.35780	         9.66145e+57
          1438.16410	         9.78402e+57
          1438.97040	         8.39685e+57
          1439.77670	         7.93544e+57
          1440.58300	         8.85979e+57
          1441.38930	         9.60225e+57
          1442.19560	         9.83132e+57
          1443.00190	         9.99468e+57
          1443.80820	         1.14691e+58
          1444.61450	         1.07645e+58
          1445.42080	         8.70383e+57
          1446.22710	         9.78751e+57
          1447.03340	         1.08572e+58
          1447.83970	         1.15920e+58
          1448.64600	         1.09373e+58
          1449.45230	         9.79301e+57
          1450.25860	         1.02247e+58
          1451.06490	         9.65652e+57
          1451.87120	         8.26405e+57
          1452.67750	         7.37066e+57
          1453.48380	         8.56450e+57
          1454.29010	         7.76888e+57
          1455.09640	         8.09830e+57
          1455.90270	         8.66279e+57
          1456.70900	         8.52447e+57
          1457.51530	         8.99916e+57
          1458.32160	         1.19388e+58
          1459.12790	         1.11808e+58
          1459.93420	         9.61808e+57
          1460.74050	         9.44838e+57
          1461.54680	         8.53548e+57
          1462.35310	         8.37313e+57
          1463.15940	         9.07857e+57
          1463.96570	         1.10893e+58
          1464.77200	         1.13025e+58
          1465.57830	         9.60433e+57
          1466.38460	         8.23080e+57
          1467.19090	         8.22790e+57
          1467.99720	         9.37172e+57
          1468.80350	         1.06247e+58
          1469.60980	         1.09127e+58
          1470.41610	         1.19175e+58
          1471.22240	         1.01727e+58
          1472.02870	         9.43718e+57
          1472.83500	         9.98696e+57
          1473.64130	         1.02186e+58
          1474.44760	         1.01115e+58
          1475.25390	         9.48411e+57
          1476.06020	         8.24356e+57
          1476.86650	         8.50576e+57
          1477.67280	         7.72696e+57
          1478.47910	         7.02929e+57
          1479.28540	         7.68855e+57
          1480.09170	         8.71080e+57
          1480.89800	         9.20605e+57
          1481.70430	         9.80315e+57
          1482.51060	         9.89700e+57
          1483.31690	         8.18871e+57
          1484.12320	         7.65069e+57
          1484.92950	         6.68657e+57
          1485.73580	         7.55622e+57
          1486.54210	         8.77893e+57
          1487.34840	         8.45076e+57
          1488.15470	         7.55039e+57
          1488.96100	         8.33805e+57
          1489.76730	         9.50913e+57
