#sample_171_stacked_spectrum_rest_UV-bands_median_H-alpha_noDC.txt
#median Lum: 1.72269e+42
#Rest-frame wavelength (A) | Luminosity (erg/s/A)
#
          1110.00000	         0.00000e+00
          1110.80630	         5.45355e+59
          1111.61260	        -7.91844e+58
          1112.41890	         2.54052e+59
          1113.22520	        -6.19129e+58
          1114.03150	        -9.17642e+57
          1114.83780	         3.31134e+59
          1115.64410	         1.31578e+59
          1116.45040	         8.71294e+58
          1117.25670	        -5.54680e+58
          1118.06300	         4.23330e+58
          1118.86930	         1.46363e+58
          1119.67560	         1.21065e+59
          1120.48190	         1.11499e+59
          1121.28820	        -4.12199e+58
          1122.09450	         1.94883e+58
          1122.90080	        -5.25757e+57
          1123.70710	         7.83023e+58
          1124.51340	         1.15332e+59
          1125.31970	         2.72615e+57
          1126.12600	         1.71988e+58
          1126.93230	        -3.35001e+58
          1127.73860	        -2.28012e+58
          1128.54490	         8.15065e+57
          1129.35120	         3.39642e+58
          1130.15750	        -3.32642e+58
          1130.96380	        -3.53153e+58
          1131.77010	         6.58306e+58
          1132.57640	         3.41469e+58
          1133.38270	         4.49418e+58
          1134.18900	         1.44696e+58
          1134.99530	        -1.34212e+58
          1135.80160	         2.40804e+58
          1136.60790	         1.88875e+58
          1137.41420	        -3.20005e+58
          1138.22050	         2.35295e+58
          1139.02680	         4.26595e+58
          1139.83310	         1.75680e+58
          1140.63940	         3.41940e+58
          1141.44570	        -3.36154e+57
          1142.25200	         1.47281e+57
          1143.05830	         2.92901e+57
          1143.86460	         1.47937e+58
          1144.67090	         1.97906e+58
          1145.47720	         1.70818e+58
          1146.28350	         2.11014e+58
          1147.08980	         2.51650e+58
          1147.89610	         3.00246e+58
          1148.70240	         1.97671e+58
          1149.50870	         1.22922e+58
          1150.31500	         1.10362e+58
          1151.12130	         3.84026e+57
          1151.92760	        -4.35685e+56
          1152.73390	         7.83973e+56
          1153.54020	         7.96323e+57
          1154.34650	         2.65899e+58
          1155.15280	         1.33664e+58
          1155.95910	         1.45181e+58
          1156.76540	         2.84458e+57
          1157.57170	        -1.19691e+58
          1158.37800	         6.54834e+56
          1159.18430	         2.26019e+56
          1159.99060	         6.44028e+57
          1160.79690	         1.05546e+58
          1161.60320	         1.85220e+58
          1162.40950	         1.05070e+58
          1163.21580	         2.09313e+58
          1164.02210	         1.37871e+58
          1164.82840	         6.65897e+57
          1165.63470	         1.33480e+58
          1166.44100	         3.12146e+58
          1167.24730	         2.06032e+58
          1168.05360	         8.70134e+57
          1168.85990	         7.33048e+57
          1169.66620	         1.50437e+58
          1170.47250	         1.85094e+58
          1171.27880	         1.13946e+58
          1172.08510	         6.04042e+57
          1172.89140	        -2.63137e+57
          1173.69770	        -2.37207e+57
          1174.50400	         6.68996e+57
          1175.31030	         1.82768e+58
          1176.11660	         1.54895e+58
          1176.92290	         1.52091e+58
          1177.72920	         5.97890e+57
          1178.53550	         7.08325e+57
          1179.34180	         2.50820e+57
          1180.14810	         1.29007e+58
          1180.95440	         1.47423e+58
          1181.76070	         1.11797e+58
          1182.56700	         8.71077e+57
          1183.37330	         6.42722e+57
          1184.17960	         1.45983e+58
          1184.98590	         8.45663e+57
          1185.79220	         4.81409e+57
          1186.59850	         1.10384e+58
          1187.40480	         1.41972e+58
          1188.21110	         2.15130e+58
          1189.01740	         1.77580e+58
          1189.82370	         1.08867e+58
          1190.63000	         1.16189e+58
          1191.43630	         1.43943e+58
          1192.24260	         9.76118e+57
          1193.04890	         1.48746e+58
          1193.85520	         1.37821e+58
          1194.66150	         1.12055e+57
          1195.46780	         5.14122e+57
          1196.27410	         1.24531e+58
          1197.08040	         1.39387e+58
          1197.88670	         1.75777e+58
          1198.69300	         1.59209e+58
          1199.49930	         1.48798e+58
          1200.30560	         1.15410e+58
          1201.11190	         6.07775e+57
          1201.91820	         1.11727e+58
          1202.72450	         9.17062e+57
          1203.53080	         1.34125e+58
          1204.33710	         4.75285e+57
          1205.14340	         7.59429e+57
          1205.94970	         6.58722e+57
          1206.75600	         4.78157e+57
          1207.56230	         8.64874e+57
          1208.36860	         7.37603e+57
          1209.17490	         2.78199e+57
          1209.98120	         4.10430e+57
          1210.78750	         7.32522e+57
          1211.59380	         1.47341e+58
          1212.40010	         1.77946e+58
          1213.20640	         2.00832e+58
          1214.01270	         1.95908e+58
          1214.81900	         2.60867e+58
          1215.62530	         4.67413e+58
          1216.43160	         9.26860e+58
          1217.23790	         1.55720e+59
          1218.04420	         1.14955e+59
          1218.85050	         8.54234e+58
          1219.65680	         5.73593e+58
          1220.46310	         3.53965e+58
          1221.26940	         2.31580e+58
          1222.07570	         1.22841e+58
          1222.88200	         1.27163e+58
          1223.68830	         9.60127e+57
          1224.49460	         6.44202e+57
          1225.30090	         5.61761e+57
          1226.10720	         5.31797e+57
          1226.91350	         7.74366e+57
          1227.71980	         9.91549e+57
          1228.52610	         1.15219e+58
          1229.33240	         1.19167e+58
          1230.13870	         1.15100e+58
          1230.94500	         9.43801e+57
          1231.75130	         6.50023e+57
          1232.55760	         9.23390e+57
          1233.36390	         8.49027e+57
          1234.17020	         7.94369e+57
          1234.97650	         7.47534e+57
          1235.78280	         8.03842e+57
          1236.58910	         9.94858e+57
          1237.39540	         1.36154e+58
          1238.20170	         1.13149e+58
          1239.00800	         1.10216e+58
          1239.81430	         1.49332e+58
          1240.62060	         1.30527e+58
          1241.42690	         1.20360e+58
          1242.23320	         1.09680e+58
          1243.03950	         7.79125e+57
          1243.84580	         9.71800e+57
          1244.65210	         1.18837e+58
          1245.45840	         1.09460e+58
          1246.26470	         8.20838e+57
          1247.07100	         5.14801e+57
          1247.87730	         5.36081e+57
          1248.68360	         6.22772e+57
          1249.48990	         1.11059e+58
          1250.29620	         1.38762e+58
          1251.10250	         9.71135e+57
          1251.90880	         7.16795e+57
          1252.71510	         6.16746e+57
          1253.52140	         5.98448e+57
          1254.32770	         8.09635e+57
          1255.13400	         1.20395e+58
          1255.94030	         1.18295e+58
          1256.74660	         1.08572e+58
          1257.55290	         1.15351e+58
          1258.35920	         9.11226e+57
          1259.16550	         3.81515e+57
          1259.97180	         5.82321e+57
          1260.77810	         9.59803e+57
          1261.58440	         1.26621e+58
          1262.39070	         9.87889e+57
          1263.19700	         9.19309e+57
          1264.00330	         1.09286e+58
          1264.80960	         8.38451e+57
          1265.61590	         8.93900e+57
          1266.42220	         1.10764e+58
          1267.22850	         1.12071e+58
          1268.03480	         1.33898e+58
          1268.84110	         1.45501e+58
          1269.64740	         1.47018e+58
          1270.45370	         1.26329e+58
          1271.26000	         1.04628e+58
          1272.06630	         1.10758e+58
          1272.87260	         1.17553e+58
          1273.67890	         1.26260e+58
          1274.48520	         1.21993e+58
          1275.29150	         1.27803e+58
          1276.09780	         1.25498e+58
          1276.90410	         1.46401e+58
          1277.71040	         1.37788e+58
          1278.51670	         1.36924e+58
          1279.32300	         1.49288e+58
          1280.12930	         1.26844e+58
          1280.93560	         1.04719e+58
          1281.74190	         1.07771e+58
          1282.54820	         1.29933e+58
          1283.35450	         1.08334e+58
          1284.16080	         1.04901e+58
          1284.96710	         1.34157e+58
          1285.77340	         1.30036e+58
          1286.57970	         1.31166e+58
          1287.38600	         1.57254e+58
          1288.19230	         1.84025e+58
          1288.99860	         1.67031e+58
          1289.80490	         1.23978e+58
          1290.61120	         1.21703e+58
          1291.41750	         1.28115e+58
          1292.22380	         1.26342e+58
          1293.03010	         1.20321e+58
          1293.83640	         1.34661e+58
          1294.64270	         1.21610e+58
          1295.44900	         7.59802e+57
          1296.25530	         8.29150e+57
          1297.06160	         1.06874e+58
          1297.86790	         1.07480e+58
          1298.67420	         1.08241e+58
          1299.48050	         1.08198e+58
          1300.28680	         1.22671e+58
          1301.09310	         8.73169e+57
          1301.89940	         3.74732e+57
          1302.70570	         5.57035e+57
          1303.51200	         7.08408e+57
          1304.31830	         1.02481e+58
          1305.12460	         1.13275e+58
          1305.93090	         1.07342e+58
          1306.73720	         1.15617e+58
          1307.54350	         1.32869e+58
          1308.34980	         1.33920e+58
          1309.15610	         1.55476e+58
          1309.96240	         1.70086e+58
          1310.76870	         1.49969e+58
          1311.57500	         1.36269e+58
          1312.38130	         1.09997e+58
          1313.18760	         1.11569e+58
          1313.99390	         1.53032e+58
          1314.80020	         1.56734e+58
          1315.60650	         1.58480e+58
          1316.41280	         1.35174e+58
          1317.21910	         9.80094e+57
          1318.02540	         1.04879e+58
          1318.83170	         1.28279e+58
          1319.63800	         1.29069e+58
          1320.44430	         1.31584e+58
          1321.25060	         1.31354e+58
          1322.05690	         1.17016e+58
          1322.86320	         1.10210e+58
          1323.66950	         9.54126e+57
          1324.47580	         6.99470e+57
          1325.28210	         8.38657e+57
          1326.08840	         1.30038e+58
          1326.89470	         1.31004e+58
          1327.70100	         1.03049e+58
          1328.50730	         8.60622e+57
          1329.31360	         9.36683e+57
          1330.11990	         1.00007e+58
          1330.92620	         9.59522e+57
          1331.73250	         1.15094e+58
          1332.53880	         1.06453e+58
          1333.34510	         7.76151e+57
          1334.15140	         8.15094e+57
          1334.95770	         9.44385e+57
          1335.76400	         1.03801e+58
          1336.57030	         1.13110e+58
          1337.37660	         1.11691e+58
          1338.18290	         1.06412e+58
          1338.98920	         1.07622e+58
          1339.79550	         1.11580e+58
          1340.60180	         1.06275e+58
          1341.40810	         1.26938e+58
          1342.21440	         1.25959e+58
          1343.02070	         1.21904e+58
          1343.82700	         1.28164e+58
          1344.63330	         1.18297e+58
          1345.43960	         1.19853e+58
          1346.24590	         1.08224e+58
          1347.05220	         1.12759e+58
          1347.85850	         1.10896e+58
          1348.66480	         1.31881e+58
          1349.47110	         1.36765e+58
          1350.27740	         1.14322e+58
          1351.08370	         1.07100e+58
          1351.89000	         1.10313e+58
          1352.69630	         1.13205e+58
          1353.50260	         1.10394e+58
          1354.30890	         1.12766e+58
          1355.11520	         1.17037e+58
          1355.92150	         1.05779e+58
          1356.72780	         1.11330e+58
          1357.53410	         1.05047e+58
          1358.34040	         1.10233e+58
          1359.14670	         1.03954e+58
          1359.95300	         1.07937e+58
          1360.75930	         1.14654e+58
          1361.56560	         1.06845e+58
          1362.37190	         1.14872e+58
          1363.17820	         1.13523e+58
          1363.98450	         1.17452e+58
          1364.79080	         1.28709e+58
          1365.59710	         1.16727e+58
          1366.40340	         1.03756e+58
          1367.20970	         9.94117e+57
          1368.01600	         8.83043e+57
          1368.82230	         9.18472e+57
          1369.62860	         1.23740e+58
          1370.43490	         1.13907e+58
          1371.24120	         1.11245e+58
          1372.04750	         1.06196e+58
          1372.85380	         1.15288e+58
          1373.66010	         1.10797e+58
          1374.46640	         9.91890e+57
          1375.27270	         1.11199e+58
          1376.07900	         9.15577e+57
          1376.88530	         8.33523e+57
          1377.69160	         8.69938e+57
          1378.49790	         7.77348e+57
          1379.30420	         7.81037e+57
          1380.11050	         9.85343e+57
          1380.91680	         8.74342e+57
          1381.72310	         6.93512e+57
          1382.52940	         8.78956e+57
          1383.33570	         8.78313e+57
          1384.14200	         1.10203e+58
          1384.94830	         1.15128e+58
          1385.75460	         1.09413e+58
          1386.56090	         1.07881e+58
          1387.36720	         1.11695e+58
          1388.17350	         1.46017e+58
          1388.97980	         1.22781e+58
          1389.78610	         8.27047e+57
          1390.59240	         5.89032e+57
          1391.39870	         5.09258e+57
          1392.20500	         6.08340e+57
          1393.01130	         8.18380e+57
          1393.81760	         8.52968e+57
          1394.62390	         6.93130e+57
          1395.43020	         6.00740e+57
          1396.23650	         6.74605e+57
          1397.04280	         8.01466e+57
          1397.84910	         7.99206e+57
          1398.65540	         8.41683e+57
          1399.46170	         9.16579e+57
          1400.26800	         7.75595e+57
          1401.07430	         7.42318e+57
          1401.88060	         7.86363e+57
          1402.68690	         9.64908e+57
          1403.49320	         9.81911e+57
          1404.29950	         9.18331e+57
          1405.10580	         1.12756e+58
          1405.91210	         1.18853e+58
          1406.71840	         1.10263e+58
          1407.52470	         1.07499e+58
          1408.33100	         1.04098e+58
          1409.13730	         1.13993e+58
          1409.94360	         1.15434e+58
          1410.74990	         1.09729e+58
          1411.55620	         9.52026e+57
          1412.36250	         7.88196e+57
          1413.16880	         8.33637e+57
          1413.97510	         8.79998e+57
          1414.78140	         9.09460e+57
          1415.58770	         1.09690e+58
          1416.39400	         1.19395e+58
          1417.20030	         9.89458e+57
          1418.00660	         9.62540e+57
          1418.81290	         1.16199e+58
          1419.61920	         1.14611e+58
          1420.42550	         1.33457e+58
          1421.23180	         1.39549e+58
          1422.03810	         1.25858e+58
          1422.84440	         1.17175e+58
          1423.65070	         1.27708e+58
          1424.45700	         1.16538e+58
          1425.26330	         9.72809e+57
          1426.06960	         9.30257e+57
          1426.87590	         9.97560e+57
          1427.68220	         9.54566e+57
          1428.48850	         1.13456e+58
          1429.29480	         9.98994e+57
          1430.10110	         9.71793e+57
          1430.90740	         8.48418e+57
          1431.71370	         9.04773e+57
          1432.52000	         8.84833e+57
          1433.32630	         7.68976e+57
          1434.13260	         8.16115e+57
          1434.93890	         7.90766e+57
          1435.74520	         8.43984e+57
          1436.55150	         9.03105e+57
          1437.35780	         8.80527e+57
          1438.16410	         9.40254e+57
          1438.97040	         9.99127e+57
          1439.77670	         9.32045e+57
          1440.58300	         8.15923e+57
          1441.38930	         8.75695e+57
          1442.19560	         9.54410e+57
          1443.00190	         9.27097e+57
          1443.80820	         1.09071e+58
          1444.61450	         1.05880e+58
          1445.42080	         8.29505e+57
          1446.22710	         9.19444e+57
          1447.03340	         1.00882e+58
          1447.83970	         1.21457e+58
          1448.64600	         1.11535e+58
          1449.45230	         9.74277e+57
          1450.25860	         9.70931e+57
          1451.06490	         8.65434e+57
          1451.87120	         8.04499e+57
          1452.67750	         7.55460e+57
          1453.48380	         8.55008e+57
          1454.29010	         7.51508e+57
          1455.09640	         7.57914e+57
          1455.90270	         8.02506e+57
          1456.70900	         8.54188e+57
          1457.51530	         9.81730e+57
          1458.32160	         1.13228e+58
          1459.12790	         1.15495e+58
          1459.93420	         1.15961e+58
          1460.74050	         8.36058e+57
          1461.54680	         7.31606e+57
          1462.35310	         7.84099e+57
          1463.15940	         8.63285e+57
          1463.96570	         1.07462e+58
          1464.77200	         1.28279e+58
          1465.57830	         1.24028e+58
          1466.38460	         9.86405e+57
          1467.19090	         8.56394e+57
          1467.99720	         8.65592e+57
          1468.80350	         9.54944e+57
          1469.60980	         9.56522e+57
          1470.41610	         1.04182e+58
          1471.22240	         9.56582e+57
          1472.02870	         9.04914e+57
          1472.83500	         9.94468e+57
          1473.64130	         9.90318e+57
          1474.44760	         9.76218e+57
          1475.25390	         1.02283e+58
          1476.06020	         8.79100e+57
          1476.86650	         8.82531e+57
          1477.67280	         8.21179e+57
          1478.47910	         6.52387e+57
          1479.28540	         7.88987e+57
          1480.09170	         8.85919e+57
          1480.89800	         9.36628e+57
          1481.70430	         7.99984e+57
          1482.51060	         7.52357e+57
          1483.31690	         8.38997e+57
          1484.12320	         8.49812e+57
          1484.92950	         8.93605e+57
          1485.73580	         8.27581e+57
          1486.54210	         9.47093e+57
          1487.34840	         1.05449e+58
          1488.15470	         9.68610e+57
          1488.96100	         9.48866e+57
          1489.76730	         9.64755e+57
