#sample_150_stacked_spectrum_rest_UV-bands_median_H-alpha_noDC.txt
#median Lum: 1.67688e+42
#Rest-frame wavelength (A) | Luminosity (erg/s/A)
#
          1110.00000	         0.00000e+00
          1110.80630	        -6.75780e+59
          1111.61260	        -1.29765e+59
          1112.41890	         1.80000e+59
          1113.22520	         5.87274e+58
          1114.03150	        -4.91093e+58
          1114.83780	         7.69861e+58
          1115.64410	         2.04516e+59
          1116.45040	         6.09072e+58
          1117.25670	         1.73549e+58
          1118.06300	         5.19670e+58
          1118.86930	        -2.05948e+58
          1119.67560	         4.63844e+58
          1120.48190	        -5.33119e+58
          1121.28820	        -9.32795e+58
          1122.09450	         7.08568e+58
          1122.90080	         5.95569e+58
          1123.70710	         1.14343e+59
          1124.51340	         1.18377e+59
          1125.31970	         2.84237e+58
          1126.12600	         1.25393e+58
          1126.93230	         7.10824e+57
          1127.73860	        -4.72357e+58
          1128.54490	        -1.30931e+57
          1129.35120	         2.79673e+57
          1130.15750	        -2.37382e+58
          1130.96380	        -3.19073e+58
          1131.77010	         5.77259e+58
          1132.57640	         6.65478e+58
          1133.38270	         3.14399e+58
          1134.18900	         2.67705e+58
          1134.99530	         8.30432e+57
          1135.80160	         1.26594e+58
          1136.60790	        -1.66424e+57
          1137.41420	        -1.00152e+58
          1138.22050	         3.11795e+58
          1139.02680	         2.71022e+58
          1139.83310	         2.42112e+58
          1140.63940	         1.08861e+58
          1141.44570	         5.61419e+57
          1142.25200	         1.31343e+58
          1143.05830	         2.49057e+58
          1143.86460	         3.83443e+58
          1144.67090	         1.39965e+58
          1145.47720	         2.61979e+58
          1146.28350	         1.05833e+58
          1147.08980	         2.52477e+58
          1147.89610	         2.91579e+58
          1148.70240	         1.56300e+58
          1149.50870	         2.40446e+58
          1150.31500	         1.47036e+58
          1151.12130	         1.46573e+58
          1151.92760	         3.23095e+56
          1152.73390	        -1.35781e+58
          1153.54020	        -7.07828e+57
          1154.34650	         2.37960e+58
          1155.15280	         2.88177e+58
          1155.95910	         1.32068e+58
          1156.76540	         1.98793e+57
          1157.57170	         3.73927e+57
          1158.37800	        -6.03990e+57
          1159.18430	        -4.06461e+57
          1159.99060	         8.40920e+57
          1160.79690	        -2.00658e+56
          1161.60320	         1.44783e+58
          1162.40950	         1.88504e+58
          1163.21580	         1.37924e+58
          1164.02210	         1.51690e+58
          1164.82840	         4.79541e+57
          1165.63470	         1.07705e+58
          1166.44100	         2.56795e+58
          1167.24730	         2.05243e+58
          1168.05360	         9.03249e+57
          1168.85990	         1.11247e+57
          1169.66620	         1.52470e+58
          1170.47250	         1.30873e+58
          1171.27880	         3.72785e+57
          1172.08510	         9.82138e+57
          1172.89140	         1.03911e+58
          1173.69770	         2.59651e+57
          1174.50400	         8.37191e+57
          1175.31030	         1.25561e+58
          1176.11660	         1.57167e+58
          1176.92290	         1.24941e+58
          1177.72920	         1.29947e+58
          1178.53550	         6.50681e+57
          1179.34180	         1.86743e+57
          1180.14810	         4.53908e+57
          1180.95440	         8.45285e+57
          1181.76070	         7.90440e+57
          1182.56700	         1.09218e+58
          1183.37330	         1.06364e+58
          1184.17960	         1.31085e+58
          1184.98590	         1.56096e+58
          1185.79220	         8.69287e+57
          1186.59850	         1.10321e+58
          1187.40480	         1.10180e+58
          1188.21110	         1.92426e+58
          1189.01740	         1.25291e+58
          1189.82370	         1.15629e+58
          1190.63000	         1.29072e+58
          1191.43630	         1.42834e+58
          1192.24260	         1.38158e+58
          1193.04890	         1.25223e+58
          1193.85520	         9.70445e+57
          1194.66150	         7.21266e+57
          1195.46780	         1.31807e+58
          1196.27410	         1.51195e+58
          1197.08040	         1.20930e+58
          1197.88670	         1.40477e+58
          1198.69300	         2.10399e+58
          1199.49930	         2.16048e+58
          1200.30560	         1.47946e+58
          1201.11190	         1.12834e+58
          1201.91820	         1.16522e+58
          1202.72450	         8.97929e+57
          1203.53080	         1.71019e+58
          1204.33710	         6.53339e+57
          1205.14340	         6.09993e+57
          1205.94970	         5.10259e+57
          1206.75600	         6.20013e+57
          1207.56230	         4.75968e+57
          1208.36860	         9.90549e+57
          1209.17490	         4.01429e+57
          1209.98120	         2.80248e+57
          1210.78750	         7.49921e+57
          1211.59380	         1.50022e+58
          1212.40010	         2.05007e+58
          1213.20640	         2.06163e+58
          1214.01270	         1.98804e+58
          1214.81900	         2.60051e+58
          1215.62530	         4.80536e+58
          1216.43160	         9.52760e+58
          1217.23790	         1.54372e+59
          1218.04420	         1.17154e+59
          1218.85050	         8.77909e+58
          1219.65680	         5.81268e+58
          1220.46310	         3.33202e+58
          1221.26940	         2.09435e+58
          1222.07570	         1.21044e+58
          1222.88200	         1.07411e+58
          1223.68830	         1.05265e+58
          1224.49460	         6.22333e+57
          1225.30090	         4.88935e+57
          1226.10720	         8.20873e+57
          1226.91350	         7.48184e+57
          1227.71980	         5.88949e+57
          1228.52610	         1.03946e+58
          1229.33240	         8.87102e+57
          1230.13870	         7.65370e+57
          1230.94500	         7.29135e+57
          1231.75130	         6.56024e+57
          1232.55760	         7.53063e+57
          1233.36390	         9.66287e+57
          1234.17020	         1.13247e+58
          1234.97650	         1.04812e+58
          1235.78280	         6.95448e+57
          1236.58910	         7.28419e+57
          1237.39540	         7.99670e+57
          1238.20170	         9.96513e+57
          1239.00800	         1.37776e+58
          1239.81430	         1.39493e+58
          1240.62060	         8.69272e+57
          1241.42690	         9.01752e+57
          1242.23320	         1.25736e+58
          1243.03950	         8.92258e+57
          1243.84580	         7.29499e+57
          1244.65210	         8.74313e+57
          1245.45840	         8.36123e+57
          1246.26470	         9.07700e+57
          1247.07100	         8.02722e+57
          1247.87730	         5.73579e+57
          1248.68360	         6.20852e+57
          1249.48990	         7.26748e+57
          1250.29620	         6.51586e+57
          1251.10250	         7.10239e+57
          1251.90880	         8.12470e+57
          1252.71510	         6.50333e+57
          1253.52140	         8.25455e+57
          1254.32770	         1.02183e+58
          1255.13400	         1.31787e+58
          1255.94030	         1.25197e+58
          1256.74660	         9.83256e+57
          1257.55290	         1.03862e+58
          1258.35920	         1.08957e+58
          1259.16550	         6.88489e+57
          1259.97180	         5.12364e+57
          1260.77810	         7.39122e+57
          1261.58440	         1.07129e+58
          1262.39070	         1.00499e+58
          1263.19700	         9.72612e+57
          1264.00330	         8.72541e+57
          1264.80960	         8.12990e+57
          1265.61590	         1.26075e+58
          1266.42220	         1.19130e+58
          1267.22850	         9.33846e+57
          1268.03480	         1.24090e+58
          1268.84110	         1.31176e+58
          1269.64740	         1.22619e+58
          1270.45370	         1.44872e+58
          1271.26000	         1.46285e+58
          1272.06630	         1.30003e+58
          1272.87260	         1.34326e+58
          1273.67890	         1.44648e+58
          1274.48520	         1.45767e+58
          1275.29150	         1.41609e+58
          1276.09780	         1.26775e+58
          1276.90410	         1.49268e+58
          1277.71040	         1.44964e+58
          1278.51670	         1.13072e+58
          1279.32300	         1.16698e+58
          1280.12930	         1.13553e+58
          1280.93560	         8.82126e+57
          1281.74190	         9.53809e+57
          1282.54820	         1.08644e+58
          1283.35450	         9.19107e+57
          1284.16080	         1.02803e+58
          1284.96710	         1.57269e+58
          1285.77340	         1.42295e+58
          1286.57970	         1.03490e+58
          1287.38600	         1.46701e+58
          1288.19230	         1.69532e+58
          1288.99860	         1.54130e+58
          1289.80490	         1.01824e+58
          1290.61120	         1.10608e+58
          1291.41750	         1.28446e+58
          1292.22380	         1.18946e+58
          1293.03010	         1.11094e+58
          1293.83640	         1.00567e+58
          1294.64270	         8.52267e+57
          1295.44900	         6.82740e+57
          1296.25530	         6.65856e+57
          1297.06160	         9.56915e+57
          1297.86790	         9.61915e+57
          1298.67420	         7.59400e+57
          1299.48050	         8.36979e+57
          1300.28680	         1.01587e+58
          1301.09310	         7.72514e+57
          1301.89940	         4.53506e+57
          1302.70570	         7.10708e+57
          1303.51200	         8.90930e+57
          1304.31830	         9.98485e+57
          1305.12460	         1.14329e+58
          1305.93090	         1.10556e+58
          1306.73720	         1.33117e+58
          1307.54350	         1.53108e+58
          1308.34980	         1.47268e+58
          1309.15610	         1.45355e+58
          1309.96240	         1.38287e+58
          1310.76870	         1.45840e+58
          1311.57500	         1.10775e+58
          1312.38130	         8.27936e+57
          1313.18760	         1.24657e+58
          1313.99390	         1.61662e+58
          1314.80020	         1.68336e+58
          1315.60650	         1.61193e+58
          1316.41280	         1.47733e+58
          1317.21910	         1.24920e+58
          1318.02540	         1.14502e+58
          1318.83170	         1.19545e+58
          1319.63800	         1.12417e+58
          1320.44430	         1.08430e+58
          1321.25060	         1.13711e+58
          1322.05690	         1.07491e+58
          1322.86320	         1.01073e+58
          1323.66950	         1.04934e+58
          1324.47580	         9.33946e+57
          1325.28210	         9.98136e+57
          1326.08840	         1.04147e+58
          1326.89470	         1.29552e+58
          1327.70100	         1.13838e+58
          1328.50730	         8.13178e+57
          1329.31360	         8.91226e+57
          1330.11990	         9.46274e+57
          1330.92620	         9.69277e+57
          1331.73250	         1.08126e+58
          1332.53880	         1.13116e+58
          1333.34510	         9.51636e+57
          1334.15140	         8.60968e+57
          1334.95770	         9.05256e+57
          1335.76400	         1.08592e+58
          1336.57030	         1.07526e+58
          1337.37660	         1.00525e+58
          1338.18290	         9.30766e+57
          1338.98920	         1.03424e+58
          1339.79550	         1.23352e+58
          1340.60180	         1.37270e+58
          1341.40810	         1.32710e+58
          1342.21440	         1.24267e+58
          1343.02070	         1.24672e+58
          1343.82700	         1.22873e+58
          1344.63330	         1.17700e+58
          1345.43960	         1.32554e+58
          1346.24590	         1.31247e+58
          1347.05220	         1.17724e+58
          1347.85850	         1.06400e+58
          1348.66480	         1.09941e+58
          1349.47110	         1.16856e+58
          1350.27740	         1.12573e+58
          1351.08370	         1.23900e+58
          1351.89000	         1.23313e+58
          1352.69630	         1.16387e+58
          1353.50260	         1.11504e+58
          1354.30890	         1.16785e+58
          1355.11520	         1.18094e+58
          1355.92150	         1.05223e+58
          1356.72780	         1.03025e+58
          1357.53410	         1.01346e+58
          1358.34040	         1.09054e+58
          1359.14670	         1.00077e+58
          1359.95300	         1.09882e+58
          1360.75930	         1.05846e+58
          1361.56560	         9.81693e+57
          1362.37190	         1.09749e+58
          1363.17820	         1.11753e+58
          1363.98450	         1.16205e+58
          1364.79080	         1.19942e+58
          1365.59710	         1.17404e+58
          1366.40340	         1.08804e+58
          1367.20970	         1.04846e+58
          1368.01600	         9.35159e+57
          1368.82230	         9.71628e+57
          1369.62860	         1.22723e+58
          1370.43490	         1.11853e+58
          1371.24120	         7.26914e+57
          1372.04750	         7.58703e+57
          1372.85380	         1.18955e+58
          1373.66010	         1.12318e+58
          1374.46640	         1.02571e+58
          1375.27270	         1.04901e+58
          1376.07900	         9.65453e+57
          1376.88530	         8.10169e+57
          1377.69160	         8.60744e+57
          1378.49790	         7.64328e+57
          1379.30420	         8.24134e+57
          1380.11050	         1.00856e+58
          1380.91680	         8.56105e+57
          1381.72310	         7.86477e+57
          1382.52940	         8.85758e+57
          1383.33570	         9.87981e+57
          1384.14200	         1.06460e+58
          1384.94830	         1.16083e+58
          1385.75460	         1.12812e+58
          1386.56090	         1.18019e+58
          1387.36720	         9.88332e+57
          1388.17350	         1.13202e+58
          1388.97980	         1.20994e+58
          1389.78610	         8.90185e+57
          1390.59240	         7.14610e+57
          1391.39870	         7.58057e+57
          1392.20500	         8.47240e+57
          1393.01130	         7.68554e+57
          1393.81760	         6.41332e+57
          1394.62390	         6.30681e+57
          1395.43020	         6.65915e+57
          1396.23650	         7.46500e+57
          1397.04280	         7.88336e+57
          1397.84910	         9.20685e+57
          1398.65540	         8.76974e+57
          1399.46170	         1.02355e+58
          1400.26800	         9.40664e+57
          1401.07430	         7.35921e+57
          1401.88060	         8.65229e+57
          1402.68690	         1.00508e+58
          1403.49320	         9.56856e+57
          1404.29950	         8.95899e+57
          1405.10580	         1.01195e+58
          1405.91210	         1.11577e+58
          1406.71840	         1.11966e+58
          1407.52470	         1.07970e+58
          1408.33100	         1.08384e+58
          1409.13730	         1.06866e+58
          1409.94360	         1.14285e+58
          1410.74990	         1.12355e+58
          1411.55620	         8.30228e+57
          1412.36250	         7.61788e+57
          1413.16880	         8.72689e+57
          1413.97510	         8.94009e+57
          1414.78140	         9.96334e+57
          1415.58770	         1.15036e+58
          1416.39400	         1.04080e+58
          1417.20030	         1.08354e+58
          1418.00660	         1.10817e+58
          1418.81290	         1.01769e+58
          1419.61920	         9.88822e+57
          1420.42550	         1.31103e+58
          1421.23180	         1.31826e+58
          1422.03810	         1.13531e+58
          1422.84440	         1.10316e+58
          1423.65070	         1.26856e+58
          1424.45700	         1.19597e+58
          1425.26330	         9.81530e+57
          1426.06960	         1.04157e+58
          1426.87590	         1.04335e+58
          1427.68220	         8.92113e+57
          1428.48850	         1.00765e+58
          1429.29480	         1.00561e+58
          1430.10110	         1.01341e+58
          1430.90740	         9.23536e+57
          1431.71370	         8.61496e+57
          1432.52000	         8.72162e+57
          1433.32630	         8.65863e+57
          1434.13260	         8.42031e+57
          1434.93890	         7.55734e+57
          1435.74520	         8.63912e+57
          1436.55150	         9.35120e+57
          1437.35780	         8.60788e+57
          1438.16410	         8.90289e+57
          1438.97040	         9.38996e+57
          1439.77670	         9.61627e+57
          1440.58300	         9.19290e+57
          1441.38930	         9.61477e+57
          1442.19560	         9.87290e+57
          1443.00190	         8.84634e+57
          1443.80820	         1.06640e+58
          1444.61450	         1.05318e+58
          1445.42080	         7.72651e+57
          1446.22710	         8.64869e+57
          1447.03340	         8.85965e+57
          1447.83970	         9.83703e+57
          1448.64600	         1.05388e+58
          1449.45230	         9.57836e+57
          1450.25860	         1.05516e+58
          1451.06490	         9.33741e+57
          1451.87120	         7.81913e+57
          1452.67750	         7.50223e+57
          1453.48380	         9.09972e+57
          1454.29010	         8.72124e+57
          1455.09640	         8.24345e+57
          1455.90270	         8.77401e+57
          1456.70900	         8.48265e+57
          1457.51530	         1.00110e+58
          1458.32160	         1.32312e+58
          1459.12790	         1.21364e+58
          1459.93420	         9.61849e+57
          1460.74050	         8.27044e+57
          1461.54680	         8.35007e+57
          1462.35310	         7.96480e+57
          1463.15940	         1.00676e+58
          1463.96570	         1.15082e+58
          1464.77200	         1.10209e+58
          1465.57830	         1.05977e+58
          1466.38460	         8.72599e+57
          1467.19090	         7.96125e+57
          1467.99720	         8.50934e+57
          1468.80350	         8.97026e+57
          1469.60980	         9.09490e+57
          1470.41610	         1.03575e+58
          1471.22240	         1.00451e+58
          1472.02870	         1.04198e+58
          1472.83500	         1.01460e+58
          1473.64130	         1.06638e+58
          1474.44760	         9.41225e+57
          1475.25390	         9.62817e+57
          1476.06020	         8.81371e+57
          1476.86650	         7.21913e+57
          1477.67280	         6.02679e+57
          1478.47910	         6.67207e+57
          1479.28540	         6.72331e+57
          1480.09170	         8.30630e+57
          1480.89800	         8.62637e+57
          1481.70430	         7.73037e+57
          1482.51060	         8.32048e+57
          1483.31690	         8.27803e+57
          1484.12320	         7.66343e+57
          1484.92950	         7.72419e+57
          1485.73580	         8.23367e+57
          1486.54210	         8.52852e+57
          1487.34840	         7.98819e+57
          1488.15470	         6.70418e+57
          1488.96100	         7.17321e+57
          1489.76730	         8.32580e+57
