#sample_393_stacked_spectrum_rest_UV-bands_median_H-alpha_noDC.txt
#median Lum: 1.71363e+42
#Rest-frame wavelength (A) | Luminosity (erg/s/A)
#
          1110.00000	         0.00000e+00
          1110.80630	        -8.64096e+58
          1111.61260	         1.52951e+59
          1112.41890	         1.81873e+58
          1113.22520	         8.88387e+58
          1114.03150	         1.62649e+57
          1114.83780	         2.82375e+59
          1115.64410	         5.31314e+58
          1116.45040	         1.23438e+59
          1117.25670	        -1.09645e+59
          1118.06300	         2.40580e+59
          1118.86930	         5.02442e+58
          1119.67560	         1.48539e+59
          1120.48190	         5.01144e+58
          1121.28820	        -1.07782e+59
          1122.09450	        -3.90707e+58
          1122.90080	         1.74531e+58
          1123.70710	         1.10439e+59
          1124.51340	         1.07822e+59
          1125.31970	        -3.02839e+58
          1126.12600	        -1.38822e+58
          1126.93230	        -9.78292e+58
          1127.73860	        -1.10883e+59
          1128.54490	         4.95884e+58
          1129.35120	         4.66874e+57
          1130.15750	         2.25915e+58
          1130.96380	        -2.21408e+58
          1131.77010	         4.75795e+58
          1132.57640	         5.67286e+58
          1133.38270	         1.87702e+58
          1134.18900	         1.47989e+58
          1134.99530	         1.52354e+58
          1135.80160	         4.68705e+57
          1136.60790	        -7.65708e+57
          1137.41420	        -2.82793e+57
          1138.22050	         4.42665e+58
          1139.02680	         1.21928e+58
          1139.83310	         1.62911e+58
          1140.63940	         1.64119e+58
          1141.44570	        -1.65610e+58
          1142.25200	        -5.39971e+57
          1143.05830	         2.90255e+58
          1143.86460	         2.81522e+58
          1144.67090	         1.23701e+58
          1145.47720	         1.74631e+58
          1146.28350	         1.15934e+58
          1147.08980	         8.32148e+57
          1147.89610	         2.60311e+58
          1148.70240	         2.02966e+58
          1149.50870	         9.03008e+57
          1150.31500	         1.35005e+58
          1151.12130	         1.46891e+58
          1151.92760	         4.28512e+57
          1152.73390	         1.41409e+58
          1153.54020	         1.10252e+58
          1154.34650	         2.46017e+58
          1155.15280	         1.31438e+58
          1155.95910	         1.83168e+58
          1156.76540	         2.59994e+58
          1157.57170	        -3.66752e+57
          1158.37800	        -1.15802e+58
          1159.18430	        -5.24158e+57
          1159.99060	        -2.15469e+56
          1160.79690	         4.15492e+57
          1161.60320	         7.83356e+57
          1162.40950	         1.77859e+58
          1163.21580	         1.41474e+58
          1164.02210	         4.78235e+57
          1164.82840	         1.01141e+58
          1165.63470	         2.01633e+58
          1166.44100	         2.57505e+58
          1167.24730	         2.21383e+58
          1168.05360	         1.05106e+58
          1168.85990	         5.53350e+57
          1169.66620	         4.87812e+57
          1170.47250	         7.76259e+57
          1171.27880	         4.13954e+57
          1172.08510	         1.22117e+58
          1172.89140	         1.29755e+58
          1173.69770	         5.64082e+57
          1174.50400	         1.08192e+58
          1175.31030	         1.78261e+58
          1176.11660	         1.74213e+58
          1176.92290	         1.03564e+58
          1177.72920	         1.03603e+58
          1178.53550	         3.73655e+57
          1179.34180	         4.69938e+57
          1180.14810	         1.04692e+58
          1180.95440	         7.77113e+57
          1181.76070	         6.07602e+57
          1182.56700	         7.75855e+57
          1183.37330	         8.97622e+57
          1184.17960	         1.66345e+58
          1184.98590	         1.78237e+58
          1185.79220	         7.89528e+57
          1186.59850	         6.73942e+57
          1187.40480	         7.60714e+57
          1188.21110	         1.75533e+58
          1189.01740	         1.08122e+58
          1189.82370	         8.60354e+57
          1190.63000	         1.16542e+58
          1191.43630	         1.06329e+58
          1192.24260	         3.96385e+57
          1193.04890	         8.65757e+57
          1193.85520	         1.21038e+58
          1194.66150	         5.46890e+57
          1195.46780	         2.57926e+57
          1196.27410	         1.11222e+58
          1197.08040	         6.50197e+57
          1197.88670	         1.17844e+58
          1198.69300	         1.63789e+58
          1199.49930	         1.38219e+58
          1200.30560	         1.00635e+58
          1201.11190	         7.05356e+57
          1201.91820	         6.46859e+57
          1202.72450	         8.37950e+57
          1203.53080	         1.46406e+58
          1204.33710	         9.39091e+57
          1205.14340	         6.82804e+57
          1205.94970	         7.02896e+57
          1206.75600	         6.00014e+57
          1207.56230	         2.77229e+57
          1208.36860	         5.90671e+57
          1209.17490	         6.73364e+57
          1209.98120	         8.56718e+57
          1210.78750	         5.53220e+57
          1211.59380	         9.63179e+57
          1212.40010	         1.86959e+58
          1213.20640	         2.27524e+58
          1214.01270	         2.01302e+58
          1214.81900	         2.36304e+58
          1215.62530	         4.33157e+58
          1216.43160	         9.02770e+58
          1217.23790	         1.50275e+59
          1218.04420	         1.15661e+59
          1218.85050	         8.95092e+58
          1219.65680	         6.27859e+58
          1220.46310	         3.94828e+58
          1221.26940	         2.48886e+58
          1222.07570	         1.46643e+58
          1222.88200	         1.42282e+58
          1223.68830	         1.26290e+58
          1224.49460	         9.21658e+57
          1225.30090	         5.66206e+57
          1226.10720	         7.03594e+57
          1226.91350	         7.47103e+57
          1227.71980	         1.17505e+58
          1228.52610	         1.14377e+58
          1229.33240	         1.15524e+58
          1230.13870	         1.42566e+58
          1230.94500	         1.20460e+58
          1231.75130	         7.78428e+57
          1232.55760	         1.15302e+58
          1233.36390	         9.88799e+57
          1234.17020	         7.94942e+57
          1234.97650	         8.13639e+57
          1235.78280	         1.02569e+58
          1236.58910	         1.08585e+58
          1237.39540	         9.71866e+57
          1238.20170	         8.97176e+57
          1239.00800	         1.08425e+58
          1239.81430	         1.40809e+58
          1240.62060	         1.20676e+58
          1241.42690	         1.19021e+58
          1242.23320	         1.37138e+58
          1243.03950	         8.49078e+57
          1243.84580	         6.49602e+57
          1244.65210	         9.60479e+57
          1245.45840	         1.08503e+58
          1246.26470	         8.90485e+57
          1247.07100	         8.37451e+57
          1247.87730	         5.77095e+57
          1248.68360	         3.78708e+57
          1249.48990	         6.90409e+57
          1250.29620	         9.54998e+57
          1251.10250	         8.80009e+57
          1251.90880	         7.86191e+57
          1252.71510	         7.86547e+57
          1253.52140	         7.38471e+57
          1254.32770	         8.64013e+57
          1255.13400	         1.39211e+58
          1255.94030	         1.28472e+58
          1256.74660	         1.05767e+58
          1257.55290	         1.05194e+58
          1258.35920	         7.34244e+57
          1259.16550	         4.37922e+57
          1259.97180	         4.83260e+57
          1260.77810	         9.56023e+57
          1261.58440	         1.21579e+58
          1262.39070	         8.57342e+57
          1263.19700	         8.43451e+57
          1264.00330	         1.03237e+58
          1264.80960	         1.07388e+58
          1265.61590	         1.27106e+58
          1266.42220	         1.22973e+58
          1267.22850	         1.14025e+58
          1268.03480	         1.39730e+58
          1268.84110	         1.34150e+58
          1269.64740	         1.05878e+58
          1270.45370	         1.38556e+58
          1271.26000	         1.38581e+58
          1272.06630	         1.29536e+58
          1272.87260	         1.48544e+58
          1273.67890	         1.33908e+58
          1274.48520	         1.17812e+58
          1275.29150	         1.28335e+58
          1276.09780	         1.05274e+58
          1276.90410	         1.36152e+58
          1277.71040	         1.29984e+58
          1278.51670	         1.25789e+58
          1279.32300	         1.48344e+58
          1280.12930	         1.29600e+58
          1280.93560	         1.09645e+58
          1281.74190	         1.20121e+58
          1282.54820	         1.35754e+58
          1283.35450	         1.06167e+58
          1284.16080	         1.29838e+58
          1284.96710	         1.56258e+58
          1285.77340	         1.28960e+58
          1286.57970	         1.41156e+58
          1287.38600	         1.77829e+58
          1288.19230	         1.84124e+58
          1288.99860	         1.52005e+58
          1289.80490	         1.00154e+58
          1290.61120	         1.20431e+58
          1291.41750	         1.52193e+58
          1292.22380	         1.39558e+58
          1293.03010	         1.01226e+58
          1293.83640	         1.08518e+58
          1294.64270	         9.82398e+57
          1295.44900	         6.18692e+57
          1296.25530	         6.63531e+57
          1297.06160	         1.06133e+58
          1297.86790	         1.24446e+58
          1298.67420	         1.00125e+58
          1299.48050	         9.08621e+57
          1300.28680	         9.75142e+57
          1301.09310	         8.23283e+57
          1301.89940	         5.08286e+57
          1302.70570	         6.50730e+57
          1303.51200	         8.72630e+57
          1304.31830	         1.10592e+58
          1305.12460	         1.18238e+58
          1305.93090	         1.19408e+58
          1306.73720	         1.33801e+58
          1307.54350	         1.57333e+58
          1308.34980	         1.60547e+58
          1309.15610	         1.73592e+58
          1309.96240	         1.79488e+58
          1310.76870	         1.51193e+58
          1311.57500	         1.46181e+58
          1312.38130	         1.29196e+58
          1313.18760	         1.35243e+58
          1313.99390	         1.61876e+58
          1314.80020	         1.62535e+58
          1315.60650	         1.57128e+58
          1316.41280	         1.50281e+58
          1317.21910	         1.21280e+58
          1318.02540	         1.04010e+58
          1318.83170	         1.32095e+58
          1319.63800	         1.30990e+58
          1320.44430	         1.23267e+58
          1321.25060	         1.30310e+58
          1322.05690	         1.25665e+58
          1322.86320	         1.10189e+58
          1323.66950	         1.16625e+58
          1324.47580	         8.53650e+57
          1325.28210	         9.61783e+57
          1326.08840	         1.28905e+58
          1326.89470	         1.31142e+58
          1327.70100	         1.17266e+58
          1328.50730	         9.08263e+57
          1329.31360	         9.41329e+57
          1330.11990	         9.62195e+57
          1330.92620	         9.81597e+57
          1331.73250	         1.17335e+58
          1332.53880	         1.10684e+58
          1333.34510	         1.04384e+58
          1334.15140	         9.71593e+57
          1334.95770	         1.01619e+58
          1335.76400	         1.19184e+58
          1336.57030	         1.14866e+58
          1337.37660	         1.10973e+58
          1338.18290	         1.06808e+58
          1338.98920	         1.18113e+58
          1339.79550	         1.22934e+58
          1340.60180	         1.38316e+58
          1341.40810	         1.29132e+58
          1342.21440	         1.06321e+58
          1343.02070	         1.24552e+58
          1343.82700	         1.37484e+58
          1344.63330	         1.19980e+58
          1345.43960	         1.38104e+58
          1346.24590	         1.13823e+58
          1347.05220	         1.06151e+58
          1347.85850	         1.04539e+58
          1348.66480	         1.06220e+58
          1349.47110	         1.08827e+58
          1350.27740	         1.11989e+58
          1351.08370	         1.26813e+58
          1351.89000	         1.41667e+58
          1352.69630	         1.25842e+58
          1353.50260	         1.29721e+58
          1354.30890	         1.28607e+58
          1355.11520	         1.15565e+58
          1355.92150	         1.03073e+58
          1356.72780	         9.70006e+57
          1357.53410	         1.03509e+58
          1358.34040	         1.13194e+58
          1359.14670	         1.17984e+58
          1359.95300	         1.11445e+58
          1360.75930	         1.17362e+58
          1361.56560	         1.23962e+58
          1362.37190	         1.23341e+58
          1363.17820	         1.24553e+58
          1363.98450	         1.21371e+58
          1364.79080	         1.37123e+58
          1365.59710	         1.39368e+58
          1366.40340	         1.37462e+58
          1367.20970	         1.18242e+58
          1368.01600	         1.09989e+58
          1368.82230	         8.92449e+57
          1369.62860	         9.24311e+57
          1370.43490	         8.98350e+57
          1371.24120	         1.00118e+58
          1372.04750	         9.99037e+57
          1372.85380	         1.09841e+58
          1373.66010	         1.10849e+58
          1374.46640	         1.04993e+58
          1375.27270	         1.09515e+58
          1376.07900	         9.31759e+57
          1376.88530	         9.40747e+57
          1377.69160	         9.95175e+57
          1378.49790	         7.65258e+57
          1379.30420	         7.51703e+57
          1380.11050	         9.66247e+57
          1380.91680	         8.07427e+57
          1381.72310	         8.42738e+57
          1382.52940	         9.14314e+57
          1383.33570	         7.57797e+57
          1384.14200	         8.60182e+57
          1384.94830	         8.75983e+57
          1385.75460	         9.58645e+57
          1386.56090	         1.09185e+58
          1387.36720	         1.04193e+58
          1388.17350	         1.19867e+58
          1388.97980	         1.17224e+58
          1389.78610	         9.24679e+57
          1390.59240	         7.48110e+57
          1391.39870	         7.06107e+57
          1392.20500	         8.04600e+57
          1393.01130	         8.03950e+57
          1393.81760	         8.72931e+57
          1394.62390	         8.17905e+57
          1395.43020	         7.20828e+57
          1396.23650	         7.66461e+57
          1397.04280	         7.97829e+57
          1397.84910	         9.38224e+57
          1398.65540	         1.02207e+58
          1399.46170	         1.00917e+58
          1400.26800	         9.45550e+57
          1401.07430	         9.07086e+57
          1401.88060	         8.78321e+57
          1402.68690	         9.32052e+57
          1403.49320	         9.42986e+57
          1404.29950	         9.50225e+57
          1405.10580	         1.07351e+58
          1405.91210	         1.12743e+58
          1406.71840	         1.15092e+58
          1407.52470	         1.05790e+58
          1408.33100	         1.03266e+58
          1409.13730	         1.13677e+58
          1409.94360	         1.21614e+58
          1410.74990	         1.29245e+58
          1411.55620	         1.16719e+58
          1412.36250	         1.03121e+58
          1413.16880	         9.85396e+57
          1413.97510	         8.86259e+57
          1414.78140	         8.79475e+57
          1415.58770	         9.72320e+57
          1416.39400	         1.05999e+58
          1417.20030	         1.09248e+58
          1418.00660	         9.81345e+57
          1418.81290	         1.11559e+58
          1419.61920	         1.23187e+58
          1420.42550	         1.33900e+58
          1421.23180	         1.48287e+58
          1422.03810	         1.28893e+58
          1422.84440	         1.02449e+58
          1423.65070	         1.22057e+58
          1424.45700	         1.19274e+58
          1425.26330	         9.00981e+57
          1426.06960	         9.32195e+57
          1426.87590	         1.07200e+58
          1427.68220	         1.09160e+58
          1428.48850	         1.16916e+58
          1429.29480	         1.13201e+58
          1430.10110	         1.05006e+58
          1430.90740	         9.42877e+57
          1431.71370	         9.66704e+57
          1432.52000	         9.06408e+57
          1433.32630	         7.61651e+57
          1434.13260	         7.59584e+57
          1434.93890	         8.37491e+57
          1435.74520	         9.74833e+57
          1436.55150	         1.05244e+58
          1437.35780	         9.67855e+57
          1438.16410	         9.71018e+57
          1438.97040	         8.67356e+57
          1439.77670	         8.50523e+57
          1440.58300	         9.20046e+57
          1441.38930	         9.87901e+57
          1442.19560	         9.86240e+57
          1443.00190	         9.95886e+57
          1443.80820	         1.18347e+58
          1444.61450	         1.08535e+58
          1445.42080	         9.81707e+57
          1446.22710	         1.13512e+58
          1447.03340	         1.01953e+58
          1447.83970	         1.05208e+58
          1448.64600	         9.34798e+57
          1449.45230	         9.52417e+57
          1450.25860	         1.02265e+58
          1451.06490	         1.01249e+58
          1451.87120	         8.95851e+57
          1452.67750	         9.03435e+57
          1453.48380	         9.50680e+57
          1454.29010	         8.65918e+57
          1455.09640	         8.36662e+57
          1455.90270	         8.55068e+57
          1456.70900	         9.01041e+57
          1457.51530	         1.08982e+58
          1458.32160	         1.28569e+58
          1459.12790	         1.20581e+58
          1459.93420	         1.06606e+58
          1460.74050	         8.17490e+57
          1461.54680	         8.61730e+57
          1462.35310	         9.50138e+57
          1463.15940	         1.03157e+58
          1463.96570	         1.22181e+58
          1464.77200	         1.18165e+58
          1465.57830	         1.14186e+58
          1466.38460	         9.80341e+57
          1467.19090	         7.99013e+57
          1467.99720	         9.33018e+57
          1468.80350	         9.92031e+57
          1469.60980	         9.87923e+57
          1470.41610	         1.01197e+58
          1471.22240	         7.96083e+57
          1472.02870	         8.35930e+57
          1472.83500	         9.51280e+57
          1473.64130	         1.01560e+58
          1474.44760	         9.80759e+57
          1475.25390	         9.41072e+57
          1476.06020	         9.45948e+57
          1476.86650	         9.54821e+57
          1477.67280	         9.15285e+57
          1478.47910	         7.75997e+57
          1479.28540	         6.68012e+57
          1480.09170	         8.27063e+57
          1480.89800	         9.62194e+57
          1481.70430	         9.89676e+57
          1482.51060	         9.17058e+57
          1483.31690	         7.63938e+57
          1484.12320	         7.93525e+57
          1484.92950	         8.52902e+57
          1485.73580	         8.33315e+57
          1486.54210	         7.99545e+57
          1487.34840	         7.88378e+57
          1488.15470	         8.18685e+57
          1488.96100	         8.45311e+57
          1489.76730	         9.32843e+57
