#sample_240_stacked_spectrum_rest_UV-bands_median_H-alpha_noDC.txt
#median Lum: 1.69353e+42
#Rest-frame wavelength (A) | Luminosity (erg/s/A)
#
          1110.00000	         0.00000e+00
          1110.80630	        -1.66773e+59
          1111.61260	         1.35309e+59
          1112.41890	         1.61736e+59
          1113.22520	        -6.80415e+58
          1114.03150	        -2.01659e+59
          1114.83780	         1.20978e+59
          1115.64410	        -3.07414e+57
          1116.45040	         1.09927e+59
          1117.25670	        -6.17731e+58
          1118.06300	         8.32950e+58
          1118.86930	         1.72672e+59
          1119.67560	         7.62371e+58
          1120.48190	        -8.74885e+58
          1121.28820	        -2.09758e+59
          1122.09450	        -6.51095e+58
          1122.90080	        -3.51885e+58
          1123.70710	        -4.14993e+56
          1124.51340	         1.16258e+59
          1125.31970	        -3.74124e+58
          1126.12600	        -1.21230e+57
          1126.93230	        -4.03973e+58
          1127.73860	        -5.74787e+57
          1128.54490	         2.47443e+58
          1129.35120	        -1.77870e+58
          1130.15750	        -3.96391e+58
          1130.96380	        -2.10074e+58
          1131.77010	         6.32624e+58
          1132.57640	         5.76548e+58
          1133.38270	         2.10099e+58
          1134.18900	         1.64778e+58
          1134.99530	         2.71921e+58
          1135.80160	         2.50193e+58
          1136.60790	         2.34968e+58
          1137.41420	         1.22363e+58
          1138.22050	         4.47622e+58
          1139.02680	         2.19526e+58
          1139.83310	         2.29624e+58
          1140.63940	         2.00227e+58
          1141.44570	        -4.46870e+57
          1142.25200	         1.42072e+57
          1143.05830	         1.57385e+58
          1143.86460	         3.26195e+58
          1144.67090	         2.34390e+58
          1145.47720	         2.45466e+58
          1146.28350	         1.11676e+58
          1147.08980	         8.11597e+57
          1147.89610	         1.82496e+58
          1148.70240	         2.47649e+58
          1149.50870	         1.70025e+58
          1150.31500	         6.84678e+56
          1151.12130	         1.35608e+57
          1151.92760	         4.48755e+56
          1152.73390	        -2.52338e+56
          1153.54020	         1.00929e+57
          1154.34650	         2.23178e+58
          1155.15280	         1.33952e+58
          1155.95910	         1.70558e+58
          1156.76540	         2.15422e+58
          1157.57170	         1.34369e+57
          1158.37800	        -9.15565e+56
          1159.18430	        -7.05676e+57
          1159.99060	        -5.05159e+57
          1160.79690	        -5.61692e+57
          1161.60320	         6.72110e+57
          1162.40950	         1.64971e+58
          1163.21580	         1.92891e+58
          1164.02210	         4.06077e+57
          1164.82840	         1.66657e+58
          1165.63470	         1.63548e+58
          1166.44100	         3.17207e+58
          1167.24730	         2.85161e+58
          1168.05360	         1.61300e+58
          1168.85990	         5.39585e+57
          1169.66620	         6.45249e+57
          1170.47250	         2.10211e+58
          1171.27880	         1.37938e+58
          1172.08510	         1.02308e+58
          1172.89140	         2.80256e+57
          1173.69770	         9.21024e+57
          1174.50400	         1.45745e+58
          1175.31030	         1.69111e+58
          1176.11660	         1.37046e+58
          1176.92290	         1.34510e+58
          1177.72920	         1.30834e+58
          1178.53550	         1.10368e+58
          1179.34180	         4.55862e+57
          1180.14810	         8.24039e+57
          1180.95440	         9.03583e+57
          1181.76070	         9.00637e+57
          1182.56700	         7.65660e+57
          1183.37330	         3.36238e+57
          1184.17960	         1.06571e+58
          1184.98590	         1.16804e+58
          1185.79220	         1.00377e+58
          1186.59850	         8.65467e+57
          1187.40480	         7.01688e+57
          1188.21110	         1.16368e+58
          1189.01740	         1.51362e+58
          1189.82370	         1.76689e+58
          1190.63000	         1.18600e+58
          1191.43630	         6.49904e+57
          1192.24260	         7.06382e+57
          1193.04890	         1.28597e+58
          1193.85520	         1.02492e+58
          1194.66150	         9.32679e+57
          1195.46780	         1.41826e+58
          1196.27410	         1.58030e+58
          1197.08040	         1.25681e+58
          1197.88670	         1.57440e+58
          1198.69300	         1.51677e+58
          1199.49930	         1.42847e+58
          1200.30560	         1.61756e+58
          1201.11190	         1.28794e+58
          1201.91820	         1.13199e+58
          1202.72450	         8.29424e+57
          1203.53080	         1.39976e+58
          1204.33710	         1.14295e+58
          1205.14340	         5.28165e+57
          1205.94970	         6.03416e+57
          1206.75600	         9.75782e+57
          1207.56230	         7.04037e+57
          1208.36860	         6.48556e+57
          1209.17490	         5.03502e+57
          1209.98120	         7.96516e+57
          1210.78750	         1.00372e+58
          1211.59380	         1.28198e+58
          1212.40010	         2.05616e+58
          1213.20640	         2.10322e+58
          1214.01270	         2.19675e+58
          1214.81900	         2.87088e+58
          1215.62530	         4.83190e+58
          1216.43160	         9.21250e+58
          1217.23790	         1.53277e+59
          1218.04420	         1.21842e+59
          1218.85050	         9.05961e+58
          1219.65680	         5.71843e+58
          1220.46310	         3.52974e+58
          1221.26940	         2.67072e+58
          1222.07570	         1.74980e+58
          1222.88200	         6.71428e+57
          1223.68830	         5.92999e+57
          1224.49460	         6.39691e+57
          1225.30090	         8.07925e+57
          1226.10720	         7.79332e+57
          1226.91350	         7.02084e+57
          1227.71980	         1.17188e+58
          1228.52610	         1.20506e+58
          1229.33240	         1.23189e+58
          1230.13870	         6.97930e+57
          1230.94500	         7.99889e+57
          1231.75130	         7.43725e+57
          1232.55760	         9.81920e+57
          1233.36390	         8.88050e+57
          1234.17020	         8.54885e+57
          1234.97650	         7.13106e+57
          1235.78280	         6.29687e+57
          1236.58910	         8.75738e+57
          1237.39540	         9.61358e+57
          1238.20170	         1.00169e+58
          1239.00800	         1.11041e+58
          1239.81430	         1.37492e+58
          1240.62060	         1.23350e+58
          1241.42690	         1.33322e+58
          1242.23320	         1.28721e+58
          1243.03950	         7.94358e+57
          1243.84580	         6.27226e+57
          1244.65210	         6.36582e+57
          1245.45840	         6.74161e+57
          1246.26470	         8.37584e+57
          1247.07100	         6.68350e+57
          1247.87730	         6.90905e+57
          1248.68360	         4.76701e+57
          1249.48990	         6.94989e+57
          1250.29620	         1.02467e+58
          1251.10250	         6.09861e+57
          1251.90880	         5.34225e+57
          1252.71510	         4.93561e+57
          1253.52140	         5.22793e+57
          1254.32770	         8.46479e+57
          1255.13400	         1.41524e+58
          1255.94030	         1.46648e+58
          1256.74660	         1.19958e+58
          1257.55290	         1.02410e+58
          1258.35920	         6.77831e+57
          1259.16550	         2.89690e+57
          1259.97180	         5.22139e+57
          1260.77810	         8.03938e+57
          1261.58440	         9.53092e+57
          1262.39070	         8.58624e+57
          1263.19700	         9.08990e+57
          1264.00330	         1.04600e+58
          1264.80960	         1.07932e+58
          1265.61590	         1.18544e+58
          1266.42220	         1.14949e+58
          1267.22850	         1.13771e+58
          1268.03480	         1.44561e+58
          1268.84110	         1.41853e+58
          1269.64740	         1.39157e+58
          1270.45370	         1.35941e+58
          1271.26000	         9.58920e+57
          1272.06630	         1.22171e+58
          1272.87260	         1.35198e+58
          1273.67890	         1.26456e+58
          1274.48520	         1.26144e+58
          1275.29150	         1.24185e+58
          1276.09780	         1.21287e+58
          1276.90410	         1.32877e+58
          1277.71040	         1.15387e+58
          1278.51670	         1.24832e+58
          1279.32300	         1.45639e+58
          1280.12930	         1.24887e+58
          1280.93560	         9.80966e+57
          1281.74190	         1.12787e+58
          1282.54820	         1.28477e+58
          1283.35450	         1.18139e+58
          1284.16080	         1.16643e+58
          1284.96710	         1.13022e+58
          1285.77340	         9.88325e+57
          1286.57970	         1.14245e+58
          1287.38600	         1.54976e+58
          1288.19230	         2.01814e+58
          1288.99860	         1.82948e+58
          1289.80490	         1.15247e+58
          1290.61120	         1.24330e+58
          1291.41750	         1.44789e+58
          1292.22380	         1.15252e+58
          1293.03010	         1.11447e+58
          1293.83640	         1.37896e+58
          1294.64270	         1.06316e+58
          1295.44900	         5.25623e+57
          1296.25530	         5.76381e+57
          1297.06160	         8.49744e+57
          1297.86790	         1.00342e+58
          1298.67420	         1.01727e+58
          1299.48050	         9.66047e+57
          1300.28680	         1.07189e+58
          1301.09310	         8.47923e+57
          1301.89940	         4.48559e+57
          1302.70570	         7.29584e+57
          1303.51200	         8.23497e+57
          1304.31830	         8.10275e+57
          1305.12460	         9.52107e+57
          1305.93090	         1.19768e+58
          1306.73720	         1.22174e+58
          1307.54350	         1.33970e+58
          1308.34980	         1.34284e+58
          1309.15610	         1.52083e+58
          1309.96240	         1.53975e+58
          1310.76870	         1.36437e+58
          1311.57500	         1.29199e+58
          1312.38130	         1.39645e+58
          1313.18760	         1.45157e+58
          1313.99390	         1.51644e+58
          1314.80020	         1.78561e+58
          1315.60650	         1.66739e+58
          1316.41280	         1.32095e+58
          1317.21910	         1.13898e+58
          1318.02540	         1.22267e+58
          1318.83170	         1.31125e+58
          1319.63800	         1.26063e+58
          1320.44430	         1.11759e+58
          1321.25060	         1.14553e+58
          1322.05690	         1.20972e+58
          1322.86320	         1.16831e+58
          1323.66950	         1.05451e+58
          1324.47580	         9.97693e+57
          1325.28210	         1.07388e+58
          1326.08840	         1.15615e+58
          1326.89470	         1.23693e+58
          1327.70100	         9.74120e+57
          1328.50730	         6.98869e+57
          1329.31360	         9.27777e+57
          1330.11990	         1.02014e+58
          1330.92620	         9.24620e+57
          1331.73250	         9.82640e+57
          1332.53880	         8.42947e+57
          1333.34510	         9.04303e+57
          1334.15140	         9.16307e+57
          1334.95770	         8.88529e+57
          1335.76400	         1.07463e+58
          1336.57030	         1.05013e+58
          1337.37660	         1.00790e+58
          1338.18290	         1.08269e+58
          1338.98920	         1.14470e+58
          1339.79550	         1.14449e+58
          1340.60180	         1.16750e+58
          1341.40810	         1.32357e+58
          1342.21440	         1.12977e+58
          1343.02070	         1.04983e+58
          1343.82700	         1.21038e+58
          1344.63330	         1.34292e+58
          1345.43960	         1.21358e+58
          1346.24590	         1.12477e+58
          1347.05220	         1.19420e+58
          1347.85850	         1.04838e+58
          1348.66480	         1.25518e+58
          1349.47110	         1.35841e+58
          1350.27740	         1.20884e+58
          1351.08370	         1.11505e+58
          1351.89000	         1.19216e+58
          1352.69630	         1.25892e+58
          1353.50260	         1.13446e+58
          1354.30890	         1.07872e+58
          1355.11520	         1.01010e+58
          1355.92150	         9.35960e+57
          1356.72780	         9.62665e+57
          1357.53410	         1.01072e+58
          1358.34040	         1.12619e+58
          1359.14670	         1.00177e+58
          1359.95300	         1.03550e+58
          1360.75930	         1.01821e+58
          1361.56560	         1.03373e+58
          1362.37190	         1.26694e+58
          1363.17820	         1.22426e+58
          1363.98450	         1.10025e+58
          1364.79080	         1.17854e+58
          1365.59710	         1.35893e+58
          1366.40340	         1.27493e+58
          1367.20970	         1.04898e+58
          1368.01600	         9.96606e+57
          1368.82230	         1.01594e+58
          1369.62860	         1.14771e+58
          1370.43490	         9.22612e+57
          1371.24120	         8.33971e+57
          1372.04750	         8.74974e+57
          1372.85380	         1.06324e+58
          1373.66010	         1.14904e+58
          1374.46640	         1.10814e+58
          1375.27270	         1.00261e+58
          1376.07900	         8.97471e+57
          1376.88530	         9.12285e+57
          1377.69160	         8.38264e+57
          1378.49790	         7.30910e+57
          1379.30420	         8.34506e+57
          1380.11050	         8.96755e+57
          1380.91680	         9.52673e+57
          1381.72310	         8.78601e+57
          1382.52940	         9.15958e+57
          1383.33570	         8.05360e+57
          1384.14200	         7.43231e+57
          1384.94830	         9.31506e+57
          1385.75460	         9.14522e+57
          1386.56090	         1.01211e+58
          1387.36720	         1.01430e+58
          1388.17350	         1.12301e+58
          1388.97980	         1.05196e+58
          1389.78610	         8.42635e+57
          1390.59240	         7.72491e+57
          1391.39870	         6.78541e+57
          1392.20500	         7.92353e+57
          1393.01130	         8.97719e+57
          1393.81760	         8.01756e+57
          1394.62390	         7.32849e+57
          1395.43020	         6.84030e+57
          1396.23650	         7.66307e+57
          1397.04280	         8.62804e+57
          1397.84910	         8.51800e+57
          1398.65540	         9.58868e+57
          1399.46170	         8.60806e+57
          1400.26800	         8.27189e+57
          1401.07430	         7.86646e+57
          1401.88060	         8.42455e+57
          1402.68690	         1.03364e+58
          1403.49320	         1.02465e+58
          1404.29950	         9.65102e+57
          1405.10580	         1.07116e+58
          1405.91210	         1.06678e+58
          1406.71840	         9.71393e+57
          1407.52470	         1.00924e+58
          1408.33100	         8.60990e+57
          1409.13730	         9.45626e+57
          1409.94360	         1.15624e+58
          1410.74990	         1.19411e+58
          1411.55620	         9.79268e+57
          1412.36250	         9.09675e+57
          1413.16880	         9.11632e+57
          1413.97510	         8.29597e+57
          1414.78140	         9.50566e+57
          1415.58770	         1.12237e+58
          1416.39400	         1.11262e+58
          1417.20030	         9.60861e+57
          1418.00660	         7.10431e+57
          1418.81290	         9.45801e+57
          1419.61920	         1.08482e+58
          1420.42550	         1.18463e+58
          1421.23180	         1.38572e+58
          1422.03810	         1.31238e+58
          1422.84440	         1.05826e+58
          1423.65070	         1.15636e+58
          1424.45700	         1.01704e+58
          1425.26330	         7.82245e+57
          1426.06960	         8.77973e+57
          1426.87590	         9.85167e+57
          1427.68220	         9.56609e+57
          1428.48850	         9.15951e+57
          1429.29480	         9.41346e+57
          1430.10110	         8.88137e+57
          1430.90740	         8.64073e+57
          1431.71370	         9.03035e+57
          1432.52000	         9.18168e+57
          1433.32630	         7.44966e+57
          1434.13260	         7.36403e+57
          1434.93890	         8.41299e+57
          1435.74520	         9.28889e+57
          1436.55150	         9.75356e+57
          1437.35780	         9.76319e+57
          1438.16410	         9.88791e+57
          1438.97040	         8.83737e+57
          1439.77670	         8.80903e+57
          1440.58300	         9.78950e+57
          1441.38930	         9.28814e+57
          1442.19560	         1.01776e+58
          1443.00190	         1.02092e+58
          1443.80820	         1.04565e+58
          1444.61450	         1.04209e+58
          1445.42080	         9.69122e+57
          1446.22710	         1.02932e+58
          1447.03340	         9.44954e+57
          1447.83970	         1.07626e+58
          1448.64600	         1.07410e+58
          1449.45230	         1.00056e+58
          1450.25860	         9.59168e+57
          1451.06490	         8.16914e+57
          1451.87120	         6.88573e+57
          1452.67750	         6.91954e+57
          1453.48380	         9.17269e+57
          1454.29010	         9.05371e+57
          1455.09640	         8.48059e+57
          1455.90270	         1.00416e+58
          1456.70900	         9.72179e+57
          1457.51530	         9.58574e+57
          1458.32160	         1.10465e+58
          1459.12790	         1.04559e+58
          1459.93420	         1.00345e+58
          1460.74050	         8.05627e+57
          1461.54680	         7.80263e+57
          1462.35310	         8.68937e+57
          1463.15940	         9.56881e+57
          1463.96570	         1.04388e+58
          1464.77200	         1.10288e+58
          1465.57830	         1.07459e+58
          1466.38460	         8.70546e+57
          1467.19090	         7.80859e+57
          1467.99720	         8.19843e+57
          1468.80350	         9.53888e+57
          1469.60980	         1.02889e+58
          1470.41610	         9.84105e+57
          1471.22240	         9.20542e+57
          1472.02870	         9.40128e+57
          1472.83500	         9.50555e+57
          1473.64130	         1.05388e+58
          1474.44760	         1.09401e+58
          1475.25390	         1.01640e+58
          1476.06020	         8.84731e+57
          1476.86650	         7.97698e+57
          1477.67280	         7.84935e+57
          1478.47910	         7.42957e+57
          1479.28540	         7.90406e+57
          1480.09170	         8.88005e+57
          1480.89800	         7.66053e+57
          1481.70430	         8.15499e+57
          1482.51060	         8.75283e+57
          1483.31690	         8.20705e+57
          1484.12320	         7.80598e+57
          1484.92950	         7.51372e+57
          1485.73580	         8.22396e+57
          1486.54210	         8.96151e+57
          1487.34840	         9.19389e+57
          1488.15470	         8.46136e+57
          1488.96100	         9.47129e+57
          1489.76730	         9.86609e+57
