#sample_155_stacked_spectrum_rest_UV-bands_median_H-alpha_noDC.txt
#median Lum: 1.69723e+42
#Rest-frame wavelength (A) | Luminosity (erg/s/A)
#
          1110.00000	         0.00000e+00
          1110.80630	         4.39952e+59
          1111.61260	         2.96765e+59
          1112.41890	         1.57426e+59
          1113.22520	        -3.65854e+57
          1114.03150	        -1.55461e+59
          1114.83780	         1.72943e+59
          1115.64410	         2.07921e+58
          1116.45040	         1.48902e+59
          1117.25670	         8.41366e+58
          1118.06300	         6.76024e+58
          1118.86930	        -3.54248e+58
          1119.67560	         1.57664e+59
          1120.48190	        -3.11696e+58
          1121.28820	        -2.09297e+59
          1122.09450	        -2.87005e+58
          1122.90080	         5.40887e+58
          1123.70710	         6.20590e+58
          1124.51340	         4.11966e+58
          1125.31970	        -5.16099e+58
          1126.12600	        -7.06257e+58
          1126.93230	        -7.18195e+58
          1127.73860	        -6.34345e+58
          1128.54490	        -6.24586e+57
          1129.35120	         2.30819e+58
          1130.15750	        -2.24149e+58
          1130.96380	         2.88221e+58
          1131.77010	         5.95129e+58
          1132.57640	         6.38826e+58
          1133.38270	         5.40704e+58
          1134.18900	         2.12758e+57
          1134.99530	         1.68626e+58
          1135.80160	         1.18397e+58
          1136.60790	         9.62631e+57
          1137.41420	         9.78108e+57
          1138.22050	         1.12035e+58
          1139.02680	         2.89731e+58
          1139.83310	         3.26772e+58
          1140.63940	         1.94490e+58
          1141.44570	        -6.51627e+57
          1142.25200	        -2.73226e+57
          1143.05830	         1.33807e+58
          1143.86460	         3.88560e+58
          1144.67090	         2.06346e+58
          1145.47720	         1.43495e+58
          1146.28350	         1.52237e+58
          1147.08980	         1.59884e+58
          1147.89610	         3.33717e+58
          1148.70240	         3.30828e+58
          1149.50870	         1.93805e+58
          1150.31500	         2.04662e+57
          1151.12130	         2.67266e+57
          1151.92760	        -2.26493e+57
          1152.73390	        -1.76505e+57
          1153.54020	         9.70905e+56
          1154.34650	         1.68754e+58
          1155.15280	         1.48067e+58
          1155.95910	         9.86553e+57
          1156.76540	         7.52752e+57
          1157.57170	         1.55741e+57
          1158.37800	         3.40204e+57
          1159.18430	        -2.19734e+57
          1159.99060	         9.40918e+57
          1160.79690	         4.13581e+57
          1161.60320	         1.38848e+58
          1162.40950	         1.33109e+58
          1163.21580	         2.22846e+58
          1164.02210	         1.26727e+58
          1164.82840	         8.89319e+57
          1165.63470	         2.12582e+58
          1166.44100	         2.86737e+58
          1167.24730	         2.30944e+58
          1168.05360	         1.14034e+58
          1168.85990	         5.83374e+57
          1169.66620	        -9.79434e+56
          1170.47250	         2.92001e+57
          1171.27880	         6.96201e+57
          1172.08510	         1.49173e+58
          1172.89140	         1.41996e+58
          1173.69770	         7.09114e+57
          1174.50400	         6.11429e+57
          1175.31030	         1.15407e+58
          1176.11660	         1.29791e+58
          1176.92290	         1.19384e+58
          1177.72920	         1.54390e+58
          1178.53550	         7.91058e+57
          1179.34180	         5.49557e+57
          1180.14810	         1.04739e+58
          1180.95440	         6.42448e+57
          1181.76070	         3.36922e+57
          1182.56700	         6.71301e+57
          1183.37330	         4.91045e+57
          1184.17960	         1.17723e+58
          1184.98590	         1.41919e+58
          1185.79220	         3.67293e+57
          1186.59850	         8.61859e+57
          1187.40480	         1.38285e+58
          1188.21110	         1.54200e+58
          1189.01740	         8.41669e+57
          1189.82370	         7.25764e+57
          1190.63000	         1.29204e+58
          1191.43630	         1.30113e+58
          1192.24260	         7.28052e+57
          1193.04890	         1.04134e+58
          1193.85520	         1.05334e+58
          1194.66150	         4.14117e+57
          1195.46780	         9.75512e+57
          1196.27410	         1.37364e+58
          1197.08040	         7.05209e+57
          1197.88670	         1.16005e+58
          1198.69300	         1.56014e+58
          1199.49930	         1.38738e+58
          1200.30560	         1.05708e+58
          1201.11190	         1.36522e+58
          1201.91820	         1.48033e+58
          1202.72450	         1.08293e+58
          1203.53080	         1.18550e+58
          1204.33710	         7.34842e+57
          1205.14340	         9.83859e+57
          1205.94970	         1.09101e+58
          1206.75600	         5.80025e+57
          1207.56230	         2.96608e+57
          1208.36860	         4.11344e+57
          1209.17490	         3.74426e+57
          1209.98120	         6.69548e+57
          1210.78750	         8.45849e+57
          1211.59380	         1.40814e+58
          1212.40010	         1.89357e+58
          1213.20640	         1.95637e+58
          1214.01270	         1.92010e+58
          1214.81900	         2.19543e+58
          1215.62530	         4.18432e+58
          1216.43160	         9.06523e+58
          1217.23790	         1.50315e+59
          1218.04420	         1.15375e+59
          1218.85050	         8.90521e+58
          1219.65680	         5.89321e+58
          1220.46310	         3.32367e+58
          1221.26940	         2.43035e+58
          1222.07570	         1.38855e+58
          1222.88200	         9.50180e+57
          1223.68830	         8.52928e+57
          1224.49460	         9.60617e+57
          1225.30090	         9.42122e+57
          1226.10720	         9.13517e+57
          1226.91350	         7.14569e+57
          1227.71980	         1.05896e+58
          1228.52610	         1.33988e+58
          1229.33240	         1.29944e+58
          1230.13870	         1.23261e+58
          1230.94500	         8.68522e+57
          1231.75130	         6.24060e+57
          1232.55760	         1.01739e+58
          1233.36390	         1.02979e+58
          1234.17020	         8.51989e+57
          1234.97650	         7.47785e+57
          1235.78280	         7.38740e+57
          1236.58910	         9.43495e+57
          1237.39540	         8.57330e+57
          1238.20170	         6.99254e+57
          1239.00800	         1.13493e+58
          1239.81430	         1.27794e+58
          1240.62060	         8.44183e+57
          1241.42690	         8.59465e+57
          1242.23320	         1.10015e+58
          1243.03950	         8.44833e+57
          1243.84580	         8.29430e+57
          1244.65210	         1.02351e+58
          1245.45840	         8.42341e+57
          1246.26470	         6.28631e+57
          1247.07100	         4.89960e+57
          1247.87730	         5.98163e+57
          1248.68360	         5.43713e+57
          1249.48990	         6.50147e+57
          1250.29620	         9.64938e+57
          1251.10250	         8.30030e+57
          1251.90880	         3.17761e+57
          1252.71510	         2.74431e+57
          1253.52140	         7.45111e+57
          1254.32770	         1.05282e+58
          1255.13400	         1.31704e+58
          1255.94030	         1.11337e+58
          1256.74660	         1.03051e+58
          1257.55290	         1.10692e+58
          1258.35920	         8.85975e+57
          1259.16550	         4.47085e+57
          1259.97180	         4.77797e+57
          1260.77810	         7.64550e+57
          1261.58440	         1.10805e+58
          1262.39070	         7.05020e+57
          1263.19700	         7.27159e+57
          1264.00330	         1.03587e+58
          1264.80960	         9.25950e+57
          1265.61590	         1.02639e+58
          1266.42220	         1.11480e+58
          1267.22850	         1.01974e+58
          1268.03480	         1.34739e+58
          1268.84110	         1.36139e+58
          1269.64740	         1.07084e+58
          1270.45370	         1.35798e+58
          1271.26000	         1.36950e+58
          1272.06630	         1.24349e+58
          1272.87260	         1.27761e+58
          1273.67890	         1.26715e+58
          1274.48520	         1.09049e+58
          1275.29150	         1.17999e+58
          1276.09780	         1.17474e+58
          1276.90410	         1.25749e+58
          1277.71040	         1.23760e+58
          1278.51670	         1.39597e+58
          1279.32300	         1.50396e+58
          1280.12930	         1.24671e+58
          1280.93560	         1.15819e+58
          1281.74190	         1.17295e+58
          1282.54820	         1.28048e+58
          1283.35450	         1.04859e+58
          1284.16080	         1.10761e+58
          1284.96710	         1.31733e+58
          1285.77340	         1.22922e+58
          1286.57970	         9.14285e+57
          1287.38600	         1.09175e+58
          1288.19230	         1.56480e+58
          1288.99860	         1.45733e+58
          1289.80490	         1.13798e+58
          1290.61120	         1.39094e+58
          1291.41750	         1.55329e+58
          1292.22380	         1.31458e+58
          1293.03010	         1.15126e+58
          1293.83640	         1.32402e+58
          1294.64270	         1.10594e+58
          1295.44900	         6.41049e+57
          1296.25530	         7.63537e+57
          1297.06160	         9.69485e+57
          1297.86790	         9.58243e+57
          1298.67420	         9.74585e+57
          1299.48050	         1.08809e+58
          1300.28680	         1.10003e+58
          1301.09310	         7.28490e+57
          1301.89940	         2.65854e+57
          1302.70570	         4.69595e+57
          1303.51200	         7.20646e+57
          1304.31830	         9.66016e+57
          1305.12460	         9.82680e+57
          1305.93090	         1.11447e+58
          1306.73720	         1.44063e+58
          1307.54350	         1.44957e+58
          1308.34980	         1.34438e+58
          1309.15610	         1.55474e+58
          1309.96240	         1.48876e+58
          1310.76870	         1.31248e+58
          1311.57500	         1.19109e+58
          1312.38130	         1.28563e+58
          1313.18760	         1.40111e+58
          1313.99390	         1.33125e+58
          1314.80020	         1.44567e+58
          1315.60650	         1.63470e+58
          1316.41280	         1.22777e+58
          1317.21910	         1.07734e+58
          1318.02540	         1.20031e+58
          1318.83170	         1.22544e+58
          1319.63800	         1.20041e+58
          1320.44430	         1.18680e+58
          1321.25060	         1.27256e+58
          1322.05690	         1.41316e+58
          1322.86320	         1.34373e+58
          1323.66950	         1.08506e+58
          1324.47580	         9.46468e+57
          1325.28210	         1.02031e+58
          1326.08840	         1.05588e+58
          1326.89470	         1.19287e+58
          1327.70100	         9.87801e+57
          1328.50730	         7.79616e+57
          1329.31360	         6.93234e+57
          1330.11990	         7.65371e+57
          1330.92620	         8.92517e+57
          1331.73250	         1.07298e+58
          1332.53880	         1.07834e+58
          1333.34510	         9.34596e+57
          1334.15140	         9.58207e+57
          1334.95770	         8.89920e+57
          1335.76400	         9.71742e+57
          1336.57030	         1.02127e+58
          1337.37660	         1.00381e+58
          1338.18290	         1.01480e+58
          1338.98920	         1.15422e+58
          1339.79550	         1.35576e+58
          1340.60180	         1.36299e+58
          1341.40810	         1.51875e+58
          1342.21440	         1.20277e+58
          1343.02070	         9.31657e+57
          1343.82700	         1.25538e+58
          1344.63330	         1.34659e+58
          1345.43960	         1.40000e+58
          1346.24590	         1.14377e+58
          1347.05220	         1.19799e+58
          1347.85850	         1.08419e+58
          1348.66480	         1.09818e+58
          1349.47110	         1.21517e+58
          1350.27740	         1.25401e+58
          1351.08370	         1.23212e+58
          1351.89000	         1.28305e+58
          1352.69630	         1.13765e+58
          1353.50260	         1.09135e+58
          1354.30890	         1.19865e+58
          1355.11520	         1.13580e+58
          1355.92150	         9.88354e+57
          1356.72780	         1.01821e+58
          1357.53410	         1.05711e+58
          1358.34040	         1.12017e+58
          1359.14670	         1.02904e+58
          1359.95300	         1.01464e+58
          1360.75930	         1.17941e+58
          1361.56560	         1.15993e+58
          1362.37190	         1.12484e+58
          1363.17820	         1.12216e+58
          1363.98450	         1.07458e+58
          1364.79080	         1.13332e+58
          1365.59710	         1.28473e+58
          1366.40340	         1.12768e+58
          1367.20970	         8.35999e+57
          1368.01600	         9.07089e+57
          1368.82230	         1.09439e+58
          1369.62860	         1.08679e+58
          1370.43490	         8.30986e+57
          1371.24120	         8.07104e+57
          1372.04750	         7.38003e+57
          1372.85380	         9.37594e+57
          1373.66010	         9.92583e+57
          1374.46640	         1.12526e+58
          1375.27270	         1.04542e+58
          1376.07900	         9.35621e+57
          1376.88530	         8.91426e+57
          1377.69160	         9.13331e+57
          1378.49790	         8.60765e+57
          1379.30420	         8.51116e+57
          1380.11050	         1.00704e+58
          1380.91680	         8.56463e+57
          1381.72310	         8.07866e+57
          1382.52940	         8.50204e+57
          1383.33570	         8.08477e+57
          1384.14200	         1.02986e+58
          1384.94830	         9.99612e+57
          1385.75460	         8.56476e+57
          1386.56090	         1.00726e+58
          1387.36720	         1.01068e+58
          1388.17350	         1.32421e+58
          1388.97980	         1.15385e+58
          1389.78610	         8.06093e+57
          1390.59240	         8.15318e+57
          1391.39870	         6.09265e+57
          1392.20500	         6.98586e+57
          1393.01130	         7.51731e+57
          1393.81760	         5.81954e+57
          1394.62390	         6.23764e+57
          1395.43020	         6.06651e+57
          1396.23650	         6.98820e+57
          1397.04280	         7.98841e+57
          1397.84910	         9.92241e+57
          1398.65540	         1.07423e+58
          1399.46170	         1.01533e+58
          1400.26800	         8.41778e+57
          1401.07430	         7.56210e+57
          1401.88060	         9.39299e+57
          1402.68690	         1.06019e+58
          1403.49320	         9.98221e+57
          1404.29950	         8.71211e+57
          1405.10580	         9.84532e+57
          1405.91210	         1.10906e+58
          1406.71840	         9.94488e+57
          1407.52470	         1.02134e+58
          1408.33100	         1.06531e+58
          1409.13730	         1.21153e+58
          1409.94360	         1.20124e+58
          1410.74990	         1.02066e+58
          1411.55620	         9.17296e+57
          1412.36250	         9.67740e+57
          1413.16880	         9.21783e+57
          1413.97510	         8.27745e+57
          1414.78140	         9.66713e+57
          1415.58770	         1.06036e+58
          1416.39400	         9.95132e+57
          1417.20030	         9.60120e+57
          1418.00660	         8.17520e+57
          1418.81290	         9.57734e+57
          1419.61920	         1.09766e+58
          1420.42550	         1.17557e+58
          1421.23180	         1.36864e+58
          1422.03810	         1.34999e+58
          1422.84440	         1.05206e+58
          1423.65070	         1.19356e+58
          1424.45700	         1.13317e+58
          1425.26330	         7.92809e+57
          1426.06960	         8.06803e+57
          1426.87590	         9.20303e+57
          1427.68220	         1.08139e+58
          1428.48850	         1.16546e+58
          1429.29480	         1.08151e+58
          1430.10110	         9.78572e+57
          1430.90740	         9.36246e+57
          1431.71370	         8.35662e+57
          1432.52000	         7.87646e+57
          1433.32630	         6.93741e+57
          1434.13260	         7.43928e+57
          1434.93890	         8.31225e+57
          1435.74520	         8.90257e+57
          1436.55150	         9.15380e+57
          1437.35780	         9.23340e+57
          1438.16410	         9.46049e+57
          1438.97040	         8.32447e+57
          1439.77670	         7.84546e+57
          1440.58300	         9.11423e+57
          1441.38930	         1.07198e+58
          1442.19560	         1.00653e+58
          1443.00190	         9.53910e+57
          1443.80820	         1.02148e+58
          1444.61450	         9.31082e+57
          1445.42080	         8.34060e+57
          1446.22710	         1.15717e+58
          1447.03340	         1.13860e+58
          1447.83970	         9.42467e+57
          1448.64600	         1.00676e+58
          1449.45230	         1.08126e+58
          1450.25860	         1.01117e+58
          1451.06490	         9.16902e+57
          1451.87120	         7.18362e+57
          1452.67750	         6.25689e+57
          1453.48380	         8.29514e+57
          1454.29010	         7.67527e+57
          1455.09640	         8.02202e+57
          1455.90270	         9.29810e+57
          1456.70900	         8.41117e+57
          1457.51530	         9.45867e+57
          1458.32160	         1.22224e+58
          1459.12790	         1.20324e+58
          1459.93420	         1.06435e+58
          1460.74050	         7.69159e+57
          1461.54680	         7.20727e+57
          1462.35310	         8.29881e+57
          1463.15940	         9.39446e+57
          1463.96570	         1.07115e+58
          1464.77200	         1.13867e+58
          1465.57830	         1.08108e+58
          1466.38460	         9.47218e+57
          1467.19090	         8.16736e+57
          1467.99720	         8.22263e+57
          1468.80350	         9.68652e+57
          1469.60980	         1.05449e+58
          1470.41610	         1.10406e+58
          1471.22240	         1.00426e+58
          1472.02870	         9.34781e+57
          1472.83500	         1.00140e+58
          1473.64130	         8.91009e+57
          1474.44760	         8.94249e+57
          1475.25390	         9.02332e+57
          1476.06020	         7.47964e+57
          1476.86650	         7.78538e+57
          1477.67280	         8.91450e+57
          1478.47910	         7.84369e+57
          1479.28540	         7.86933e+57
          1480.09170	         8.65199e+57
          1480.89800	         8.32242e+57
          1481.70430	         8.56663e+57
          1482.51060	         8.97572e+57
          1483.31690	         7.70597e+57
          1484.12320	         7.91215e+57
          1484.92950	         7.31716e+57
          1485.73580	         8.52293e+57
          1486.54210	         8.21139e+57
          1487.34840	         7.81025e+57
          1488.15470	         8.48858e+57
          1488.96100	         8.81480e+57
          1489.76730	         9.46510e+57
