#sample_197_stacked_spectrum_rest_UV-bands_median_H-alpha_noDC.txt
#median Lum: 1.71585e+42
#Rest-frame wavelength (A) | Luminosity (erg/s/A)
#
          1110.00000	         0.00000e+00
          1110.80630	        -2.25925e+59
          1111.61260	        -4.14509e+58
          1112.41890	         1.09190e+59
          1113.22520	         2.47413e+59
          1114.03150	         1.98215e+59
          1114.83780	         2.28193e+59
          1115.64410	         9.81537e+58
          1116.45040	         2.63844e+59
          1117.25670	         3.82585e+58
          1118.06300	        -8.98503e+57
          1118.86930	        -6.77522e+58
          1119.67560	         6.13825e+58
          1120.48190	         4.15534e+58
          1121.28820	        -7.85722e+58
          1122.09450	        -5.10030e+58
          1122.90080	         1.24284e+57
          1123.70710	         3.26639e+58
          1124.51340	         5.03581e+58
          1125.31970	         1.76811e+58
          1126.12600	        -5.70081e+57
          1126.93230	        -4.37689e+58
          1127.73860	        -1.16665e+59
          1128.54490	        -4.15822e+58
          1129.35120	         1.24813e+57
          1130.15750	        -1.84563e+58
          1130.96380	        -7.09423e+57
          1131.77010	         1.95343e+58
          1132.57640	         1.03567e+58
          1133.38270	         2.87086e+58
          1134.18900	         3.16623e+58
          1134.99530	         1.73852e+58
          1135.80160	         1.82642e+58
          1136.60790	         2.65323e+58
          1137.41420	         1.22771e+58
          1138.22050	         2.26618e+58
          1139.02680	         1.28772e+58
          1139.83310	         1.61240e+58
          1140.63940	         1.53849e+58
          1141.44570	        -1.44870e+58
          1142.25200	         1.96197e+58
          1143.05830	         3.96245e+58
          1143.86460	         2.05837e+58
          1144.67090	         2.86163e+58
          1145.47720	         1.07441e+58
          1146.28350	         1.95281e+58
          1147.08980	         1.90435e+58
          1147.89610	         1.04403e+58
          1148.70240	         2.72824e+58
          1149.50870	         2.62854e+58
          1150.31500	         8.53477e+57
          1151.12130	        -9.54247e+56
          1151.92760	        -1.06464e+57
          1152.73390	         1.47169e+57
          1153.54020	         1.18329e+57
          1154.34650	         1.84869e+58
          1155.15280	         7.20059e+57
          1155.95910	         8.92947e+57
          1156.76540	         7.29945e+57
          1157.57170	         2.74346e+57
          1158.37800	        -1.92251e+57
          1159.18430	         9.82516e+56
          1159.99060	         1.64433e+58
          1160.79690	         4.44462e+57
          1161.60320	         4.92207e+57
          1162.40950	         1.21663e+58
          1163.21580	         2.16752e+58
          1164.02210	         1.80615e+58
          1164.82840	         1.19604e+58
          1165.63470	         1.80397e+58
          1166.44100	         2.60350e+58
          1167.24730	         2.26180e+58
          1168.05360	         1.08554e+58
          1168.85990	         8.89287e+57
          1169.66620	         1.46187e+58
          1170.47250	         1.93988e+58
          1171.27880	         1.29882e+58
          1172.08510	         1.33468e+58
          1172.89140	         8.04867e+57
          1173.69770	         6.78829e+57
          1174.50400	         8.00695e+57
          1175.31030	         1.77319e+58
          1176.11660	         1.71328e+58
          1176.92290	         1.32789e+58
          1177.72920	         1.12062e+58
          1178.53550	         8.92041e+57
          1179.34180	         4.93454e+57
          1180.14810	         3.05556e+57
          1180.95440	         9.19293e+57
          1181.76070	         9.27404e+57
          1182.56700	         5.61425e+57
          1183.37330	         6.20386e+57
          1184.17960	         9.37463e+57
          1184.98590	         9.41517e+57
          1185.79220	         1.01627e+58
          1186.59850	         9.07368e+57
          1187.40480	         9.07361e+57
          1188.21110	         1.24031e+58
          1189.01740	         5.55182e+57
          1189.82370	         8.14084e+57
          1190.63000	         1.25727e+58
          1191.43630	         1.38791e+58
          1192.24260	         8.72178e+57
          1193.04890	         8.26430e+57
          1193.85520	         5.87165e+57
          1194.66150	         8.93790e+57
          1195.46780	         1.61523e+58
          1196.27410	         2.00781e+58
          1197.08040	         1.55494e+58
          1197.88670	         1.65113e+58
          1198.69300	         1.25397e+58
          1199.49930	         1.53760e+58
          1200.30560	         1.41657e+58
          1201.11190	         1.04576e+58
          1201.91820	         7.35115e+57
          1202.72450	         1.02109e+58
          1203.53080	         7.79337e+57
          1204.33710	         8.83759e+57
          1205.14340	         6.82211e+57
          1205.94970	         8.65805e+57
          1206.75600	         6.08570e+57
          1207.56230	         3.30547e+57
          1208.36860	         8.83234e+57
          1209.17490	         7.31571e+57
          1209.98120	         6.20168e+57
          1210.78750	         1.32126e+58
          1211.59380	         1.47093e+58
          1212.40010	         1.78468e+58
          1213.20640	         2.03716e+58
          1214.01270	         2.07629e+58
          1214.81900	         2.55969e+58
          1215.62530	         4.32151e+58
          1216.43160	         9.30245e+58
          1217.23790	         1.52911e+59
          1218.04420	         1.15066e+59
          1218.85050	         8.57463e+58
          1219.65680	         5.86710e+58
          1220.46310	         3.53044e+58
          1221.26940	         2.23944e+58
          1222.07570	         1.39430e+58
          1222.88200	         1.25851e+58
          1223.68830	         1.27481e+58
          1224.49460	         7.53037e+57
          1225.30090	         7.15468e+57
          1226.10720	         5.52332e+57
          1226.91350	         5.95040e+57
          1227.71980	         7.23832e+57
          1228.52610	         1.14521e+58
          1229.33240	         1.17256e+58
          1230.13870	         6.48541e+57
          1230.94500	         4.44315e+57
          1231.75130	         3.72229e+57
          1232.55760	         6.86529e+57
          1233.36390	         9.72107e+57
          1234.17020	         7.67176e+57
          1234.97650	         8.63220e+57
          1235.78280	         6.34032e+57
          1236.58910	         8.15924e+57
          1237.39540	         9.92999e+57
          1238.20170	         1.01559e+58
          1239.00800	         1.36019e+58
          1239.81430	         1.46924e+58
          1240.62060	         1.30594e+58
          1241.42690	         1.39717e+58
          1242.23320	         1.14366e+58
          1243.03950	         6.82587e+57
          1243.84580	         6.48774e+57
          1244.65210	         8.51053e+57
          1245.45840	         1.21726e+58
          1246.26470	         1.27848e+58
          1247.07100	         7.78138e+57
          1247.87730	         7.03965e+57
          1248.68360	         4.73069e+57
          1249.48990	         7.10887e+57
          1250.29620	         1.04309e+58
          1251.10250	         7.42196e+57
          1251.90880	         3.53012e+57
          1252.71510	         4.48707e+57
          1253.52140	         6.97118e+57
          1254.32770	         9.03961e+57
          1255.13400	         9.65422e+57
          1255.94030	         8.48221e+57
          1256.74660	         8.55844e+57
          1257.55290	         9.69053e+57
          1258.35920	         8.86477e+57
          1259.16550	         5.81274e+57
          1259.97180	         4.58210e+57
          1260.77810	         7.40381e+57
          1261.58440	         1.30437e+58
          1262.39070	         1.12968e+58
          1263.19700	         8.82263e+57
          1264.00330	         8.61798e+57
          1264.80960	         1.04605e+58
          1265.61590	         1.16153e+58
          1266.42220	         1.19630e+58
          1267.22850	         1.18551e+58
          1268.03480	         1.43587e+58
          1268.84110	         1.31662e+58
          1269.64740	         1.29108e+58
          1270.45370	         1.40777e+58
          1271.26000	         1.21680e+58
          1272.06630	         1.25280e+58
          1272.87260	         1.23501e+58
          1273.67890	         1.34843e+58
          1274.48520	         1.25998e+58
          1275.29150	         1.17044e+58
          1276.09780	         1.12047e+58
          1276.90410	         1.25586e+58
          1277.71040	         1.24369e+58
          1278.51670	         1.14901e+58
          1279.32300	         1.16789e+58
          1280.12930	         1.12662e+58
          1280.93560	         1.13059e+58
          1281.74190	         1.17563e+58
          1282.54820	         1.27438e+58
          1283.35450	         1.09151e+58
          1284.16080	         1.24703e+58
          1284.96710	         1.50148e+58
          1285.77340	         1.05445e+58
          1286.57970	         8.67362e+57
          1287.38600	         1.43765e+58
          1288.19230	         1.88076e+58
          1288.99860	         1.77631e+58
          1289.80490	         1.31287e+58
          1290.61120	         1.21816e+58
          1291.41750	         1.33222e+58
          1292.22380	         1.21709e+58
          1293.03010	         1.12588e+58
          1293.83640	         1.16438e+58
          1294.64270	         9.91657e+57
          1295.44900	         7.32935e+57
          1296.25530	         7.73241e+57
          1297.06160	         1.05940e+58
          1297.86790	         1.13630e+58
          1298.67420	         1.10652e+58
          1299.48050	         9.09528e+57
          1300.28680	         9.55155e+57
          1301.09310	         9.16381e+57
          1301.89940	         4.44296e+57
          1302.70570	         5.39632e+57
          1303.51200	         6.98203e+57
          1304.31830	         9.04583e+57
          1305.12460	         1.03412e+58
          1305.93090	         1.09559e+58
          1306.73720	         1.31844e+58
          1307.54350	         1.47940e+58
          1308.34980	         1.46435e+58
          1309.15610	         1.48006e+58
          1309.96240	         1.43075e+58
          1310.76870	         1.27830e+58
          1311.57500	         1.17560e+58
          1312.38130	         1.16720e+58
          1313.18760	         1.34509e+58
          1313.99390	         1.57494e+58
          1314.80020	         1.68082e+58
          1315.60650	         1.47132e+58
          1316.41280	         1.12976e+58
          1317.21910	         9.01185e+57
          1318.02540	         1.18501e+58
          1318.83170	         1.28307e+58
          1319.63800	         1.20101e+58
          1320.44430	         1.14700e+58
          1321.25060	         1.29140e+58
          1322.05690	         1.31717e+58
          1322.86320	         1.16253e+58
          1323.66950	         9.29141e+57
          1324.47580	         8.90032e+57
          1325.28210	         9.56389e+57
          1326.08840	         1.16140e+58
          1326.89470	         1.30251e+58
          1327.70100	         1.12512e+58
          1328.50730	         9.91552e+57
          1329.31360	         9.75282e+57
          1330.11990	         9.35394e+57
          1330.92620	         8.78459e+57
          1331.73250	         1.08673e+58
          1332.53880	         1.02925e+58
          1333.34510	         8.51307e+57
          1334.15140	         8.38889e+57
          1334.95770	         8.74249e+57
          1335.76400	         1.02830e+58
          1336.57030	         1.12844e+58
          1337.37660	         1.14233e+58
          1338.18290	         1.03905e+58
          1338.98920	         9.86166e+57
          1339.79550	         9.67614e+57
          1340.60180	         1.12074e+58
          1341.40810	         1.28666e+58
          1342.21440	         1.18578e+58
          1343.02070	         1.19919e+58
          1343.82700	         1.14327e+58
          1344.63330	         1.31552e+58
          1345.43960	         1.40813e+58
          1346.24590	         1.10569e+58
          1347.05220	         1.10210e+58
          1347.85850	         1.11235e+58
          1348.66480	         1.47943e+58
          1349.47110	         1.33087e+58
          1350.27740	         1.21860e+58
          1351.08370	         1.23145e+58
          1351.89000	         1.11167e+58
          1352.69630	         9.93261e+57
          1353.50260	         1.04818e+58
          1354.30890	         1.20969e+58
          1355.11520	         1.17864e+58
          1355.92150	         1.15379e+58
          1356.72780	         1.08375e+58
          1357.53410	         9.36969e+57
          1358.34040	         1.03309e+58
          1359.14670	         1.05521e+58
          1359.95300	         1.03423e+58
          1360.75930	         1.12827e+58
          1361.56560	         1.15925e+58
          1362.37190	         1.17375e+58
          1363.17820	         1.13597e+58
          1363.98450	         1.21510e+58
          1364.79080	         1.25458e+58
          1365.59710	         1.22367e+58
          1366.40340	         1.11659e+58
          1367.20970	         1.05998e+58
          1368.01600	         1.04486e+58
          1368.82230	         9.37438e+57
          1369.62860	         8.62172e+57
          1370.43490	         9.64393e+57
          1371.24120	         1.04817e+58
          1372.04750	         9.94636e+57
          1372.85380	         1.09330e+58
          1373.66010	         9.76723e+57
          1374.46640	         8.77002e+57
          1375.27270	         9.39303e+57
          1376.07900	         8.36342e+57
          1376.88530	         7.83669e+57
          1377.69160	         7.64162e+57
          1378.49790	         7.46002e+57
          1379.30420	         7.10746e+57
          1380.11050	         7.04311e+57
          1380.91680	         8.31453e+57
          1381.72310	         8.67702e+57
          1382.52940	         8.69119e+57
          1383.33570	         7.61941e+57
          1384.14200	         8.53713e+57
          1384.94830	         1.02498e+58
          1385.75460	         9.78380e+57
          1386.56090	         1.05867e+58
          1387.36720	         1.06922e+58
          1388.17350	         1.24916e+58
          1388.97980	         1.27190e+58
          1389.78610	         1.13250e+58
          1390.59240	         9.24224e+57
          1391.39870	         8.27587e+57
          1392.20500	         8.14828e+57
          1393.01130	         8.21122e+57
          1393.81760	         8.33019e+57
          1394.62390	         7.27082e+57
          1395.43020	         6.28248e+57
          1396.23650	         7.34008e+57
          1397.04280	         7.17447e+57
          1397.84910	         7.23139e+57
          1398.65540	         8.90567e+57
          1399.46170	         1.03653e+58
          1400.26800	         7.44779e+57
          1401.07430	         6.35052e+57
          1401.88060	         7.33763e+57
          1402.68690	         9.66412e+57
          1403.49320	         9.63906e+57
          1404.29950	         1.01278e+58
          1405.10580	         9.93313e+57
          1405.91210	         1.02350e+58
          1406.71840	         1.06114e+58
          1407.52470	         9.63059e+57
          1408.33100	         9.63879e+57
          1409.13730	         1.14458e+58
          1409.94360	         1.14069e+58
          1410.74990	         1.04584e+58
          1411.55620	         1.04681e+58
          1412.36250	         1.02626e+58
          1413.16880	         9.82856e+57
          1413.97510	         9.91971e+57
          1414.78140	         9.01484e+57
          1415.58770	         9.00767e+57
          1416.39400	         1.02337e+58
          1417.20030	         1.03232e+58
          1418.00660	         9.88273e+57
          1418.81290	         1.11735e+58
          1419.61920	         1.12525e+58
          1420.42550	         1.35203e+58
          1421.23180	         1.43645e+58
          1422.03810	         1.24734e+58
          1422.84440	         1.19665e+58
          1423.65070	         1.42541e+58
          1424.45700	         1.10241e+58
          1425.26330	         7.99873e+57
          1426.06960	         8.67997e+57
          1426.87590	         1.05191e+58
          1427.68220	         1.08323e+58
          1428.48850	         1.02445e+58
          1429.29480	         1.08420e+58
          1430.10110	         1.09302e+58
          1430.90740	         8.79304e+57
          1431.71370	         9.39773e+57
          1432.52000	         9.71937e+57
          1433.32630	         8.08926e+57
          1434.13260	         8.72735e+57
          1434.93890	         8.43367e+57
          1435.74520	         8.93120e+57
          1436.55150	         8.62204e+57
          1437.35780	         8.47042e+57
          1438.16410	         9.12762e+57
          1438.97040	         8.48035e+57
          1439.77670	         7.50539e+57
          1440.58300	         8.93640e+57
          1441.38930	         9.70858e+57
          1442.19560	         1.01203e+58
          1443.00190	         1.13249e+58
          1443.80820	         1.16456e+58
          1444.61450	         1.00008e+58
          1445.42080	         9.37945e+57
          1446.22710	         1.10426e+58
          1447.03340	         9.81973e+57
          1447.83970	         8.98973e+57
          1448.64600	         9.81901e+57
          1449.45230	         9.78888e+57
          1450.25860	         9.58653e+57
          1451.06490	         8.62440e+57
          1451.87120	         8.35279e+57
          1452.67750	         7.87727e+57
          1453.48380	         7.80230e+57
          1454.29010	         7.16227e+57
          1455.09640	         7.74622e+57
          1455.90270	         9.67080e+57
          1456.70900	         8.77146e+57
          1457.51530	         8.90362e+57
          1458.32160	         1.24634e+58
          1459.12790	         1.25483e+58
          1459.93420	         1.04777e+58
          1460.74050	         8.43901e+57
          1461.54680	         8.88872e+57
          1462.35310	         9.64514e+57
          1463.15940	         1.14098e+58
          1463.96570	         1.15860e+58
          1464.77200	         1.16781e+58
          1465.57830	         1.09792e+58
          1466.38460	         9.23918e+57
          1467.19090	         8.45318e+57
          1467.99720	         8.89896e+57
          1468.80350	         9.54855e+57
          1469.60980	         9.70902e+57
          1470.41610	         1.03984e+58
          1471.22240	         9.04222e+57
          1472.02870	         8.93690e+57
          1472.83500	         9.69732e+57
          1473.64130	         1.01348e+58
          1474.44760	         9.85951e+57
          1475.25390	         9.28026e+57
          1476.06020	         9.82510e+57
          1476.86650	         8.82129e+57
          1477.67280	         7.90887e+57
          1478.47910	         7.03757e+57
          1479.28540	         6.51579e+57
          1480.09170	         8.18461e+57
          1480.89800	         8.89025e+57
          1481.70430	         8.80556e+57
          1482.51060	         7.48003e+57
          1483.31690	         7.10859e+57
          1484.12320	         7.50131e+57
          1484.92950	         7.22220e+57
          1485.73580	         7.94298e+57
          1486.54210	         8.87164e+57
          1487.34840	         9.19042e+57
          1488.15470	         8.94692e+57
          1488.96100	         8.57202e+57
          1489.76730	         9.24174e+57
