#sample_479_stacked_spectrum_rest_UV-bands_median_H-alpha_noDC.txt
#median Lum: 1.67126e+42
#Rest-frame wavelength (A) | Luminosity (erg/s/A)
#
          1110.00000	         0.00000e+00
          1110.80630	        -8.69060e+58
          1111.61260	         8.65574e+58
          1112.41890	         5.90649e+58
          1113.22520	        -4.40009e+57
          1114.03150	         3.72147e+58
          1114.83780	         3.23856e+59
          1115.64410	         1.97931e+59
          1116.45040	         1.89145e+59
          1117.25670	         8.44735e+58
          1118.06300	         1.44760e+59
          1118.86930	        -1.66480e+58
          1119.67560	         5.57445e+58
          1120.48190	         1.08288e+58
          1121.28820	        -1.65297e+59
          1122.09450	         9.23368e+58
          1122.90080	         1.00328e+59
          1123.70710	         3.00607e+58
          1124.51340	         1.04804e+59
          1125.31970	         6.87354e+58
          1126.12600	        -1.47854e+58
          1126.93230	        -1.62648e+58
          1127.73860	        -6.66258e+58
          1128.54490	         1.05708e+58
          1129.35120	         2.34199e+58
          1130.15750	         1.30615e+58
          1130.96380	         3.15682e+57
          1131.77010	         6.11966e+58
          1132.57640	         1.56377e+58
          1133.38270	        -6.84719e+57
          1134.18900	         2.06700e+58
          1134.99530	         1.34589e+58
          1135.80160	         3.69929e+58
          1136.60790	         3.13482e+58
          1137.41420	        -1.32309e+58
          1138.22050	         4.14036e+58
          1139.02680	         2.93683e+58
          1139.83310	         1.62530e+58
          1140.63940	         1.44542e+58
          1141.44570	        -9.24687e+57
          1142.25200	        -1.17911e+58
          1143.05830	         2.26552e+58
          1143.86460	         2.36046e+58
          1144.67090	         1.08943e+58
          1145.47720	        -3.78034e+57
          1146.28350	         1.38402e+58
          1147.08980	         1.30848e+58
          1147.89610	         1.72643e+58
          1148.70240	         1.26145e+58
          1149.50870	         2.54327e+58
          1150.31500	         1.51590e+58
          1151.12130	         9.77977e+56
          1151.92760	         5.86541e+57
          1152.73390	         6.73498e+57
          1153.54020	         1.70394e+58
          1154.34650	         2.20800e+58
          1155.15280	         2.04906e+58
          1155.95910	         2.01407e+58
          1156.76540	         1.49686e+58
          1157.57170	         4.87110e+57
          1158.37800	        -5.93715e+57
          1159.18430	        -3.47915e+57
          1159.99060	         3.33899e+57
          1160.79690	         7.10377e+57
          1161.60320	         1.20663e+58
          1162.40950	         1.46215e+58
          1163.21580	         1.67816e+58
          1164.02210	         1.76589e+58
          1164.82840	         1.29855e+58
          1165.63470	         2.38373e+58
          1166.44100	         1.78165e+58
          1167.24730	         7.98004e+57
          1168.05360	         7.03729e+57
          1168.85990	         1.84524e+57
          1169.66620	         5.27093e+57
          1170.47250	         1.71015e+58
          1171.27880	         1.41114e+58
          1172.08510	         1.52863e+58
          1172.89140	         1.32979e+58
          1173.69770	         9.96715e+57
          1174.50400	         1.35188e+58
          1175.31030	         1.49415e+58
          1176.11660	         1.29119e+58
          1176.92290	         1.76583e+58
          1177.72920	         1.22070e+58
          1178.53550	         9.19895e+57
          1179.34180	         5.12865e+57
          1180.14810	         5.30901e+57
          1180.95440	         8.78103e+57
          1181.76070	         6.12627e+57
          1182.56700	         9.73409e+57
          1183.37330	         6.83327e+57
          1184.17960	         8.83607e+57
          1184.98590	         5.16286e+57
          1185.79220	         3.02576e+57
          1186.59850	         6.76650e+57
          1187.40480	         9.52085e+57
          1188.21110	         1.58421e+58
          1189.01740	         1.66992e+58
          1189.82370	         1.10696e+58
          1190.63000	         8.63975e+57
          1191.43630	         8.69017e+57
          1192.24260	         8.47348e+57
          1193.04890	         1.35231e+58
          1193.85520	         9.62419e+57
          1194.66150	         4.83820e+57
          1195.46780	         8.54113e+57
          1196.27410	         1.67310e+58
          1197.08040	         1.18289e+58
          1197.88670	         1.38108e+58
          1198.69300	         1.69756e+58
          1199.49930	         1.82834e+58
          1200.30560	         1.45469e+58
          1201.11190	         1.32093e+58
          1201.91820	         1.40456e+58
          1202.72450	         1.10233e+58
          1203.53080	         1.52518e+58
          1204.33710	         1.07080e+58
          1205.14340	         4.86326e+57
          1205.94970	         3.64746e+57
          1206.75600	         5.24801e+57
          1207.56230	         6.39005e+57
          1208.36860	         4.48503e+57
          1209.17490	         5.79143e+57
          1209.98120	         2.71306e+57
          1210.78750	         7.12378e+57
          1211.59380	         1.17744e+58
          1212.40010	         1.76867e+58
          1213.20640	         1.88117e+58
          1214.01270	         1.90233e+58
          1214.81900	         2.47864e+58
          1215.62530	         4.54651e+58
          1216.43160	         8.85874e+58
          1217.23790	         1.48949e+59
          1218.04420	         1.17709e+59
          1218.85050	         8.73985e+58
          1219.65680	         5.52798e+58
          1220.46310	         3.03476e+58
          1221.26940	         2.18725e+58
          1222.07570	         1.73582e+58
          1222.88200	         1.61012e+58
          1223.68830	         1.10407e+58
          1224.49460	         7.24588e+57
          1225.30090	         7.02366e+57
          1226.10720	         6.21141e+57
          1226.91350	         5.89964e+57
          1227.71980	         8.31202e+57
          1228.52610	         9.35965e+57
          1229.33240	         5.51612e+57
          1230.13870	         4.83520e+57
          1230.94500	         8.24301e+57
          1231.75130	         6.33807e+57
          1232.55760	         7.89394e+57
          1233.36390	         1.05002e+58
          1234.17020	         1.09381e+58
          1234.97650	         8.01496e+57
          1235.78280	         7.57365e+57
          1236.58910	         1.05614e+58
          1237.39540	         1.25298e+58
          1238.20170	         1.04869e+58
          1239.00800	         1.13257e+58
          1239.81430	         1.37288e+58
          1240.62060	         9.87714e+57
          1241.42690	         1.04158e+58
          1242.23320	         1.23612e+58
          1243.03950	         8.31701e+57
          1243.84580	         7.35727e+57
          1244.65210	         9.27524e+57
          1245.45840	         9.61708e+57
          1246.26470	         1.07264e+58
          1247.07100	         6.76722e+57
          1247.87730	         6.41078e+57
          1248.68360	         8.62230e+57
          1249.48990	         8.99510e+57
          1250.29620	         8.74708e+57
          1251.10250	         7.97354e+57
          1251.90880	         7.13370e+57
          1252.71510	         7.58849e+57
          1253.52140	         7.47978e+57
          1254.32770	         1.16382e+58
          1255.13400	         1.38731e+58
          1255.94030	         1.01422e+58
          1256.74660	         9.11555e+57
          1257.55290	         1.08546e+58
          1258.35920	         9.09210e+57
          1259.16550	         4.60705e+57
          1259.97180	         3.57786e+57
          1260.77810	         8.22561e+57
          1261.58440	         1.07839e+58
          1262.39070	         6.77527e+57
          1263.19700	         7.42215e+57
          1264.00330	         1.03827e+58
          1264.80960	         1.12619e+58
          1265.61590	         1.28391e+58
          1266.42220	         1.36705e+58
          1267.22850	         1.07601e+58
          1268.03480	         1.37272e+58
          1268.84110	         1.49641e+58
          1269.64740	         1.22641e+58
          1270.45370	         1.33306e+58
          1271.26000	         1.48365e+58
          1272.06630	         1.46443e+58
          1272.87260	         1.14987e+58
          1273.67890	         1.24625e+58
          1274.48520	         1.36557e+58
          1275.29150	         1.20817e+58
          1276.09780	         1.31447e+58
          1276.90410	         1.52533e+58
          1277.71040	         1.08607e+58
          1278.51670	         1.23487e+58
          1279.32300	         1.39772e+58
          1280.12930	         1.16030e+58
          1280.93560	         1.08015e+58
          1281.74190	         1.18297e+58
          1282.54820	         1.25279e+58
          1283.35450	         1.13376e+58
          1284.16080	         1.06668e+58
          1284.96710	         1.26181e+58
          1285.77340	         1.22524e+58
          1286.57970	         1.31246e+58
          1287.38600	         1.62366e+58
          1288.19230	         1.77131e+58
          1288.99860	         1.53555e+58
          1289.80490	         1.21957e+58
          1290.61120	         1.18790e+58
          1291.41750	         1.35494e+58
          1292.22380	         1.16562e+58
          1293.03010	         1.10481e+58
          1293.83640	         1.26958e+58
          1294.64270	         1.12740e+58
          1295.44900	         7.59165e+57
          1296.25530	         8.17126e+57
          1297.06160	         8.96284e+57
          1297.86790	         8.97320e+57
          1298.67420	         7.39158e+57
          1299.48050	         9.71645e+57
          1300.28680	         1.14707e+58
          1301.09310	         7.68516e+57
          1301.89940	         3.79062e+57
          1302.70570	         5.37409e+57
          1303.51200	         6.84509e+57
          1304.31830	         8.96650e+57
          1305.12460	         9.36228e+57
          1305.93090	         1.01733e+58
          1306.73720	         1.13620e+58
          1307.54350	         1.26462e+58
          1308.34980	         1.45018e+58
          1309.15610	         1.55765e+58
          1309.96240	         1.53969e+58
          1310.76870	         1.21360e+58
          1311.57500	         1.07538e+58
          1312.38130	         1.22021e+58
          1313.18760	         1.41529e+58
          1313.99390	         1.57237e+58
          1314.80020	         1.52755e+58
          1315.60650	         1.42456e+58
          1316.41280	         1.29177e+58
          1317.21910	         1.20537e+58
          1318.02540	         1.18086e+58
          1318.83170	         1.17986e+58
          1319.63800	         1.12721e+58
          1320.44430	         1.01580e+58
          1321.25060	         1.04159e+58
          1322.05690	         1.19763e+58
          1322.86320	         1.26447e+58
          1323.66950	         1.17436e+58
          1324.47580	         9.66671e+57
          1325.28210	         1.01210e+58
          1326.08840	         1.29325e+58
          1326.89470	         1.40921e+58
          1327.70100	         9.62449e+57
          1328.50730	         6.33067e+57
          1329.31360	         8.93415e+57
          1330.11990	         1.00372e+58
          1330.92620	         8.34841e+57
          1331.73250	         1.04418e+58
          1332.53880	         9.04132e+57
          1333.34510	         7.87331e+57
          1334.15140	         8.38005e+57
          1334.95770	         9.13734e+57
          1335.76400	         1.10559e+58
          1336.57030	         1.25986e+58
          1337.37660	         1.16341e+58
          1338.18290	         1.15974e+58
          1338.98920	         1.21457e+58
          1339.79550	         1.19645e+58
          1340.60180	         1.24852e+58
          1341.40810	         1.34489e+58
          1342.21440	         1.24547e+58
          1343.02070	         1.23490e+58
          1343.82700	         1.36721e+58
          1344.63330	         1.27818e+58
          1345.43960	         1.23858e+58
          1346.24590	         1.15912e+58
          1347.05220	         1.32435e+58
          1347.85850	         1.34440e+58
          1348.66480	         1.19247e+58
          1349.47110	         1.16415e+58
          1350.27740	         1.10065e+58
          1351.08370	         9.62200e+57
          1351.89000	         1.08438e+58
          1352.69630	         1.20523e+58
          1353.50260	         1.19615e+58
          1354.30890	         1.10977e+58
          1355.11520	         1.02782e+58
          1355.92150	         1.12895e+58
          1356.72780	         1.03427e+58
          1357.53410	         9.87442e+57
          1358.34040	         1.05597e+58
          1359.14670	         1.06447e+58
          1359.95300	         1.17767e+58
          1360.75930	         1.24028e+58
          1361.56560	         1.18426e+58
          1362.37190	         1.23458e+58
          1363.17820	         1.21832e+58
          1363.98450	         1.18620e+58
          1364.79080	         1.23129e+58
          1365.59710	         1.16963e+58
          1366.40340	         1.04324e+58
          1367.20970	         9.99979e+57
          1368.01600	         9.67846e+57
          1368.82230	         8.49624e+57
          1369.62860	         9.23333e+57
          1370.43490	         1.03743e+58
          1371.24120	         1.11658e+58
          1372.04750	         1.04888e+58
          1372.85380	         1.13402e+58
          1373.66010	         1.08693e+58
          1374.46640	         1.08617e+58
          1375.27270	         1.14565e+58
          1376.07900	         1.03669e+58
          1376.88530	         9.01301e+57
          1377.69160	         8.89756e+57
          1378.49790	         7.01822e+57
          1379.30420	         8.52768e+57
          1380.11050	         9.73847e+57
          1380.91680	         7.94167e+57
          1381.72310	         7.94295e+57
          1382.52940	         7.33810e+57
          1383.33570	         7.32361e+57
          1384.14200	         9.19109e+57
          1384.94830	         9.53924e+57
          1385.75460	         1.02501e+58
          1386.56090	         1.20738e+58
          1387.36720	         1.18424e+58
          1388.17350	         1.26791e+58
          1388.97980	         1.09054e+58
          1389.78610	         9.47021e+57
          1390.59240	         8.74338e+57
          1391.39870	         6.33939e+57
          1392.20500	         8.31162e+57
          1393.01130	         9.47231e+57
          1393.81760	         7.89192e+57
          1394.62390	         6.54547e+57
          1395.43020	         4.47628e+57
          1396.23650	         7.02728e+57
          1397.04280	         9.04391e+57
          1397.84910	         9.50579e+57
          1398.65540	         9.39962e+57
          1399.46170	         9.78862e+57
          1400.26800	         8.91071e+57
          1401.07430	         8.49560e+57
          1401.88060	         8.40267e+57
          1402.68690	         8.85661e+57
          1403.49320	         9.55043e+57
          1404.29950	         1.04346e+58
          1405.10580	         1.12311e+58
          1405.91210	         1.22423e+58
          1406.71840	         1.21497e+58
          1407.52470	         1.09669e+58
          1408.33100	         1.05154e+58
          1409.13730	         1.18635e+58
          1409.94360	         1.21189e+58
          1410.74990	         1.10618e+58
          1411.55620	         9.72380e+57
          1412.36250	         8.72860e+57
          1413.16880	         9.21801e+57
          1413.97510	         8.43222e+57
          1414.78140	         9.16445e+57
          1415.58770	         9.96623e+57
          1416.39400	         1.00604e+58
          1417.20030	         1.11827e+58
          1418.00660	         1.02820e+58
          1418.81290	         9.89058e+57
          1419.61920	         9.15046e+57
          1420.42550	         1.10599e+58
          1421.23180	         1.32303e+58
          1422.03810	         1.32906e+58
          1422.84440	         1.24142e+58
          1423.65070	         1.30742e+58
          1424.45700	         1.23931e+58
          1425.26330	         1.00996e+58
          1426.06960	         8.27057e+57
          1426.87590	         9.28898e+57
          1427.68220	         1.02950e+58
          1428.48850	         1.00378e+58
          1429.29480	         9.56692e+57
          1430.10110	         1.01623e+58
          1430.90740	         8.16474e+57
          1431.71370	         8.60558e+57
          1432.52000	         8.56788e+57
          1433.32630	         7.94417e+57
          1434.13260	         8.39669e+57
          1434.93890	         7.64264e+57
          1435.74520	         8.08546e+57
          1436.55150	         9.29403e+57
          1437.35780	         8.36712e+57
          1438.16410	         8.22650e+57
          1438.97040	         8.43986e+57
          1439.77670	         7.89834e+57
          1440.58300	         9.85943e+57
          1441.38930	         1.04835e+58
          1442.19560	         9.63826e+57
          1443.00190	         9.36089e+57
          1443.80820	         1.07353e+58
          1444.61450	         9.33368e+57
          1445.42080	         7.38973e+57
          1446.22710	         9.44100e+57
          1447.03340	         9.84963e+57
          1447.83970	         1.09420e+58
          1448.64600	         1.14719e+58
          1449.45230	         1.10179e+58
          1450.25860	         1.02014e+58
          1451.06490	         8.58432e+57
          1451.87120	         8.05823e+57
          1452.67750	         7.04916e+57
          1453.48380	         7.52598e+57
          1454.29010	         7.72932e+57
          1455.09640	         8.16116e+57
          1455.90270	         9.25426e+57
          1456.70900	         9.22072e+57
          1457.51530	         9.93969e+57
          1458.32160	         1.19504e+58
          1459.12790	         1.13306e+58
          1459.93420	         1.02793e+58
          1460.74050	         8.98839e+57
          1461.54680	         8.76690e+57
          1462.35310	         8.05305e+57
          1463.15940	         9.57136e+57
          1463.96570	         1.18262e+58
          1464.77200	         1.12607e+58
          1465.57830	         1.03687e+58
          1466.38460	         8.96797e+57
          1467.19090	         8.57843e+57
          1467.99720	         8.47753e+57
          1468.80350	         9.01499e+57
          1469.60980	         1.01400e+58
          1470.41610	         1.10063e+58
          1471.22240	         9.48914e+57
          1472.02870	         9.20843e+57
          1472.83500	         9.84961e+57
          1473.64130	         9.48450e+57
          1474.44760	         8.94216e+57
          1475.25390	         8.16229e+57
          1476.06020	         7.56691e+57
          1476.86650	         8.29637e+57
          1477.67280	         7.27294e+57
          1478.47910	         5.86815e+57
          1479.28540	         6.69430e+57
          1480.09170	         8.54079e+57
          1480.89800	         8.33670e+57
          1481.70430	         8.19381e+57
          1482.51060	         8.29778e+57
          1483.31690	         7.98301e+57
          1484.12320	         7.68235e+57
          1484.92950	         8.29501e+57
          1485.73580	         8.21704e+57
          1486.54210	         8.84091e+57
          1487.34840	         9.51804e+57
          1488.15470	         9.14243e+57
          1488.96100	         9.32639e+57
          1489.76730	         9.23631e+57
