#sample_291_stacked_spectrum_rest_UV-bands_median_H-alpha_noDC.txt
#median Lum: 1.66632e+42
#Rest-frame wavelength (A) | Luminosity (erg/s/A)
#
          1110.00000	         0.00000e+00
          1110.80630	         2.79636e+59
          1111.61260	         2.76686e+59
          1112.41890	         1.16587e+59
          1113.22520	        -1.45980e+59
          1114.03150	        -5.21768e+57
          1114.83780	         1.97820e+59
          1115.64410	         5.61019e+58
          1116.45040	        -5.58681e+58
          1117.25670	        -5.56139e+58
          1118.06300	         2.96666e+58
          1118.86930	         4.36058e+58
          1119.67560	         7.24499e+58
          1120.48190	        -1.15073e+57
          1121.28820	        -6.36024e+58
          1122.09450	        -8.72417e+58
          1122.90080	        -4.54828e+58
          1123.70710	         5.69694e+58
          1124.51340	         1.13074e+59
          1125.31970	         3.50714e+58
          1126.12600	         2.14527e+58
          1126.93230	        -1.21422e+58
          1127.73860	        -5.16360e+58
          1128.54490	        -1.19617e+58
          1129.35120	         1.73383e+58
          1130.15750	        -2.53161e+58
          1130.96380	        -6.25338e+58
          1131.77010	         4.89870e+58
          1132.57640	         3.62182e+58
          1133.38270	         7.91789e+57
          1134.18900	         1.37006e+58
          1134.99530	        -8.80694e+57
          1135.80160	         1.55831e+58
          1136.60790	         2.42797e+58
          1137.41420	         1.12456e+58
          1138.22050	         3.75887e+58
          1139.02680	         2.91866e+58
          1139.83310	         2.37152e+58
          1140.63940	         2.15244e+58
          1141.44570	        -1.15744e+58
          1142.25200	        -1.95833e+58
          1143.05830	         2.65640e+58
          1143.86460	         3.71371e+58
          1144.67090	         4.56423e+58
          1145.47720	         2.03245e+58
          1146.28350	         6.36108e+57
          1147.08980	         2.67081e+57
          1147.89610	         1.83709e+58
          1148.70240	         4.78470e+58
          1149.50870	         3.70693e+58
          1150.31500	         1.54271e+58
          1151.12130	         9.20887e+57
          1151.92760	        -1.86414e+57
          1152.73390	         3.74163e+56
          1153.54020	        -1.33464e+57
          1154.34650	         1.24420e+58
          1155.15280	         2.06253e+58
          1155.95910	         7.11696e+57
          1156.76540	         1.42837e+57
          1157.57170	        -7.32073e+57
          1158.37800	        -6.19423e+57
          1159.18430	         8.18058e+57
          1159.99060	         7.37940e+57
          1160.79690	         1.43342e+58
          1161.60320	         1.74717e+58
          1162.40950	         1.30033e+58
          1163.21580	         2.49618e+58
          1164.02210	         1.95052e+57
          1164.82840	         1.21191e+58
          1165.63470	         1.44662e+58
          1166.44100	         2.76297e+58
          1167.24730	         2.45480e+58
          1168.05360	         1.00791e+58
          1168.85990	         3.24929e+57
          1169.66620	         1.00334e+58
          1170.47250	         1.56462e+58
          1171.27880	         1.16445e+58
          1172.08510	         8.96343e+57
          1172.89140	         6.13242e+57
          1173.69770	         6.87988e+57
          1174.50400	         6.18234e+57
          1175.31030	         8.84847e+57
          1176.11660	         1.54644e+58
          1176.92290	         1.30535e+58
          1177.72920	         6.96489e+57
          1178.53550	         6.99027e+57
          1179.34180	         6.87823e+57
          1180.14810	         1.27569e+58
          1180.95440	         1.08839e+58
          1181.76070	         7.91646e+57
          1182.56700	         8.32624e+57
          1183.37330	         8.07445e+57
          1184.17960	         1.12350e+58
          1184.98590	         8.73199e+57
          1185.79220	         4.42191e+57
          1186.59850	         1.48823e+58
          1187.40480	         1.35455e+58
          1188.21110	         7.94336e+57
          1189.01740	         9.47629e+57
          1189.82370	         1.37134e+58
          1190.63000	         1.22540e+58
          1191.43630	         1.72528e+58
          1192.24260	         7.97738e+57
          1193.04890	         1.14140e+58
          1193.85520	         1.61856e+58
          1194.66150	         8.77292e+57
          1195.46780	         8.95000e+57
          1196.27410	         1.33837e+58
          1197.08040	         1.03957e+58
          1197.88670	         1.45310e+58
          1198.69300	         1.58703e+58
          1199.49930	         1.89514e+58
          1200.30560	         1.52092e+58
          1201.11190	         1.29292e+58
          1201.91820	         8.24097e+57
          1202.72450	         5.35948e+57
          1203.53080	         1.42465e+58
          1204.33710	         7.34353e+57
          1205.14340	         5.21469e+57
          1205.94970	         5.81468e+57
          1206.75600	         6.64573e+57
          1207.56230	         9.66955e+57
          1208.36860	         8.97164e+57
          1209.17490	         3.56506e+57
          1209.98120	         7.98541e+57
          1210.78750	         1.22825e+58
          1211.59380	         1.53357e+58
          1212.40010	         1.80743e+58
          1213.20640	         2.09610e+58
          1214.01270	         2.21678e+58
          1214.81900	         2.61281e+58
          1215.62530	         4.22145e+58
          1216.43160	         8.85921e+58
          1217.23790	         1.49093e+59
          1218.04420	         1.08712e+59
          1218.85050	         8.50794e+58
          1219.65680	         5.96612e+58
          1220.46310	         3.13197e+58
          1221.26940	         1.98593e+58
          1222.07570	         1.10139e+58
          1222.88200	         9.45477e+57
          1223.68830	         8.07077e+57
          1224.49460	         7.82731e+57
          1225.30090	         6.84555e+57
          1226.10720	         4.50002e+57
          1226.91350	         4.96771e+57
          1227.71980	         8.37017e+57
          1228.52610	         1.29166e+58
          1229.33240	         1.07710e+58
          1230.13870	         9.26866e+57
          1230.94500	         8.18483e+57
          1231.75130	         6.05547e+57
          1232.55760	         7.60538e+57
          1233.36390	         9.97023e+57
          1234.17020	         1.30331e+58
          1234.97650	         8.62828e+57
          1235.78280	         6.88219e+57
          1236.58910	         8.49229e+57
          1237.39540	         1.19719e+58
          1238.20170	         1.20964e+58
          1239.00800	         1.04718e+58
          1239.81430	         1.26939e+58
          1240.62060	         1.00769e+58
          1241.42690	         1.00686e+58
          1242.23320	         1.12982e+58
          1243.03950	         8.18340e+57
          1243.84580	         8.16390e+57
          1244.65210	         1.03497e+58
          1245.45840	         9.20256e+57
          1246.26470	         6.44984e+57
          1247.07100	         6.50217e+57
          1247.87730	         7.44608e+57
          1248.68360	         7.43931e+57
          1249.48990	         7.35424e+57
          1250.29620	         1.20203e+58
          1251.10250	         1.12215e+58
          1251.90880	         6.92364e+57
          1252.71510	         4.56661e+57
          1253.52140	         4.68122e+57
          1254.32770	         7.74444e+57
          1255.13400	         1.26977e+58
          1255.94030	         1.15810e+58
          1256.74660	         1.02694e+58
          1257.55290	         1.05334e+58
          1258.35920	         9.64379e+57
          1259.16550	         7.67379e+57
          1259.97180	         6.21394e+57
          1260.77810	         1.02630e+58
          1261.58440	         1.16469e+58
          1262.39070	         8.61221e+57
          1263.19700	         6.11336e+57
          1264.00330	         6.32926e+57
          1264.80960	         9.29171e+57
          1265.61590	         1.22027e+58
          1266.42220	         1.27756e+58
          1267.22850	         1.10228e+58
          1268.03480	         1.18541e+58
          1268.84110	         1.45679e+58
          1269.64740	         1.31841e+58
          1270.45370	         1.24614e+58
          1271.26000	         1.17534e+58
          1272.06630	         1.14450e+58
          1272.87260	         1.18344e+58
          1273.67890	         1.38854e+58
          1274.48520	         1.45058e+58
          1275.29150	         1.45339e+58
          1276.09780	         1.24957e+58
          1276.90410	         1.26570e+58
          1277.71040	         1.41306e+58
          1278.51670	         1.23849e+58
          1279.32300	         1.14569e+58
          1280.12930	         1.27733e+58
          1280.93560	         1.09255e+58
          1281.74190	         1.06536e+58
          1282.54820	         1.17519e+58
          1283.35450	         1.07936e+58
          1284.16080	         1.10116e+58
          1284.96710	         1.42374e+58
          1285.77340	         1.17419e+58
          1286.57970	         9.46857e+57
          1287.38600	         1.35826e+58
          1288.19230	         1.49466e+58
          1288.99860	         1.50985e+58
          1289.80490	         1.16518e+58
          1290.61120	         1.34196e+58
          1291.41750	         1.50827e+58
          1292.22380	         1.33027e+58
          1293.03010	         1.12920e+58
          1293.83640	         1.20355e+58
          1294.64270	         1.16129e+58
          1295.44900	         6.80392e+57
          1296.25530	         6.95747e+57
          1297.06160	         9.28181e+57
          1297.86790	         9.80352e+57
          1298.67420	         8.98794e+57
          1299.48050	         9.15526e+57
          1300.28680	         9.80655e+57
          1301.09310	         8.17739e+57
          1301.89940	         3.86517e+57
          1302.70570	         6.13415e+57
          1303.51200	         7.99478e+57
          1304.31830	         1.02944e+58
          1305.12460	         1.15211e+58
          1305.93090	         1.05895e+58
          1306.73720	         1.17006e+58
          1307.54350	         1.26849e+58
          1308.34980	         1.53276e+58
          1309.15610	         1.74332e+58
          1309.96240	         1.64690e+58
          1310.76870	         1.35388e+58
          1311.57500	         9.79984e+57
          1312.38130	         9.93004e+57
          1313.18760	         1.42469e+58
          1313.99390	         1.53931e+58
          1314.80020	         1.38424e+58
          1315.60650	         1.32586e+58
          1316.41280	         1.04382e+58
          1317.21910	         1.03202e+58
          1318.02540	         1.13771e+58
          1318.83170	         1.22343e+58
          1319.63800	         1.22139e+58
          1320.44430	         1.10416e+58
          1321.25060	         1.18906e+58
          1322.05690	         1.31617e+58
          1322.86320	         1.24842e+58
          1323.66950	         1.05747e+58
          1324.47580	         7.86528e+57
          1325.28210	         9.57672e+57
          1326.08840	         1.18513e+58
          1326.89470	         1.21623e+58
          1327.70100	         1.09228e+58
          1328.50730	         8.40619e+57
          1329.31360	         9.24875e+57
          1330.11990	         1.11574e+58
          1330.92620	         9.65310e+57
          1331.73250	         9.91513e+57
          1332.53880	         9.41368e+57
          1333.34510	         9.29825e+57
          1334.15140	         8.90018e+57
          1334.95770	         7.01779e+57
          1335.76400	         8.60801e+57
          1336.57030	         1.01918e+58
          1337.37660	         9.94415e+57
          1338.18290	         1.01873e+58
          1338.98920	         1.13569e+58
          1339.79550	         1.14777e+58
          1340.60180	         1.21452e+58
          1341.40810	         1.30080e+58
          1342.21440	         1.11470e+58
          1343.02070	         1.12816e+58
          1343.82700	         1.28327e+58
          1344.63330	         1.18436e+58
          1345.43960	         1.28757e+58
          1346.24590	         1.19090e+58
          1347.05220	         1.19343e+58
          1347.85850	         1.13922e+58
          1348.66480	         1.26464e+58
          1349.47110	         1.27499e+58
          1350.27740	         1.03822e+58
          1351.08370	         1.07498e+58
          1351.89000	         1.19591e+58
          1352.69630	         1.23256e+58
          1353.50260	         1.19876e+58
          1354.30890	         1.14369e+58
          1355.11520	         1.13050e+58
          1355.92150	         9.72840e+57
          1356.72780	         9.49212e+57
          1357.53410	         1.01046e+58
          1358.34040	         1.15315e+58
          1359.14670	         1.09050e+58
          1359.95300	         1.05235e+58
          1360.75930	         1.11482e+58
          1361.56560	         1.09319e+58
          1362.37190	         1.13317e+58
          1363.17820	         1.02623e+58
          1363.98450	         1.16113e+58
          1364.79080	         1.22340e+58
          1365.59710	         1.11415e+58
          1366.40340	         1.16045e+58
          1367.20970	         9.76785e+57
          1368.01600	         1.05895e+58
          1368.82230	         1.04412e+58
          1369.62860	         1.08543e+58
          1370.43490	         9.92496e+57
          1371.24120	         8.17193e+57
          1372.04750	         9.03486e+57
          1372.85380	         1.02823e+58
          1373.66010	         1.02278e+58
          1374.46640	         9.34209e+57
          1375.27270	         9.58127e+57
          1376.07900	         8.45386e+57
          1376.88530	         8.47667e+57
          1377.69160	         9.38011e+57
          1378.49790	         6.76738e+57
          1379.30420	         7.41714e+57
          1380.11050	         8.78656e+57
          1380.91680	         8.19368e+57
          1381.72310	         6.38832e+57
          1382.52940	         6.87605e+57
          1383.33570	         8.66993e+57
          1384.14200	         8.18251e+57
          1384.94830	         8.82300e+57
          1385.75460	         9.22014e+57
          1386.56090	         1.02117e+58
          1387.36720	         1.02546e+58
          1388.17350	         1.12610e+58
          1388.97980	         1.00470e+58
          1389.78610	         7.43800e+57
          1390.59240	         6.29092e+57
          1391.39870	         6.02055e+57
          1392.20500	         7.76203e+57
          1393.01130	         8.56975e+57
          1393.81760	         8.22061e+57
          1394.62390	         8.34921e+57
          1395.43020	         6.93760e+57
          1396.23650	         7.46435e+57
          1397.04280	         8.42875e+57
          1397.84910	         9.82160e+57
          1398.65540	         9.63423e+57
          1399.46170	         9.61037e+57
          1400.26800	         9.05923e+57
          1401.07430	         7.50125e+57
          1401.88060	         7.52797e+57
          1402.68690	         9.22088e+57
          1403.49320	         1.00604e+58
          1404.29950	         8.86779e+57
          1405.10580	         9.64892e+57
          1405.91210	         1.13749e+58
          1406.71840	         1.09246e+58
          1407.52470	         1.09368e+58
          1408.33100	         1.05021e+58
          1409.13730	         1.07352e+58
          1409.94360	         1.04606e+58
          1410.74990	         1.05618e+58
          1411.55620	         9.11437e+57
          1412.36250	         9.19056e+57
          1413.16880	         9.54475e+57
          1413.97510	         7.81902e+57
          1414.78140	         8.23127e+57
          1415.58770	         9.90408e+57
          1416.39400	         9.33922e+57
          1417.20030	         9.23122e+57
          1418.00660	         9.80475e+57
          1418.81290	         8.84868e+57
          1419.61920	         9.05872e+57
          1420.42550	         1.33179e+58
          1421.23180	         1.33629e+58
          1422.03810	         1.30655e+58
          1422.84440	         1.21006e+58
          1423.65070	         1.28561e+58
          1424.45700	         1.21800e+58
          1425.26330	         8.48964e+57
          1426.06960	         7.79821e+57
          1426.87590	         8.91163e+57
          1427.68220	         9.42933e+57
          1428.48850	         1.04000e+58
          1429.29480	         1.13545e+58
          1430.10110	         1.01965e+58
          1430.90740	         8.00500e+57
          1431.71370	         8.22563e+57
          1432.52000	         8.51380e+57
          1433.32630	         7.17993e+57
          1434.13260	         7.73785e+57
          1434.93890	         8.09524e+57
          1435.74520	         8.19019e+57
          1436.55150	         9.90986e+57
          1437.35780	         9.37193e+57
          1438.16410	         8.06804e+57
          1438.97040	         8.29804e+57
          1439.77670	         8.71144e+57
          1440.58300	         8.75987e+57
          1441.38930	         9.16206e+57
          1442.19560	         9.87783e+57
          1443.00190	         9.30748e+57
          1443.80820	         8.71379e+57
          1444.61450	         9.03142e+57
          1445.42080	         7.88007e+57
          1446.22710	         9.32823e+57
          1447.03340	         1.07391e+58
          1447.83970	         1.06978e+58
          1448.64600	         1.10007e+58
          1449.45230	         1.04463e+58
          1450.25860	         9.91327e+57
          1451.06490	         9.10838e+57
          1451.87120	         7.73127e+57
          1452.67750	         6.94497e+57
          1453.48380	         9.17593e+57
          1454.29010	         8.13688e+57
          1455.09640	         6.64584e+57
          1455.90270	         7.51854e+57
          1456.70900	         8.19467e+57
          1457.51530	         9.24515e+57
          1458.32160	         1.10299e+58
          1459.12790	         1.08129e+58
          1459.93420	         9.85711e+57
          1460.74050	         8.32939e+57
          1461.54680	         7.59777e+57
          1462.35310	         6.70123e+57
          1463.15940	         8.58145e+57
          1463.96570	         1.04303e+58
          1464.77200	         9.59898e+57
          1465.57830	         9.47831e+57
          1466.38460	         8.72032e+57
          1467.19090	         9.24895e+57
          1467.99720	         9.59779e+57
          1468.80350	         9.64259e+57
          1469.60980	         9.69970e+57
          1470.41610	         9.12259e+57
          1471.22240	         8.25106e+57
          1472.02870	         8.21532e+57
          1472.83500	         9.75071e+57
          1473.64130	         9.37313e+57
          1474.44760	         8.87371e+57
          1475.25390	         9.51875e+57
          1476.06020	         8.71414e+57
          1476.86650	         7.86612e+57
          1477.67280	         8.42302e+57
          1478.47910	         7.51405e+57
          1479.28540	         7.24615e+57
          1480.09170	         9.24421e+57
          1480.89800	         8.42916e+57
          1481.70430	         7.33038e+57
          1482.51060	         7.34359e+57
          1483.31690	         7.88222e+57
          1484.12320	         8.34335e+57
          1484.92950	         7.79153e+57
          1485.73580	         8.54756e+57
          1486.54210	         9.65158e+57
          1487.34840	         9.00010e+57
          1488.15470	         7.71780e+57
          1488.96100	         7.67101e+57
          1489.76730	         8.54025e+57
