#sample_368_stacked_spectrum_rest_UV-bands_median_H-alpha_noDC.txt
#median Lum: 1.70048e+42
#Rest-frame wavelength (A) | Luminosity (erg/s/A)
#
          1110.00000	         0.00000e+00
          1110.80630	        -9.93956e+58
          1111.61260	         2.64477e+59
          1112.41890	         1.92263e+58
          1113.22520	         3.86560e+58
          1114.03150	        -7.61187e+58
          1114.83780	         2.18411e+57
          1115.64410	         1.65371e+59
          1116.45040	         1.98551e+59
          1117.25670	         1.45960e+58
          1118.06300	         5.85480e+58
          1118.86930	        -3.14075e+58
          1119.67560	         6.72332e+58
          1120.48190	         5.77165e+58
          1121.28820	        -1.22156e+59
          1122.09450	        -6.48066e+58
          1122.90080	        -3.18040e+58
          1123.70710	         1.14691e+59
          1124.51340	         6.92182e+58
          1125.31970	        -2.00476e+58
          1126.12600	         1.00610e+58
          1126.93230	         1.18576e+58
          1127.73860	        -2.30210e+58
          1128.54490	         4.84982e+58
          1129.35120	         4.67949e+58
          1130.15750	         6.48871e+56
          1130.96380	        -2.30674e+58
          1131.77010	         7.24559e+58
          1132.57640	        -3.63024e+57
          1133.38270	         1.58333e+58
          1134.18900	         9.78197e+57
          1134.99530	         3.18935e+58
          1135.80160	         1.69348e+58
          1136.60790	         2.03695e+58
          1137.41420	        -1.11654e+56
          1138.22050	         1.34054e+58
          1139.02680	         3.65083e+58
          1139.83310	         9.11316e+57
          1140.63940	         9.94278e+57
          1141.44570	        -1.23382e+58
          1142.25200	        -2.91644e+58
          1143.05830	         9.47112e+57
          1143.86460	         1.84176e+58
          1144.67090	         3.00390e+58
          1145.47720	         1.05901e+58
          1146.28350	         1.34829e+58
          1147.08980	         6.07034e+57
          1147.89610	         2.13763e+58
          1148.70240	         2.74085e+58
          1149.50870	         2.39331e+58
          1150.31500	         1.29126e+58
          1151.12130	         1.25196e+58
          1151.92760	         7.91490e+57
          1152.73390	         3.60832e+57
          1153.54020	         6.05305e+57
          1154.34650	         2.35167e+58
          1155.15280	         2.09396e+58
          1155.95910	         1.25734e+58
          1156.76540	         1.15113e+58
          1157.57170	         1.70494e+56
          1158.37800	        -7.77226e+57
          1159.18430	        -8.22665e+57
          1159.99060	         2.33288e+57
          1160.79690	         1.48780e+57
          1161.60320	         5.00244e+57
          1162.40950	         2.37310e+58
          1163.21580	         1.92732e+58
          1164.02210	         6.89227e+57
          1164.82840	         8.14860e+57
          1165.63470	         1.61565e+58
          1166.44100	         2.79477e+58
          1167.24730	         2.44275e+58
          1168.05360	         9.30309e+57
          1168.85990	         1.05635e+58
          1169.66620	         1.62403e+58
          1170.47250	         2.07381e+58
          1171.27880	         6.02586e+57
          1172.08510	         5.56397e+57
          1172.89140	         9.06975e+57
          1173.69770	         5.52423e+57
          1174.50400	         8.03022e+57
          1175.31030	         1.67792e+58
          1176.11660	         2.05228e+58
          1176.92290	         1.66854e+58
          1177.72920	         1.00104e+58
          1178.53550	         7.24596e+57
          1179.34180	         6.53217e+57
          1180.14810	         8.99943e+57
          1180.95440	         7.15351e+57
          1181.76070	         6.46301e+57
          1182.56700	         5.05912e+57
          1183.37330	         4.27707e+57
          1184.17960	         8.71488e+57
          1184.98590	         9.91559e+57
          1185.79220	         6.26766e+57
          1186.59850	         1.12812e+58
          1187.40480	         1.16527e+58
          1188.21110	         1.30768e+58
          1189.01740	         6.11499e+57
          1189.82370	         9.49541e+57
          1190.63000	         6.92253e+57
          1191.43630	         9.77005e+57
          1192.24260	         1.28837e+58
          1193.04890	         1.06197e+58
          1193.85520	         1.10434e+58
          1194.66150	         2.24725e+57
          1195.46780	         4.27350e+57
          1196.27410	         1.18315e+58
          1197.08040	         1.18089e+58
          1197.88670	         1.10463e+58
          1198.69300	         1.45994e+58
          1199.49930	         1.49093e+58
          1200.30560	         9.72603e+57
          1201.11190	         1.21505e+58
          1201.91820	         1.16335e+58
          1202.72450	         5.11335e+57
          1203.53080	         1.49067e+58
          1204.33710	         1.05194e+58
          1205.14340	         1.00589e+58
          1205.94970	         7.70268e+57
          1206.75600	         9.32991e+57
          1207.56230	         6.18574e+57
          1208.36860	         7.79978e+57
          1209.17490	         8.31957e+57
          1209.98120	         8.02929e+57
          1210.78750	         8.91506e+57
          1211.59380	         1.12945e+58
          1212.40010	         2.08344e+58
          1213.20640	         1.94480e+58
          1214.01270	         1.70220e+58
          1214.81900	         2.23732e+58
          1215.62530	         4.34005e+58
          1216.43160	         8.82348e+58
          1217.23790	         1.51005e+59
          1218.04420	         1.14155e+59
          1218.85050	         8.44730e+58
          1219.65680	         5.51470e+58
          1220.46310	         3.17522e+58
          1221.26940	         2.33656e+58
          1222.07570	         1.50833e+58
          1222.88200	         1.14830e+58
          1223.68830	         1.21499e+58
          1224.49460	         6.72288e+57
          1225.30090	         5.75700e+57
          1226.10720	         5.34546e+57
          1226.91350	         7.23234e+57
          1227.71980	         8.54147e+57
          1228.52610	         9.20964e+57
          1229.33240	         7.64303e+57
          1230.13870	         7.66680e+57
          1230.94500	         9.51215e+57
          1231.75130	         8.62710e+57
          1232.55760	         9.28126e+57
          1233.36390	         1.05257e+58
          1234.17020	         9.77136e+57
          1234.97650	         7.94575e+57
          1235.78280	         9.03023e+57
          1236.58910	         7.21930e+57
          1237.39540	         6.94045e+57
          1238.20170	         8.13624e+57
          1239.00800	         9.33959e+57
          1239.81430	         1.40124e+58
          1240.62060	         1.05454e+58
          1241.42690	         8.28711e+57
          1242.23320	         1.35167e+58
          1243.03950	         9.67194e+57
          1243.84580	         8.99958e+57
          1244.65210	         1.22529e+58
          1245.45840	         1.08568e+58
          1246.26470	         9.07743e+57
          1247.07100	         6.83884e+57
          1247.87730	         6.47404e+57
          1248.68360	         1.39757e+57
          1249.48990	         4.24922e+57
          1250.29620	         5.47883e+57
          1251.10250	         5.60481e+57
          1251.90880	         4.40843e+57
          1252.71510	         3.92343e+57
          1253.52140	         8.15827e+57
          1254.32770	         1.07422e+58
          1255.13400	         1.32033e+58
          1255.94030	         1.15748e+58
          1256.74660	         8.39572e+57
          1257.55290	         9.79674e+57
          1258.35920	         9.25352e+57
          1259.16550	         6.70776e+57
          1259.97180	         5.66211e+57
          1260.77810	         9.80725e+57
          1261.58440	         1.06046e+58
          1262.39070	         8.64508e+57
          1263.19700	         8.71844e+57
          1264.00330	         7.61577e+57
          1264.80960	         1.02699e+58
          1265.61590	         1.19256e+58
          1266.42220	         1.27023e+58
          1267.22850	         1.10942e+58
          1268.03480	         1.29755e+58
          1268.84110	         1.43598e+58
          1269.64740	         1.50356e+58
          1270.45370	         1.36659e+58
          1271.26000	         9.69213e+57
          1272.06630	         8.32050e+57
          1272.87260	         1.12794e+58
          1273.67890	         1.12857e+58
          1274.48520	         1.06803e+58
          1275.29150	         1.09814e+58
          1276.09780	         1.08893e+58
          1276.90410	         1.46939e+58
          1277.71040	         1.29012e+58
          1278.51670	         1.27317e+58
          1279.32300	         1.38867e+58
          1280.12930	         1.29599e+58
          1280.93560	         1.20799e+58
          1281.74190	         1.25445e+58
          1282.54820	         1.35769e+58
          1283.35450	         1.27981e+58
          1284.16080	         1.12100e+58
          1284.96710	         1.32564e+58
          1285.77340	         1.17422e+58
          1286.57970	         1.00066e+58
          1287.38600	         1.45364e+58
          1288.19230	         1.93271e+58
          1288.99860	         1.68413e+58
          1289.80490	         1.12793e+58
          1290.61120	         1.08655e+58
          1291.41750	         1.16493e+58
          1292.22380	         1.20981e+58
          1293.03010	         1.07493e+58
          1293.83640	         1.12228e+58
          1294.64270	         1.08169e+58
          1295.44900	         8.01806e+57
          1296.25530	         7.94515e+57
          1297.06160	         8.96779e+57
          1297.86790	         1.00366e+58
          1298.67420	         7.44325e+57
          1299.48050	         7.11802e+57
          1300.28680	         1.00169e+58
          1301.09310	         9.43041e+57
          1301.89940	         4.02541e+57
          1302.70570	         5.54680e+57
          1303.51200	         8.63657e+57
          1304.31830	         1.08035e+58
          1305.12460	         1.06753e+58
          1305.93090	         1.09374e+58
          1306.73720	         1.23207e+58
          1307.54350	         1.32512e+58
          1308.34980	         1.43337e+58
          1309.15610	         1.61788e+58
          1309.96240	         1.64261e+58
          1310.76870	         1.37034e+58
          1311.57500	         1.12769e+58
          1312.38130	         1.20520e+58
          1313.18760	         1.46980e+58
          1313.99390	         1.63502e+58
          1314.80020	         1.56589e+58
          1315.60650	         1.44220e+58
          1316.41280	         1.28980e+58
          1317.21910	         1.14331e+58
          1318.02540	         1.27126e+58
          1318.83170	         1.39698e+58
          1319.63800	         1.25561e+58
          1320.44430	         1.03082e+58
          1321.25060	         1.17316e+58
          1322.05690	         1.26126e+58
          1322.86320	         1.20715e+58
          1323.66950	         1.25701e+58
          1324.47580	         1.08202e+58
          1325.28210	         9.41240e+57
          1326.08840	         1.07724e+58
          1326.89470	         1.26541e+58
          1327.70100	         1.06206e+58
          1328.50730	         8.50960e+57
          1329.31360	         8.95941e+57
          1330.11990	         9.13352e+57
          1330.92620	         8.20096e+57
          1331.73250	         1.13540e+58
          1332.53880	         1.08168e+58
          1333.34510	         8.99689e+57
          1334.15140	         8.60202e+57
          1334.95770	         8.19566e+57
          1335.76400	         1.02752e+58
          1336.57030	         1.10092e+58
          1337.37660	         1.12725e+58
          1338.18290	         1.22845e+58
          1338.98920	         1.29266e+58
          1339.79550	         1.25675e+58
          1340.60180	         1.37098e+58
          1341.40810	         1.32279e+58
          1342.21440	         1.22912e+58
          1343.02070	         1.14170e+58
          1343.82700	         1.27518e+58
          1344.63330	         1.36586e+58
          1345.43960	         1.34218e+58
          1346.24590	         1.12240e+58
          1347.05220	         1.19647e+58
          1347.85850	         1.06954e+58
          1348.66480	         1.12005e+58
          1349.47110	         1.17718e+58
          1350.27740	         9.87003e+57
          1351.08370	         9.80865e+57
          1351.89000	         1.23308e+58
          1352.69630	         1.22158e+58
          1353.50260	         1.15650e+58
          1354.30890	         1.23814e+58
          1355.11520	         1.14141e+58
          1355.92150	         1.01728e+58
          1356.72780	         1.03644e+58
          1357.53410	         1.11425e+58
          1358.34040	         1.12300e+58
          1359.14670	         1.10567e+58
          1359.95300	         1.20911e+58
          1360.75930	         1.19771e+58
          1361.56560	         1.06532e+58
          1362.37190	         1.13608e+58
          1363.17820	         1.22173e+58
          1363.98450	         1.20717e+58
          1364.79080	         1.27925e+58
          1365.59710	         1.29070e+58
          1366.40340	         1.21766e+58
          1367.20970	         1.12891e+58
          1368.01600	         9.33994e+57
          1368.82230	         9.27469e+57
          1369.62860	         1.04707e+58
          1370.43490	         9.73137e+57
          1371.24120	         9.00251e+57
          1372.04750	         8.51408e+57
          1372.85380	         1.04642e+58
          1373.66010	         1.18178e+58
          1374.46640	         1.09250e+58
          1375.27270	         9.61840e+57
          1376.07900	         8.78813e+57
          1376.88530	         8.72394e+57
          1377.69160	         8.73487e+57
          1378.49790	         7.52929e+57
          1379.30420	         8.71715e+57
          1380.11050	         9.24555e+57
          1380.91680	         9.25401e+57
          1381.72310	         8.55981e+57
          1382.52940	         7.89695e+57
          1383.33570	         8.90010e+57
          1384.14200	         1.06080e+58
          1384.94830	         1.19669e+58
          1385.75460	         1.22331e+58
          1386.56090	         1.12692e+58
          1387.36720	         1.13366e+58
          1388.17350	         1.34999e+58
          1388.97980	         1.22543e+58
          1389.78610	         9.35842e+57
          1390.59240	         8.49762e+57
          1391.39870	         7.55659e+57
          1392.20500	         7.01193e+57
          1393.01130	         8.32171e+57
          1393.81760	         8.76759e+57
          1394.62390	         7.49618e+57
          1395.43020	         5.56656e+57
          1396.23650	         5.79887e+57
          1397.04280	         7.33223e+57
          1397.84910	         8.56019e+57
          1398.65540	         8.84352e+57
          1399.46170	         9.55692e+57
          1400.26800	         8.10085e+57
          1401.07430	         7.45970e+57
          1401.88060	         8.88987e+57
          1402.68690	         1.03674e+58
          1403.49320	         1.00325e+58
          1404.29950	         9.53501e+57
          1405.10580	         1.13499e+58
          1405.91210	         1.16690e+58
          1406.71840	         1.06127e+58
          1407.52470	         1.01110e+58
          1408.33100	         1.04268e+58
          1409.13730	         1.08472e+58
          1409.94360	         1.21731e+58
          1410.74990	         1.18226e+58
          1411.55620	         1.02392e+58
          1412.36250	         9.78821e+57
          1413.16880	         9.29960e+57
          1413.97510	         8.79389e+57
          1414.78140	         8.93751e+57
          1415.58770	         9.73746e+57
          1416.39400	         9.54046e+57
          1417.20030	         9.63289e+57
          1418.00660	         1.02202e+58
          1418.81290	         1.08459e+58
          1419.61920	         1.06077e+58
          1420.42550	         1.15737e+58
          1421.23180	         1.28143e+58
          1422.03810	         1.28005e+58
          1422.84440	         1.26248e+58
          1423.65070	         1.23029e+58
          1424.45700	         1.14050e+58
          1425.26330	         8.88021e+57
          1426.06960	         8.82217e+57
          1426.87590	         9.87941e+57
          1427.68220	         9.27735e+57
          1428.48850	         9.50914e+57
          1429.29480	         9.67404e+57
          1430.10110	         9.49495e+57
          1430.90740	         8.57054e+57
          1431.71370	         9.29903e+57
          1432.52000	         9.33561e+57
          1433.32630	         8.29209e+57
          1434.13260	         7.29528e+57
          1434.93890	         7.46323e+57
          1435.74520	         9.38497e+57
          1436.55150	         1.01257e+58
          1437.35780	         9.21487e+57
          1438.16410	         9.81609e+57
          1438.97040	         9.03626e+57
          1439.77670	         9.30653e+57
          1440.58300	         9.17306e+57
          1441.38930	         8.43272e+57
          1442.19560	         8.40048e+57
          1443.00190	         9.93843e+57
          1443.80820	         1.05280e+58
          1444.61450	         9.36184e+57
          1445.42080	         8.79368e+57
          1446.22710	         1.02889e+58
          1447.03340	         1.04293e+58
          1447.83970	         9.48108e+57
          1448.64600	         8.99156e+57
          1449.45230	         9.96957e+57
          1450.25860	         9.99114e+57
          1451.06490	         8.80337e+57
          1451.87120	         9.22315e+57
          1452.67750	         8.84238e+57
          1453.48380	         8.65686e+57
          1454.29010	         7.89250e+57
          1455.09640	         7.44113e+57
          1455.90270	         9.51441e+57
          1456.70900	         1.02668e+58
          1457.51530	         1.03032e+58
          1458.32160	         1.20316e+58
          1459.12790	         1.14351e+58
          1459.93420	         1.03553e+58
          1460.74050	         8.96301e+57
          1461.54680	         7.30811e+57
          1462.35310	         7.11510e+57
          1463.15940	         9.57347e+57
          1463.96570	         1.10847e+58
          1464.77200	         1.28168e+58
          1465.57830	         1.12900e+58
          1466.38460	         8.32610e+57
          1467.19090	         8.60464e+57
          1467.99720	         9.57619e+57
          1468.80350	         8.83093e+57
          1469.60980	         8.97337e+57
          1470.41610	         1.12621e+58
          1471.22240	         9.20256e+57
          1472.02870	         8.13492e+57
          1472.83500	         9.96216e+57
          1473.64130	         9.91204e+57
          1474.44760	         7.47500e+57
          1475.25390	         8.71161e+57
          1476.06020	         9.59567e+57
          1476.86650	         9.10216e+57
          1477.67280	         7.93951e+57
          1478.47910	         6.13106e+57
          1479.28540	         7.02903e+57
          1480.09170	         9.24718e+57
          1480.89800	         8.58607e+57
          1481.70430	         8.30004e+57
          1482.51060	         7.93653e+57
          1483.31690	         8.02192e+57
          1484.12320	         8.59310e+57
          1484.92950	         8.15788e+57
          1485.73580	         9.00138e+57
          1486.54210	         9.52654e+57
          1487.34840	         8.69305e+57
          1488.15470	         8.01464e+57
          1488.96100	         8.46639e+57
          1489.76730	         9.39996e+57
