#sample_143_stacked_spectrum_rest_UV-bands_median_H-alpha_noDC.txt
#median Lum: 1.68655e+42
#Rest-frame wavelength (A) | Luminosity (erg/s/A)
#
          1110.00000	         0.00000e+00
          1110.80630	         1.66434e+59
          1111.61260	        -3.53661e+58
          1112.41890	         6.95961e+58
          1113.22520	        -1.90102e+59
          1114.03150	        -1.26098e+59
          1114.83780	         1.98406e+59
          1115.64410	         1.40455e+59
          1116.45040	         2.71326e+59
          1117.25670	        -9.67459e+58
          1118.06300	         1.88902e+59
          1118.86930	         8.33702e+58
          1119.67560	         3.49673e+57
          1120.48190	        -2.60973e+57
          1121.28820	        -8.43068e+58
          1122.09450	        -7.84516e+57
          1122.90080	        -2.74617e+58
          1123.70710	         8.92378e+58
          1124.51340	         9.33889e+58
          1125.31970	         7.25999e+57
          1126.12600	        -1.33331e+58
          1126.93230	        -5.88253e+58
          1127.73860	        -4.77291e+58
          1128.54490	        -7.45926e+57
          1129.35120	         2.99921e+57
          1130.15750	        -2.12787e+58
          1130.96380	        -9.97592e+57
          1131.77010	         5.37405e+58
          1132.57640	         3.74656e+58
          1133.38270	         2.28661e+58
          1134.18900	         3.26360e+58
          1134.99530	         1.48507e+58
          1135.80160	        -6.34098e+57
          1136.60790	         6.75874e+57
          1137.41420	        -2.08538e+58
          1138.22050	         3.32521e+58
          1139.02680	         4.60012e+58
          1139.83310	         3.69951e+58
          1140.63940	         3.77299e+58
          1141.44570	        -2.96884e+58
          1142.25200	        -8.57024e+57
          1143.05830	         2.10549e+58
          1143.86460	         4.34037e+58
          1144.67090	         1.37328e+57
          1145.47720	         1.58789e+57
          1146.28350	         1.48519e+58
          1147.08980	         2.08176e+58
          1147.89610	         1.37972e+58
          1148.70240	         1.64593e+58
          1149.50870	         1.63220e+58
          1150.31500	         5.26094e+57
          1151.12130	         1.39416e+58
          1151.92760	         6.75837e+57
          1152.73390	         1.14308e+58
          1153.54020	         1.03296e+58
          1154.34650	         3.05190e+58
          1155.15280	         2.36511e+58
          1155.95910	         1.54138e+58
          1156.76540	         1.55376e+58
          1157.57170	         3.33898e+57
          1158.37800	         9.13173e+57
          1159.18430	         2.13678e+57
          1159.99060	         1.45627e+58
          1160.79690	         9.78398e+57
          1161.60320	         1.43574e+58
          1162.40950	         1.66712e+58
          1163.21580	         2.40642e+58
          1164.02210	         1.14027e+58
          1164.82840	         9.20076e+57
          1165.63470	         1.37881e+58
          1166.44100	         3.24881e+58
          1167.24730	         1.90466e+58
          1168.05360	         4.84846e+57
          1168.85990	         1.17501e+58
          1169.66620	         1.81025e+58
          1170.47250	         1.61046e+58
          1171.27880	         1.32052e+58
          1172.08510	         2.01487e+58
          1172.89140	         1.48381e+58
          1173.69770	         6.56619e+57
          1174.50400	         8.49199e+57
          1175.31030	         1.87832e+58
          1176.11660	         1.86740e+58
          1176.92290	         1.67764e+58
          1177.72920	         1.02280e+58
          1178.53550	         5.41711e+57
          1179.34180	         5.24404e+57
          1180.14810	         1.02204e+58
          1180.95440	         1.32216e+58
          1181.76070	         8.42415e+57
          1182.56700	         1.00202e+58
          1183.37330	         1.05680e+58
          1184.17960	         1.34590e+58
          1184.98590	         1.01875e+58
          1185.79220	         9.19965e+57
          1186.59850	         1.30299e+58
          1187.40480	         5.81074e+57
          1188.21110	         1.46116e+58
          1189.01740	         1.49884e+58
          1189.82370	         1.47119e+58
          1190.63000	         1.26779e+58
          1191.43630	         1.33236e+58
          1192.24260	         1.16116e+58
          1193.04890	         1.37425e+58
          1193.85520	         1.00971e+58
          1194.66150	         7.71873e+57
          1195.46780	         1.11113e+58
          1196.27410	         1.42540e+58
          1197.08040	         1.45106e+58
          1197.88670	         1.62730e+58
          1198.69300	         1.59980e+58
          1199.49930	         1.66562e+58
          1200.30560	         1.23078e+58
          1201.11190	         1.08103e+58
          1201.91820	         8.49648e+57
          1202.72450	         7.67244e+57
          1203.53080	         1.63393e+58
          1204.33710	         1.03734e+58
          1205.14340	         1.02853e+58
          1205.94970	         1.04074e+58
          1206.75600	         7.74358e+57
          1207.56230	         3.16271e+57
          1208.36860	         5.26268e+57
          1209.17490	         5.87693e+57
          1209.98120	         9.25760e+57
          1210.78750	         8.57401e+57
          1211.59380	         1.18495e+58
          1212.40010	         1.79181e+58
          1213.20640	         1.85546e+58
          1214.01270	         1.93107e+58
          1214.81900	         2.53130e+58
          1215.62530	         4.18211e+58
          1216.43160	         8.54577e+58
          1217.23790	         1.49323e+59
          1218.04420	         1.12276e+59
          1218.85050	         8.68308e+58
          1219.65680	         5.95088e+58
          1220.46310	         3.78614e+58
          1221.26940	         2.66615e+58
          1222.07570	         1.28630e+58
          1222.88200	         1.07178e+58
          1223.68830	         7.56006e+57
          1224.49460	         4.52926e+57
          1225.30090	         4.63646e+57
          1226.10720	         5.57939e+57
          1226.91350	         7.12892e+57
          1227.71980	         9.01934e+57
          1228.52610	         9.78106e+57
          1229.33240	         1.18317e+58
          1230.13870	         9.28239e+57
          1230.94500	         7.16813e+57
          1231.75130	         7.94516e+57
          1232.55760	         8.44530e+57
          1233.36390	         7.43424e+57
          1234.17020	         8.75456e+57
          1234.97650	         7.52398e+57
          1235.78280	         6.47952e+57
          1236.58910	         7.85195e+57
          1237.39540	         1.05930e+58
          1238.20170	         1.01637e+58
          1239.00800	         1.15391e+58
          1239.81430	         1.37962e+58
          1240.62060	         1.24372e+58
          1241.42690	         1.12391e+58
          1242.23320	         1.17705e+58
          1243.03950	         9.17557e+57
          1243.84580	         9.35231e+57
          1244.65210	         1.03303e+58
          1245.45840	         1.03613e+58
          1246.26470	         9.85478e+57
          1247.07100	         1.03077e+58
          1247.87730	         4.94536e+57
          1248.68360	         3.22353e+57
          1249.48990	         8.75324e+57
          1250.29620	         9.86574e+57
          1251.10250	         9.98682e+57
          1251.90880	         8.04801e+57
          1252.71510	         4.20216e+57
          1253.52140	         4.65313e+57
          1254.32770	         8.97592e+57
          1255.13400	         1.28865e+58
          1255.94030	         1.33106e+58
          1256.74660	         1.22782e+58
          1257.55290	         1.36004e+58
          1258.35920	         1.27818e+58
          1259.16550	         8.45532e+57
          1259.97180	         5.40066e+57
          1260.77810	         8.11061e+57
          1261.58440	         8.68403e+57
          1262.39070	         7.33441e+57
          1263.19700	         8.58792e+57
          1264.00330	         9.26639e+57
          1264.80960	         1.02794e+58
          1265.61590	         1.38419e+58
          1266.42220	         1.15470e+58
          1267.22850	         8.73915e+57
          1268.03480	         1.25761e+58
          1268.84110	         1.44926e+58
          1269.64740	         1.34190e+58
          1270.45370	         1.49861e+58
          1271.26000	         1.23795e+58
          1272.06630	         1.04960e+58
          1272.87260	         1.41731e+58
          1273.67890	         1.32712e+58
          1274.48520	         1.37173e+58
          1275.29150	         1.43745e+58
          1276.09780	         1.11782e+58
          1276.90410	         1.35033e+58
          1277.71040	         1.35716e+58
          1278.51670	         1.26855e+58
          1279.32300	         1.55528e+58
          1280.12930	         1.43313e+58
          1280.93560	         9.98100e+57
          1281.74190	         9.50088e+57
          1282.54820	         1.41968e+58
          1283.35450	         1.13907e+58
          1284.16080	         1.05831e+58
          1284.96710	         1.31564e+58
          1285.77340	         1.11618e+58
          1286.57970	         1.04504e+58
          1287.38600	         1.46651e+58
          1288.19230	         1.74483e+58
          1288.99860	         1.52208e+58
          1289.80490	         1.10133e+58
          1290.61120	         1.23140e+58
          1291.41750	         1.39203e+58
          1292.22380	         1.20774e+58
          1293.03010	         9.52282e+57
          1293.83640	         9.94570e+57
          1294.64270	         9.93294e+57
          1295.44900	         5.66644e+57
          1296.25530	         6.88186e+57
          1297.06160	         1.12123e+58
          1297.86790	         1.37170e+58
          1298.67420	         9.88022e+57
          1299.48050	         9.02279e+57
          1300.28680	         1.09069e+58
          1301.09310	         9.23323e+57
          1301.89940	         4.24946e+57
          1302.70570	         5.14473e+57
          1303.51200	         7.67967e+57
          1304.31830	         9.99422e+57
          1305.12460	         1.01830e+58
          1305.93090	         1.03168e+58
          1306.73720	         1.16475e+58
          1307.54350	         1.30974e+58
          1308.34980	         1.42150e+58
          1309.15610	         1.39896e+58
          1309.96240	         1.44655e+58
          1310.76870	         1.35550e+58
          1311.57500	         1.08032e+58
          1312.38130	         1.01595e+58
          1313.18760	         1.14821e+58
          1313.99390	         1.43232e+58
          1314.80020	         1.63571e+58
          1315.60650	         1.42681e+58
          1316.41280	         1.32300e+58
          1317.21910	         1.15573e+58
          1318.02540	         1.20702e+58
          1318.83170	         1.38479e+58
          1319.63800	         1.24815e+58
          1320.44430	         1.23571e+58
          1321.25060	         1.42359e+58
          1322.05690	         1.36235e+58
          1322.86320	         1.27547e+58
          1323.66950	         1.10272e+58
          1324.47580	         8.73589e+57
          1325.28210	         7.74317e+57
          1326.08840	         9.09255e+57
          1326.89470	         1.20835e+58
          1327.70100	         1.06008e+58
          1328.50730	         7.73419e+57
          1329.31360	         9.12081e+57
          1330.11990	         8.76635e+57
          1330.92620	         8.04480e+57
          1331.73250	         9.78727e+57
          1332.53880	         9.43123e+57
          1333.34510	         7.48004e+57
          1334.15140	         7.70086e+57
          1334.95770	         8.78872e+57
          1335.76400	         1.09564e+58
          1336.57030	         1.10917e+58
          1337.37660	         1.01768e+58
          1338.18290	         1.10001e+58
          1338.98920	         1.11237e+58
          1339.79550	         1.20832e+58
          1340.60180	         1.28285e+58
          1341.40810	         1.27116e+58
          1342.21440	         1.16465e+58
          1343.02070	         1.16242e+58
          1343.82700	         1.39787e+58
          1344.63330	         1.39658e+58
          1345.43960	         1.39937e+58
          1346.24590	         1.20710e+58
          1347.05220	         1.18911e+58
          1347.85850	         1.14170e+58
          1348.66480	         1.21866e+58
          1349.47110	         1.30502e+58
          1350.27740	         1.23975e+58
          1351.08370	         1.07817e+58
          1351.89000	         1.18292e+58
          1352.69630	         1.20371e+58
          1353.50260	         1.26668e+58
          1354.30890	         1.25966e+58
          1355.11520	         1.15538e+58
          1355.92150	         1.06432e+58
          1356.72780	         1.05332e+58
          1357.53410	         1.09639e+58
          1358.34040	         1.05539e+58
          1359.14670	         9.06301e+57
          1359.95300	         1.03639e+58
          1360.75930	         1.18919e+58
          1361.56560	         1.06888e+58
          1362.37190	         1.08030e+58
          1363.17820	         1.12439e+58
          1363.98450	         1.23701e+58
          1364.79080	         1.52095e+58
          1365.59710	         1.34548e+58
          1366.40340	         1.03498e+58
          1367.20970	         1.01518e+58
          1368.01600	         1.15745e+58
          1368.82230	         1.14719e+58
          1369.62860	         1.17911e+58
          1370.43490	         1.04390e+58
          1371.24120	         8.75354e+57
          1372.04750	         8.56455e+57
          1372.85380	         1.08623e+58
          1373.66010	         1.11150e+58
          1374.46640	         1.09184e+58
          1375.27270	         1.09885e+58
          1376.07900	         1.00102e+58
          1376.88530	         1.00394e+58
          1377.69160	         1.01899e+58
          1378.49790	         7.44071e+57
          1379.30420	         6.33553e+57
          1380.11050	         7.38894e+57
          1380.91680	         6.94635e+57
          1381.72310	         6.24481e+57
          1382.52940	         6.74336e+57
          1383.33570	         7.46718e+57
          1384.14200	         1.00324e+58
          1384.94830	         1.19811e+58
          1385.75460	         1.06490e+58
          1386.56090	         1.07763e+58
          1387.36720	         1.12144e+58
          1388.17350	         1.20147e+58
          1388.97980	         1.11585e+58
          1389.78610	         9.48451e+57
          1390.59240	         8.36118e+57
          1391.39870	         8.42148e+57
          1392.20500	         8.14121e+57
          1393.01130	         7.45625e+57
          1393.81760	         7.44193e+57
          1394.62390	         7.67423e+57
          1395.43020	         6.04970e+57
          1396.23650	         7.08757e+57
          1397.04280	         8.59040e+57
          1397.84910	         8.00218e+57
          1398.65540	         9.37677e+57
          1399.46170	         1.06494e+58
          1400.26800	         8.39926e+57
          1401.07430	         7.12669e+57
          1401.88060	         8.38559e+57
          1402.68690	         9.14795e+57
          1403.49320	         8.13095e+57
          1404.29950	         8.26490e+57
          1405.10580	         9.20327e+57
          1405.91210	         1.06515e+58
          1406.71840	         1.04460e+58
          1407.52470	         9.77855e+57
          1408.33100	         1.06367e+58
          1409.13730	         1.16381e+58
          1409.94360	         1.19375e+58
          1410.74990	         1.14596e+58
          1411.55620	         9.95614e+57
          1412.36250	         9.45577e+57
          1413.16880	         8.13174e+57
          1413.97510	         6.03273e+57
          1414.78140	         7.81771e+57
          1415.58770	         1.02991e+58
          1416.39400	         9.90803e+57
          1417.20030	         1.16767e+58
          1418.00660	         1.15471e+58
          1418.81290	         1.19049e+58
          1419.61920	         1.10756e+58
          1420.42550	         1.12661e+58
          1421.23180	         1.23784e+58
          1422.03810	         1.20566e+58
          1422.84440	         1.17009e+58
          1423.65070	         1.32135e+58
          1424.45700	         1.01650e+58
          1425.26330	         7.59936e+57
          1426.06960	         9.45859e+57
          1426.87590	         9.74659e+57
          1427.68220	         9.32542e+57
          1428.48850	         1.00078e+58
          1429.29480	         9.63328e+57
          1430.10110	         9.30917e+57
          1430.90740	         8.33632e+57
          1431.71370	         8.42376e+57
          1432.52000	         8.68248e+57
          1433.32630	         7.93166e+57
          1434.13260	         8.09526e+57
          1434.93890	         8.58916e+57
          1435.74520	         9.32527e+57
          1436.55150	         9.05539e+57
          1437.35780	         9.26255e+57
          1438.16410	         9.42927e+57
          1438.97040	         9.34501e+57
          1439.77670	         8.97012e+57
          1440.58300	         9.14663e+57
          1441.38930	         9.53453e+57
          1442.19560	         9.34151e+57
          1443.00190	         9.53139e+57
          1443.80820	         1.17121e+58
          1444.61450	         9.66989e+57
          1445.42080	         7.81301e+57
          1446.22710	         1.06576e+58
          1447.03340	         9.80732e+57
          1447.83970	         1.03448e+58
          1448.64600	         1.03775e+58
          1449.45230	         9.65068e+57
          1450.25860	         1.02417e+58
          1451.06490	         9.03755e+57
          1451.87120	         7.37259e+57
          1452.67750	         7.70881e+57
          1453.48380	         9.06620e+57
          1454.29010	         8.24998e+57
          1455.09640	         7.42625e+57
          1455.90270	         8.96365e+57
          1456.70900	         9.54891e+57
          1457.51530	         9.74145e+57
          1458.32160	         1.15134e+58
          1459.12790	         1.24593e+58
          1459.93420	         1.14098e+58
          1460.74050	         9.32753e+57
          1461.54680	         8.11203e+57
          1462.35310	         8.22878e+57
          1463.15940	         9.94816e+57
          1463.96570	         1.16835e+58
          1464.77200	         1.17792e+58
          1465.57830	         1.07206e+58
          1466.38460	         9.09687e+57
          1467.19090	         8.35903e+57
          1467.99720	         8.61155e+57
          1468.80350	         9.61703e+57
          1469.60980	         9.97863e+57
          1470.41610	         9.42645e+57
          1471.22240	         8.38875e+57
          1472.02870	         8.53839e+57
          1472.83500	         9.02253e+57
          1473.64130	         9.22266e+57
          1474.44760	         1.03570e+58
          1475.25390	         9.06091e+57
          1476.06020	         9.23405e+57
          1476.86650	         9.33966e+57
          1477.67280	         8.17116e+57
          1478.47910	         7.86889e+57
          1479.28540	         7.75862e+57
          1480.09170	         7.93159e+57
          1480.89800	         8.14607e+57
          1481.70430	         8.96857e+57
          1482.51060	         9.58777e+57
          1483.31690	         9.24340e+57
          1484.12320	         7.37101e+57
          1484.92950	         6.98035e+57
          1485.73580	         7.62852e+57
          1486.54210	         8.61905e+57
          1487.34840	         8.81084e+57
          1488.15470	         8.31886e+57
          1488.96100	         8.59110e+57
          1489.76730	         9.04826e+57
