#sample_89_stacked_spectrum_rest_UV-bands_median_H-alpha_noDC.txt
#median Lum: 1.68830e+42
#Rest-frame wavelength (A) | Luminosity (erg/s/A)
#
          1110.00000	         0.00000e+00
          1110.80630	        -2.42716e+59
          1111.61260	         2.05076e+59
          1112.41890	         2.46333e+59
          1113.22520	         1.98652e+59
          1114.03150	         3.51438e+58
          1114.83780	        -1.34505e+59
          1115.64410	         1.53370e+59
          1116.45040	         2.84916e+59
          1117.25670	         9.06736e+58
          1118.06300	         1.94505e+58
          1118.86930	         3.56013e+58
          1119.67560	         1.10275e+59
          1120.48190	        -2.83142e+58
          1121.28820	        -1.23189e+59
          1122.09450	         2.42673e+58
          1122.90080	        -1.64680e+58
          1123.70710	         7.58614e+58
          1124.51340	         1.26964e+59
          1125.31970	         5.02923e+58
          1126.12600	         8.88596e+57
          1126.93230	        -6.59164e+58
          1127.73860	        -6.32076e+58
          1128.54490	         3.61642e+57
          1129.35120	         2.80164e+58
          1130.15750	        -1.56552e+58
          1130.96380	         3.50227e+58
          1131.77010	         7.13791e+58
          1132.57640	         2.25949e+58
          1133.38270	        -1.45383e+58
          1134.18900	         8.76071e+57
          1134.99530	         4.50194e+58
          1135.80160	         5.18129e+58
          1136.60790	         1.90569e+58
          1137.41420	        -5.72998e+57
          1138.22050	         4.76816e+58
          1139.02680	         4.23731e+58
          1139.83310	         3.35972e+58
          1140.63940	         3.10105e+58
          1141.44570	        -1.75549e+58
          1142.25200	        -9.99496e+57
          1143.05830	         5.72600e+57
          1143.86460	         1.77499e+58
          1144.67090	         5.48858e+58
          1145.47720	         2.56374e+58
          1146.28350	        -1.24111e+56
          1147.08980	         9.42330e+57
          1147.89610	         1.49986e+58
          1148.70240	         2.64310e+58
          1149.50870	         2.34560e+58
          1150.31500	         1.97963e+58
          1151.12130	         9.31809e+57
          1151.92760	        -3.11629e+57
          1152.73390	         1.23943e+58
          1153.54020	         1.01443e+58
          1154.34650	         2.23792e+58
          1155.15280	         2.34592e+58
          1155.95910	         2.40957e+58
          1156.76540	         7.13958e+57
          1157.57170	         4.03534e+57
          1158.37800	        -5.72026e+55
          1159.18430	        -4.54801e+57
          1159.99060	         4.41474e+57
          1160.79690	         6.99108e+57
          1161.60320	         1.49058e+58
          1162.40950	         1.10546e+58
          1163.21580	         1.51107e+58
          1164.02210	         1.97012e+58
          1164.82840	         5.99040e+57
          1165.63470	         1.96623e+58
          1166.44100	         2.99969e+58
          1167.24730	         1.69448e+58
          1168.05360	         9.35167e+57
          1168.85990	         6.41046e+57
          1169.66620	         4.82702e+57
          1170.47250	         8.66189e+57
          1171.27880	         1.08036e+58
          1172.08510	         1.64658e+58
          1172.89140	         1.57684e+58
          1173.69770	         9.37577e+56
          1174.50400	         1.70792e+58
          1175.31030	         1.93130e+58
          1176.11660	         2.04389e+58
          1176.92290	         1.60552e+58
          1177.72920	         1.19573e+58
          1178.53550	         8.33336e+57
          1179.34180	         8.90066e+57
          1180.14810	         1.14154e+58
          1180.95440	         9.95219e+57
          1181.76070	         6.48859e+57
          1182.56700	         3.34553e+57
          1183.37330	         5.56111e+57
          1184.17960	         1.23134e+58
          1184.98590	         1.29027e+58
          1185.79220	         1.03164e+58
          1186.59850	         1.08972e+58
          1187.40480	         1.02160e+58
          1188.21110	         1.60982e+58
          1189.01740	         9.20941e+57
          1189.82370	         1.13796e+58
          1190.63000	         1.11004e+58
          1191.43630	         9.20096e+57
          1192.24260	         8.22323e+57
          1193.04890	         9.83272e+57
          1193.85520	         1.36603e+58
          1194.66150	         8.48188e+57
          1195.46780	         1.18194e+58
          1196.27410	         1.25927e+58
          1197.08040	         7.84385e+57
          1197.88670	         9.06986e+57
          1198.69300	         1.20840e+58
          1199.49930	         1.42170e+58
          1200.30560	         1.61876e+58
          1201.11190	         1.26294e+58
          1201.91820	         1.15088e+58
          1202.72450	         7.62730e+57
          1203.53080	         1.38766e+58
          1204.33710	         9.65856e+57
          1205.14340	         9.06603e+57
          1205.94970	         6.21937e+57
          1206.75600	         5.38355e+57
          1207.56230	         5.31434e+57
          1208.36860	         7.76285e+57
          1209.17490	         2.53003e+57
          1209.98120	         7.25246e+57
          1210.78750	         5.90780e+57
          1211.59380	         1.08607e+58
          1212.40010	         1.79026e+58
          1213.20640	         2.16692e+58
          1214.01270	         2.31796e+58
          1214.81900	         2.55464e+58
          1215.62530	         4.27715e+58
          1216.43160	         8.77323e+58
          1217.23790	         1.49538e+59
          1218.04420	         1.17336e+59
          1218.85050	         8.76569e+58
          1219.65680	         5.63338e+58
          1220.46310	         3.42211e+58
          1221.26940	         2.38283e+58
          1222.07570	         1.58960e+58
          1222.88200	         1.23066e+58
          1223.68830	         1.09569e+58
          1224.49460	         7.06483e+57
          1225.30090	         6.49149e+57
          1226.10720	         6.41890e+57
          1226.91350	         6.29814e+57
          1227.71980	         6.67564e+57
          1228.52610	         9.68846e+57
          1229.33240	         9.37465e+57
          1230.13870	         8.05422e+57
          1230.94500	         8.93394e+57
          1231.75130	         7.78043e+57
          1232.55760	         1.03982e+58
          1233.36390	         9.79192e+57
          1234.17020	         1.03198e+58
          1234.97650	         8.14218e+57
          1235.78280	         7.15370e+57
          1236.58910	         8.56097e+57
          1237.39540	         1.01731e+58
          1238.20170	         9.87652e+57
          1239.00800	         1.14569e+58
          1239.81430	         1.15034e+58
          1240.62060	         7.70963e+57
          1241.42690	         9.40675e+57
          1242.23320	         1.19396e+58
          1243.03950	         8.18339e+57
          1243.84580	         8.70940e+57
          1244.65210	         1.09949e+58
          1245.45840	         1.04469e+58
          1246.26470	         8.35317e+57
          1247.07100	         9.84708e+57
          1247.87730	         7.49315e+57
          1248.68360	         4.33693e+57
          1249.48990	         8.81219e+57
          1250.29620	         9.69233e+57
          1251.10250	         9.35415e+57
          1251.90880	         8.23558e+57
          1252.71510	         3.11005e+57
          1253.52140	         3.74206e+57
          1254.32770	         9.28391e+57
          1255.13400	         1.30887e+58
          1255.94030	         1.19003e+58
          1256.74660	         9.97370e+57
          1257.55290	         1.02196e+58
          1258.35920	         8.25536e+57
          1259.16550	         5.60928e+57
          1259.97180	         5.00956e+57
          1260.77810	         8.29622e+57
          1261.58440	         9.55109e+57
          1262.39070	         7.60216e+57
          1263.19700	         7.80571e+57
          1264.00330	         8.59290e+57
          1264.80960	         1.04470e+58
          1265.61590	         1.38527e+58
          1266.42220	         1.40112e+58
          1267.22850	         1.24589e+58
          1268.03480	         1.58494e+58
          1268.84110	         1.56391e+58
          1269.64740	         1.21054e+58
          1270.45370	         1.48202e+58
          1271.26000	         1.30038e+58
          1272.06630	         1.20951e+58
          1272.87260	         1.22859e+58
          1273.67890	         1.10243e+58
          1274.48520	         1.16550e+58
          1275.29150	         1.26916e+58
          1276.09780	         1.03741e+58
          1276.90410	         1.28035e+58
          1277.71040	         1.21471e+58
          1278.51670	         1.29035e+58
          1279.32300	         1.48973e+58
          1280.12930	         1.37610e+58
          1280.93560	         1.08486e+58
          1281.74190	         1.10592e+58
          1282.54820	         1.25981e+58
          1283.35450	         1.01881e+58
          1284.16080	         9.87503e+57
          1284.96710	         1.37903e+58
          1285.77340	         1.10182e+58
          1286.57970	         7.94697e+57
          1287.38600	         1.46872e+58
          1288.19230	         1.80330e+58
          1288.99860	         1.73271e+58
          1289.80490	         1.14885e+58
          1290.61120	         1.23644e+58
          1291.41750	         1.35805e+58
          1292.22380	         9.98274e+57
          1293.03010	         1.03548e+58
          1293.83640	         1.08493e+58
          1294.64270	         9.37494e+57
          1295.44900	         6.85467e+57
          1296.25530	         7.13399e+57
          1297.06160	         9.10582e+57
          1297.86790	         1.09809e+58
          1298.67420	         1.00065e+58
          1299.48050	         9.91953e+57
          1300.28680	         9.15950e+57
          1301.09310	         6.97831e+57
          1301.89940	         5.37247e+57
          1302.70570	         7.31607e+57
          1303.51200	         7.84202e+57
          1304.31830	         9.60800e+57
          1305.12460	         1.12977e+58
          1305.93090	         1.14978e+58
          1306.73720	         1.20817e+58
          1307.54350	         1.33422e+58
          1308.34980	         1.45086e+58
          1309.15610	         1.45139e+58
          1309.96240	         1.52573e+58
          1310.76870	         1.26946e+58
          1311.57500	         1.13057e+58
          1312.38130	         1.32268e+58
          1313.18760	         1.63890e+58
          1313.99390	         1.74483e+58
          1314.80020	         1.75153e+58
          1315.60650	         1.43216e+58
          1316.41280	         1.28277e+58
          1317.21910	         1.18911e+58
          1318.02540	         1.22077e+58
          1318.83170	         1.32004e+58
          1319.63800	         1.31969e+58
          1320.44430	         1.32414e+58
          1321.25060	         1.31972e+58
          1322.05690	         1.16406e+58
          1322.86320	         1.18632e+58
          1323.66950	         1.18746e+58
          1324.47580	         9.18200e+57
          1325.28210	         9.27735e+57
          1326.08840	         1.14655e+58
          1326.89470	         1.29529e+58
          1327.70100	         1.07162e+58
          1328.50730	         8.57443e+57
          1329.31360	         9.47202e+57
          1330.11990	         1.04246e+58
          1330.92620	         9.23181e+57
          1331.73250	         1.07563e+58
          1332.53880	         1.15517e+58
          1333.34510	         9.10315e+57
          1334.15140	         7.78942e+57
          1334.95770	         8.71592e+57
          1335.76400	         1.07409e+58
          1336.57030	         1.04782e+58
          1337.37660	         9.85801e+57
          1338.18290	         1.01594e+58
          1338.98920	         1.02091e+58
          1339.79550	         1.10621e+58
          1340.60180	         1.06830e+58
          1341.40810	         1.14394e+58
          1342.21440	         1.09971e+58
          1343.02070	         1.25618e+58
          1343.82700	         1.43027e+58
          1344.63330	         1.31093e+58
          1345.43960	         1.34424e+58
          1346.24590	         1.29784e+58
          1347.05220	         1.38972e+58
          1347.85850	         1.14814e+58
          1348.66480	         1.07558e+58
          1349.47110	         1.13001e+58
          1350.27740	         1.19506e+58
          1351.08370	         1.20102e+58
          1351.89000	         1.17702e+58
          1352.69630	         1.08765e+58
          1353.50260	         1.10277e+58
          1354.30890	         1.07241e+58
          1355.11520	         1.00702e+58
          1355.92150	         1.02259e+58
          1356.72780	         8.81773e+57
          1357.53410	         9.13457e+57
          1358.34040	         1.12174e+58
          1359.14670	         9.64425e+57
          1359.95300	         1.08384e+58
          1360.75930	         1.13182e+58
          1361.56560	         1.02947e+58
          1362.37190	         1.07112e+58
          1363.17820	         1.14012e+58
          1363.98450	         1.26295e+58
          1364.79080	         1.26011e+58
          1365.59710	         1.16581e+58
          1366.40340	         1.04565e+58
          1367.20970	         9.96884e+57
          1368.01600	         1.00593e+58
          1368.82230	         9.14494e+57
          1369.62860	         1.02785e+58
          1370.43490	         1.08285e+58
          1371.24120	         1.04439e+58
          1372.04750	         9.93453e+57
          1372.85380	         1.09328e+58
          1373.66010	         1.01856e+58
          1374.46640	         9.43777e+57
          1375.27270	         9.70075e+57
          1376.07900	         9.18298e+57
          1376.88530	         8.48940e+57
          1377.69160	         9.27073e+57
          1378.49790	         8.45262e+57
          1379.30420	         8.16955e+57
          1380.11050	         9.83567e+57
          1380.91680	         7.99374e+57
          1381.72310	         8.22254e+57
          1382.52940	         9.12893e+57
          1383.33570	         7.69227e+57
          1384.14200	         8.73444e+57
          1384.94830	         1.09091e+58
          1385.75460	         1.13473e+58
          1386.56090	         1.13087e+58
          1387.36720	         1.00942e+58
          1388.17350	         1.26777e+58
          1388.97980	         1.19389e+58
          1389.78610	         9.49862e+57
          1390.59240	         9.02874e+57
          1391.39870	         8.98290e+57
          1392.20500	         9.83320e+57
          1393.01130	         8.01176e+57
          1393.81760	         7.37210e+57
          1394.62390	         7.40744e+57
          1395.43020	         5.32484e+57
          1396.23650	         5.69998e+57
          1397.04280	         8.18127e+57
          1397.84910	         9.86673e+57
          1398.65540	         8.71853e+57
          1399.46170	         8.14093e+57
          1400.26800	         8.52502e+57
          1401.07430	         8.27042e+57
          1401.88060	         9.00108e+57
          1402.68690	         9.44105e+57
          1403.49320	         9.46068e+57
          1404.29950	         8.92590e+57
          1405.10580	         8.91355e+57
          1405.91210	         1.07343e+58
          1406.71840	         1.17516e+58
          1407.52470	         1.12320e+58
          1408.33100	         1.09049e+58
          1409.13730	         1.22163e+58
          1409.94360	         1.16449e+58
          1410.74990	         1.10558e+58
          1411.55620	         1.00176e+58
          1412.36250	         9.08615e+57
          1413.16880	         9.20020e+57
          1413.97510	         9.17492e+57
          1414.78140	         8.95964e+57
          1415.58770	         1.08360e+58
          1416.39400	         1.02025e+58
          1417.20030	         9.87826e+57
          1418.00660	         1.03285e+58
          1418.81290	         1.10269e+58
          1419.61920	         1.09104e+58
          1420.42550	         1.24418e+58
          1421.23180	         1.31763e+58
          1422.03810	         1.16128e+58
          1422.84440	         1.17949e+58
          1423.65070	         1.31374e+58
          1424.45700	         1.15706e+58
          1425.26330	         8.48671e+57
          1426.06960	         8.91770e+57
          1426.87590	         9.69868e+57
          1427.68220	         9.91859e+57
          1428.48850	         1.13288e+58
          1429.29480	         1.04262e+58
          1430.10110	         1.00473e+58
          1430.90740	         9.07182e+57
          1431.71370	         8.99361e+57
          1432.52000	         8.06451e+57
          1433.32630	         7.80711e+57
          1434.13260	         8.47067e+57
          1434.93890	         9.29842e+57
          1435.74520	         9.45395e+57
          1436.55150	         9.10147e+57
          1437.35780	         8.42514e+57
          1438.16410	         8.10922e+57
          1438.97040	         7.98492e+57
          1439.77670	         8.79885e+57
          1440.58300	         9.07071e+57
          1441.38930	         9.10186e+57
          1442.19560	         9.46969e+57
          1443.00190	         1.02615e+58
          1443.80820	         1.23357e+58
          1444.61450	         1.16037e+58
          1445.42080	         9.63101e+57
          1446.22710	         1.14114e+58
          1447.03340	         1.14587e+58
          1447.83970	         1.09945e+58
          1448.64600	         1.10648e+58
          1449.45230	         1.06063e+58
          1450.25860	         9.48940e+57
          1451.06490	         8.36216e+57
          1451.87120	         7.44003e+57
          1452.67750	         7.96277e+57
          1453.48380	         8.86969e+57
          1454.29010	         7.45392e+57
          1455.09640	         7.03702e+57
          1455.90270	         8.57803e+57
          1456.70900	         8.86803e+57
          1457.51530	         1.03143e+58
          1458.32160	         1.22475e+58
          1459.12790	         1.11984e+58
          1459.93420	         9.56709e+57
          1460.74050	         8.46190e+57
          1461.54680	         9.26195e+57
          1462.35310	         8.66182e+57
          1463.15940	         9.16163e+57
          1463.96570	         9.63952e+57
          1464.77200	         1.13828e+58
          1465.57830	         1.12043e+58
          1466.38460	         8.78834e+57
          1467.19090	         7.64416e+57
          1467.99720	         7.51932e+57
          1468.80350	         9.19476e+57
          1469.60980	         9.91769e+57
          1470.41610	         9.69894e+57
          1471.22240	         9.02020e+57
          1472.02870	         9.32421e+57
          1472.83500	         9.41227e+57
          1473.64130	         9.23178e+57
          1474.44760	         9.32085e+57
          1475.25390	         8.79042e+57
          1476.06020	         9.26753e+57
          1476.86650	         9.38621e+57
          1477.67280	         7.72112e+57
          1478.47910	         6.70618e+57
          1479.28540	         6.67089e+57
          1480.09170	         7.00644e+57
          1480.89800	         7.66532e+57
          1481.70430	         8.59861e+57
          1482.51060	         8.44443e+57
          1483.31690	         7.94953e+57
          1484.12320	         7.46613e+57
          1484.92950	         8.37171e+57
          1485.73580	         9.33517e+57
          1486.54210	         8.92607e+57
          1487.34840	         9.14779e+57
          1488.15470	         8.57788e+57
          1488.96100	         8.60425e+57
          1489.76730	         8.87322e+57
