#sample_264_stacked_spectrum_rest_UV-bands_median_H-alpha_noDC.txt
#median Lum: 1.69768e+42
#Rest-frame wavelength (A) | Luminosity (erg/s/A)
#
          1110.00000	         0.00000e+00
          1110.80630	         8.26921e+58
          1111.61260	         3.25768e+58
          1112.41890	         3.97741e+58
          1113.22520	         1.21794e+58
          1114.03150	        -9.87321e+58
          1114.83780	        -1.26726e+58
          1115.64410	         1.71612e+58
          1116.45040	         5.99674e+58
          1117.25670	        -4.51330e+58
          1118.06300	        -4.43914e+58
          1118.86930	        -3.16614e+58
          1119.67560	         6.98472e+58
          1120.48190	         1.42537e+58
          1121.28820	        -7.62664e+58
          1122.09450	         2.19801e+57
          1122.90080	         7.30869e+58
          1123.70710	         9.37028e+58
          1124.51340	         7.74236e+58
          1125.31970	        -1.43051e+58
          1126.12600	        -5.42788e+58
          1126.93230	        -2.71559e+58
          1127.73860	        -1.48118e+58
          1128.54490	        -1.44158e+58
          1129.35120	        -4.71100e+57
          1130.15750	        -2.79189e+57
          1130.96380	        -8.87982e+57
          1131.77010	         2.89557e+58
          1132.57640	         5.50560e+58
          1133.38270	         4.74362e+58
          1134.18900	         2.38769e+58
          1134.99530	         1.07013e+58
          1135.80160	         3.55348e+58
          1136.60790	         1.60785e+58
          1137.41420	        -4.98855e+57
          1138.22050	         4.25977e+58
          1139.02680	         2.56954e+58
          1139.83310	         1.70807e+58
          1140.63940	         1.51414e+58
          1141.44570	        -9.76352e+57
          1142.25200	        -4.47416e+57
          1143.05830	         1.59783e+58
          1143.86460	         2.90508e+58
          1144.67090	         2.61970e+58
          1145.47720	         2.01554e+58
          1146.28350	         1.30902e+58
          1147.08980	        -3.34812e+56
          1147.89610	         6.61081e+57
          1148.70240	         1.39560e+58
          1149.50870	         3.05889e+58
          1150.31500	         1.63101e+58
          1151.12130	         2.03758e+58
          1151.92760	         9.10537e+57
          1152.73390	         4.02283e+57
          1153.54020	         4.38525e+57
          1154.34650	         1.63453e+58
          1155.15280	         3.28176e+58
          1155.95910	         1.62603e+58
          1156.76540	         5.94567e+57
          1157.57170	         3.57364e+57
          1158.37800	        -6.70381e+56
          1159.18430	         4.38593e+57
          1159.99060	         1.87175e+58
          1160.79690	         1.33859e+58
          1161.60320	         8.59029e+57
          1162.40950	         1.50286e+58
          1163.21580	         6.65461e+57
          1164.02210	         1.29158e+57
          1164.82840	         4.22136e+57
          1165.63470	         1.97774e+58
          1166.44100	         2.93229e+58
          1167.24730	         2.45300e+58
          1168.05360	         1.29848e+58
          1168.85990	         5.53868e+57
          1169.66620	         9.15625e+57
          1170.47250	         1.98269e+58
          1171.27880	         8.85674e+57
          1172.08510	         1.85345e+58
          1172.89140	         1.78449e+58
          1173.69770	         1.20435e+58
          1174.50400	         1.55983e+58
          1175.31030	         1.58034e+58
          1176.11660	         1.09567e+58
          1176.92290	         1.75478e+58
          1177.72920	         1.27892e+58
          1178.53550	         8.21783e+57
          1179.34180	         5.06909e+57
          1180.14810	         1.67551e+57
          1180.95440	         1.13248e+58
          1181.76070	         9.55160e+57
          1182.56700	         8.86995e+57
          1183.37330	         9.28990e+57
          1184.17960	         1.29407e+58
          1184.98590	         1.11822e+58
          1185.79220	         9.22535e+57
          1186.59850	         1.32391e+58
          1187.40480	         1.34521e+58
          1188.21110	         1.97280e+58
          1189.01740	         1.36853e+58
          1189.82370	         1.53879e+58
          1190.63000	         1.12961e+58
          1191.43630	         1.19736e+58
          1192.24260	         4.04347e+57
          1193.04890	         1.05137e+58
          1193.85520	         1.31440e+58
          1194.66150	         3.44662e+57
          1195.46780	         7.60872e+57
          1196.27410	         1.28747e+58
          1197.08040	         7.58639e+57
          1197.88670	         1.08315e+58
          1198.69300	         1.41498e+58
          1199.49930	         1.46740e+58
          1200.30560	         1.05118e+58
          1201.11190	         9.63098e+57
          1201.91820	         1.10146e+58
          1202.72450	         6.78052e+57
          1203.53080	         1.17806e+58
          1204.33710	         8.85947e+57
          1205.14340	         5.71733e+57
          1205.94970	         3.69850e+57
          1206.75600	         5.10808e+57
          1207.56230	         7.21190e+57
          1208.36860	         1.14971e+58
          1209.17490	         6.34803e+57
          1209.98120	         1.80822e+57
          1210.78750	         9.32452e+57
          1211.59380	         1.58727e+58
          1212.40010	         1.75267e+58
          1213.20640	         2.10971e+58
          1214.01270	         2.19105e+58
          1214.81900	         2.85968e+58
          1215.62530	         4.90007e+58
          1216.43160	         9.60445e+58
          1217.23790	         1.44715e+59
          1218.04420	         1.09789e+59
          1218.85050	         8.43110e+58
          1219.65680	         5.53936e+58
          1220.46310	         3.44179e+58
          1221.26940	         2.47982e+58
          1222.07570	         1.16700e+58
          1222.88200	         8.36084e+57
          1223.68830	         9.26706e+57
          1224.49460	         7.53139e+57
          1225.30090	         5.27447e+57
          1226.10720	         5.59143e+57
          1226.91350	         3.12328e+57
          1227.71980	         8.11560e+57
          1228.52610	         1.22073e+58
          1229.33240	         1.01749e+58
          1230.13870	         7.05705e+57
          1230.94500	         8.00462e+57
          1231.75130	         7.13714e+57
          1232.55760	         7.11595e+57
          1233.36390	         7.62254e+57
          1234.17020	         7.84423e+57
          1234.97650	         6.29010e+57
          1235.78280	         5.73795e+57
          1236.58910	         9.27015e+57
          1237.39540	         9.76132e+57
          1238.20170	         8.78474e+57
          1239.00800	         1.19972e+58
          1239.81430	         1.29228e+58
          1240.62060	         1.06162e+58
          1241.42690	         1.15016e+58
          1242.23320	         1.21531e+58
          1243.03950	         8.54784e+57
          1243.84580	         6.92818e+57
          1244.65210	         8.87860e+57
          1245.45840	         1.05826e+58
          1246.26470	         9.69779e+57
          1247.07100	         7.42731e+57
          1247.87730	         5.71908e+57
          1248.68360	         5.79067e+57
          1249.48990	         1.19186e+58
          1250.29620	         1.23132e+58
          1251.10250	         6.81032e+57
          1251.90880	         4.01096e+57
          1252.71510	         5.66578e+57
          1253.52140	         8.30215e+57
          1254.32770	         1.03846e+58
          1255.13400	         1.25217e+58
          1255.94030	         1.10914e+58
          1256.74660	         1.08669e+58
          1257.55290	         1.05851e+58
          1258.35920	         7.95609e+57
          1259.16550	         5.72309e+57
          1259.97180	         5.38275e+57
          1260.77810	         9.56522e+57
          1261.58440	         1.06998e+58
          1262.39070	         8.54347e+57
          1263.19700	         9.66710e+57
          1264.00330	         9.62645e+57
          1264.80960	         1.00122e+58
          1265.61590	         1.19275e+58
          1266.42220	         1.21905e+58
          1267.22850	         1.11750e+58
          1268.03480	         1.23655e+58
          1268.84110	         1.28003e+58
          1269.64740	         1.16698e+58
          1270.45370	         1.34943e+58
          1271.26000	         1.23131e+58
          1272.06630	         1.04943e+58
          1272.87260	         1.05541e+58
          1273.67890	         1.09822e+58
          1274.48520	         1.40545e+58
          1275.29150	         1.31576e+58
          1276.09780	         9.18078e+57
          1276.90410	         1.24041e+58
          1277.71040	         1.07146e+58
          1278.51670	         9.03119e+57
          1279.32300	         1.23474e+58
          1280.12930	         1.23977e+58
          1280.93560	         1.12295e+58
          1281.74190	         1.13265e+58
          1282.54820	         1.33016e+58
          1283.35450	         1.05530e+58
          1284.16080	         1.12168e+58
          1284.96710	         1.44781e+58
          1285.77340	         1.15873e+58
          1286.57970	         9.11742e+57
          1287.38600	         1.14952e+58
          1288.19230	         1.44741e+58
          1288.99860	         1.25903e+58
          1289.80490	         1.07317e+58
          1290.61120	         1.27186e+58
          1291.41750	         1.32176e+58
          1292.22380	         1.18766e+58
          1293.03010	         9.99063e+57
          1293.83640	         1.11819e+58
          1294.64270	         9.59865e+57
          1295.44900	         5.76164e+57
          1296.25530	         7.09117e+57
          1297.06160	         9.09795e+57
          1297.86790	         9.52265e+57
          1298.67420	         8.44581e+57
          1299.48050	         8.48086e+57
          1300.28680	         1.02495e+58
          1301.09310	         8.62104e+57
          1301.89940	         3.18446e+57
          1302.70570	         4.89249e+57
          1303.51200	         7.11572e+57
          1304.31830	         8.88152e+57
          1305.12460	         9.23683e+57
          1305.93090	         1.08559e+58
          1306.73720	         1.22653e+58
          1307.54350	         1.37649e+58
          1308.34980	         1.51409e+58
          1309.15610	         1.68825e+58
          1309.96240	         1.65950e+58
          1310.76870	         1.28833e+58
          1311.57500	         1.14755e+58
          1312.38130	         1.04643e+58
          1313.18760	         1.19334e+58
          1313.99390	         1.43435e+58
          1314.80020	         1.53862e+58
          1315.60650	         1.46226e+58
          1316.41280	         1.22876e+58
          1317.21910	         1.31541e+58
          1318.02540	         1.36345e+58
          1318.83170	         1.21174e+58
          1319.63800	         1.15740e+58
          1320.44430	         1.04059e+58
          1321.25060	         1.11797e+58
          1322.05690	         1.00334e+58
          1322.86320	         1.10094e+58
          1323.66950	         1.18054e+58
          1324.47580	         9.20417e+57
          1325.28210	         9.49160e+57
          1326.08840	         1.04842e+58
          1326.89470	         1.30556e+58
          1327.70100	         1.11439e+58
          1328.50730	         6.91244e+57
          1329.31360	         8.18835e+57
          1330.11990	         9.81916e+57
          1330.92620	         9.59958e+57
          1331.73250	         1.05543e+58
          1332.53880	         9.47845e+57
          1333.34510	         8.33911e+57
          1334.15140	         1.01279e+58
          1334.95770	         9.35312e+57
          1335.76400	         9.44176e+57
          1336.57030	         9.92736e+57
          1337.37660	         9.21049e+57
          1338.18290	         1.05143e+58
          1338.98920	         1.17468e+58
          1339.79550	         1.04822e+58
          1340.60180	         1.18596e+58
          1341.40810	         1.40222e+58
          1342.21440	         1.08568e+58
          1343.02070	         9.08181e+57
          1343.82700	         1.26667e+58
          1344.63330	         1.23001e+58
          1345.43960	         1.23177e+58
          1346.24590	         1.14875e+58
          1347.05220	         1.17919e+58
          1347.85850	         1.06882e+58
          1348.66480	         9.82402e+57
          1349.47110	         1.04650e+58
          1350.27740	         1.10073e+58
          1351.08370	         1.15438e+58
          1351.89000	         1.10734e+58
          1352.69630	         1.11300e+58
          1353.50260	         1.08872e+58
          1354.30890	         1.19413e+58
          1355.11520	         1.28078e+58
          1355.92150	         1.13337e+58
          1356.72780	         9.53816e+57
          1357.53410	         8.82652e+57
          1358.34040	         8.62457e+57
          1359.14670	         9.81384e+57
          1359.95300	         1.08788e+58
          1360.75930	         1.04973e+58
          1361.56560	         9.78105e+57
          1362.37190	         1.13848e+58
          1363.17820	         1.25731e+58
          1363.98450	         1.17575e+58
          1364.79080	         1.07097e+58
          1365.59710	         1.06744e+58
          1366.40340	         1.17904e+58
          1367.20970	         9.15418e+57
          1368.01600	         9.35304e+57
          1368.82230	         1.00158e+58
          1369.62860	         1.07776e+58
          1370.43490	         1.02125e+58
          1371.24120	         8.41843e+57
          1372.04750	         7.22889e+57
          1372.85380	         9.29571e+57
          1373.66010	         1.02146e+58
          1374.46640	         9.78398e+57
          1375.27270	         9.73156e+57
          1376.07900	         9.41735e+57
          1376.88530	         8.66427e+57
          1377.69160	         7.47375e+57
          1378.49790	         7.24441e+57
          1379.30420	         7.49248e+57
          1380.11050	         8.71038e+57
          1380.91680	         7.38957e+57
          1381.72310	         6.71766e+57
          1382.52940	         8.04847e+57
          1383.33570	         8.69277e+57
          1384.14200	         1.00413e+58
          1384.94830	         1.16061e+58
          1385.75460	         1.03986e+58
          1386.56090	         1.04575e+58
          1387.36720	         1.20413e+58
          1388.17350	         1.32921e+58
          1388.97980	         1.00414e+58
          1389.78610	         8.12115e+57
          1390.59240	         7.37286e+57
          1391.39870	         5.76790e+57
          1392.20500	         6.84891e+57
          1393.01130	         6.52521e+57
          1393.81760	         7.52492e+57
          1394.62390	         8.16676e+57
          1395.43020	         6.19981e+57
          1396.23650	         5.71052e+57
          1397.04280	         6.69720e+57
          1397.84910	         8.15661e+57
          1398.65540	         8.47728e+57
          1399.46170	         8.48554e+57
          1400.26800	         7.84066e+57
          1401.07430	         7.30968e+57
          1401.88060	         6.79592e+57
          1402.68690	         8.08856e+57
          1403.49320	         8.63478e+57
          1404.29950	         8.57119e+57
          1405.10580	         1.01034e+58
          1405.91210	         1.06415e+58
          1406.71840	         1.04765e+58
          1407.52470	         1.11980e+58
          1408.33100	         1.17401e+58
          1409.13730	         1.18391e+58
          1409.94360	         1.08696e+58
          1410.74990	         1.11321e+58
          1411.55620	         1.07181e+58
          1412.36250	         8.74963e+57
          1413.16880	         8.80496e+57
          1413.97510	         8.58653e+57
          1414.78140	         8.58971e+57
          1415.58770	         9.70657e+57
          1416.39400	         1.05420e+58
          1417.20030	         9.29505e+57
          1418.00660	         9.17731e+57
          1418.81290	         1.18283e+58
          1419.61920	         1.19946e+58
          1420.42550	         1.24989e+58
          1421.23180	         1.29434e+58
          1422.03810	         1.22660e+58
          1422.84440	         1.17267e+58
          1423.65070	         1.34275e+58
          1424.45700	         1.09142e+58
          1425.26330	         8.89378e+57
          1426.06960	         9.61996e+57
          1426.87590	         9.92159e+57
          1427.68220	         9.03480e+57
          1428.48850	         1.05725e+58
          1429.29480	         1.01917e+58
          1430.10110	         9.60515e+57
          1430.90740	         7.39793e+57
          1431.71370	         8.31974e+57
          1432.52000	         8.90013e+57
          1433.32630	         7.90012e+57
          1434.13260	         8.06686e+57
          1434.93890	         8.52490e+57
          1435.74520	         8.51166e+57
          1436.55150	         8.55146e+57
          1437.35780	         8.37879e+57
          1438.16410	         7.98130e+57
          1438.97040	         8.15790e+57
          1439.77670	         8.64543e+57
          1440.58300	         9.05957e+57
          1441.38930	         9.62217e+57
          1442.19560	         9.15681e+57
          1443.00190	         8.25319e+57
          1443.80820	         9.87410e+57
          1444.61450	         9.99385e+57
          1445.42080	         8.58496e+57
          1446.22710	         9.39692e+57
          1447.03340	         9.74339e+57
          1447.83970	         1.02089e+58
          1448.64600	         1.04360e+58
          1449.45230	         1.01810e+58
          1450.25860	         1.00163e+58
          1451.06490	         8.26005e+57
          1451.87120	         6.86366e+57
          1452.67750	         7.47498e+57
          1453.48380	         8.99958e+57
          1454.29010	         8.30660e+57
          1455.09640	         8.51322e+57
          1455.90270	         9.88964e+57
          1456.70900	         9.60381e+57
          1457.51530	         1.04016e+58
          1458.32160	         1.12602e+58
          1459.12790	         9.57215e+57
          1459.93420	         9.51354e+57
          1460.74050	         8.84676e+57
          1461.54680	         8.28315e+57
          1462.35310	         7.92373e+57
          1463.15940	         8.79076e+57
          1463.96570	         1.03372e+58
          1464.77200	         1.15081e+58
          1465.57830	         1.00822e+58
          1466.38460	         9.13561e+57
          1467.19090	         8.35108e+57
          1467.99720	         8.45068e+57
          1468.80350	         8.78111e+57
          1469.60980	         1.05348e+58
          1470.41610	         9.77206e+57
          1471.22240	         8.44332e+57
          1472.02870	         9.98476e+57
          1472.83500	         1.06878e+58
          1473.64130	         1.13805e+58
          1474.44760	         9.92093e+57
          1475.25390	         7.66099e+57
          1476.06020	         6.92858e+57
          1476.86650	         7.41742e+57
          1477.67280	         6.71950e+57
          1478.47910	         6.79514e+57
          1479.28540	         6.90217e+57
          1480.09170	         8.25193e+57
          1480.89800	         9.20026e+57
          1481.70430	         8.00063e+57
          1482.51060	         7.31106e+57
          1483.31690	         7.46145e+57
          1484.12320	         7.31635e+57
          1484.92950	         6.80525e+57
          1485.73580	         7.02323e+57
          1486.54210	         7.95714e+57
          1487.34840	         7.83167e+57
          1488.15470	         7.98412e+57
          1488.96100	         8.21450e+57
          1489.76730	         7.61182e+57
