#sample_316_stacked_spectrum_rest_UV-bands_median_H-alpha_noDC.txt
#median Lum: 1.69754e+42
#Rest-frame wavelength (A) | Luminosity (erg/s/A)
#
          1110.00000	         0.00000e+00
          1110.80630	         4.82543e+59
          1111.61260	         1.91297e+59
          1112.41890	         1.67543e+59
          1113.22520	        -1.20896e+59
          1114.03150	         3.78539e+58
          1114.83780	         4.86687e+59
          1115.64410	         1.22283e+59
          1116.45040	         6.77241e+58
          1117.25670	        -1.26085e+59
          1118.06300	         1.19864e+59
          1118.86930	         4.33659e+58
          1119.67560	         9.95436e+58
          1120.48190	        -1.13235e+58
          1121.28820	        -8.61807e+58
          1122.09450	         2.57009e+58
          1122.90080	         5.60034e+58
          1123.70710	         7.74323e+58
          1124.51340	         1.10807e+59
          1125.31970	         2.38462e+58
          1126.12600	         6.26661e+57
          1126.93230	        -1.97340e+57
          1127.73860	         3.04135e+58
          1128.54490	         3.07390e+58
          1129.35120	         1.83949e+58
          1130.15750	        -1.87962e+58
          1130.96380	         2.09728e+58
          1131.77010	         7.03758e+58
          1132.57640	         4.52035e+58
          1133.38270	         1.53924e+57
          1134.18900	         8.33087e+57
          1134.99530	        -2.76592e+58
          1135.80160	         2.93021e+57
          1136.60790	         1.91573e+58
          1137.41420	         1.14563e+58
          1138.22050	         4.63151e+58
          1139.02680	         4.41034e+58
          1139.83310	         4.16293e+58
          1140.63940	         3.65506e+58
          1141.44570	         4.45300e+57
          1142.25200	         1.22584e+58
          1143.05830	         2.50874e+58
          1143.86460	         2.45499e+58
          1144.67090	         2.88559e+58
          1145.47720	         1.91543e+58
          1146.28350	         1.10650e+58
          1147.08980	         7.49162e+57
          1147.89610	         9.77506e+57
          1148.70240	         2.09539e+58
          1149.50870	         2.28267e+58
          1150.31500	         1.33802e+58
          1151.12130	         4.48782e+57
          1151.92760	         5.64831e+57
          1152.73390	         3.04443e+57
          1153.54020	         1.70177e+58
          1154.34650	         4.16457e+58
          1155.15280	         2.04831e+58
          1155.95910	         1.08247e+58
          1156.76540	         1.02677e+58
          1157.57170	        -3.20206e+57
          1158.37800	         5.27593e+57
          1159.18430	        -3.83381e+57
          1159.99060	         2.72477e+57
          1160.79690	         4.58361e+57
          1161.60320	         1.00108e+58
          1162.40950	         9.20762e+57
          1163.21580	         2.93860e+58
          1164.02210	         1.19242e+58
          1164.82840	         5.13440e+57
          1165.63470	         1.34218e+58
          1166.44100	         2.86114e+58
          1167.24730	         1.75644e+58
          1168.05360	         8.25817e+57
          1168.85990	         1.17400e+58
          1169.66620	         1.14996e+58
          1170.47250	         1.61731e+58
          1171.27880	         1.20766e+58
          1172.08510	         7.61640e+57
          1172.89140	         4.63285e+57
          1173.69770	         8.09184e+56
          1174.50400	         7.27865e+57
          1175.31030	         1.22065e+58
          1176.11660	         1.19196e+58
          1176.92290	         1.14556e+58
          1177.72920	         1.14778e+58
          1178.53550	         5.49416e+57
          1179.34180	        -2.86026e+57
          1180.14810	         4.33239e+57
          1180.95440	         9.83503e+57
          1181.76070	         6.35474e+57
          1182.56700	         9.54631e+57
          1183.37330	         7.30308e+57
          1184.17960	         1.09974e+58
          1184.98590	         8.07800e+57
          1185.79220	         3.83409e+57
          1186.59850	         7.86145e+57
          1187.40480	         1.10983e+58
          1188.21110	         9.48083e+57
          1189.01740	         1.11107e+58
          1189.82370	         1.18702e+58
          1190.63000	         1.30434e+58
          1191.43630	         1.22389e+58
          1192.24260	         7.84799e+57
          1193.04890	         1.10922e+58
          1193.85520	         1.44047e+58
          1194.66150	         1.07605e+58
          1195.46780	         1.24022e+58
          1196.27410	         1.34815e+58
          1197.08040	         7.24341e+57
          1197.88670	         1.33178e+58
          1198.69300	         1.50525e+58
          1199.49930	         1.35733e+58
          1200.30560	         1.22609e+58
          1201.11190	         9.33758e+57
          1201.91820	         9.55549e+57
          1202.72450	         6.85439e+57
          1203.53080	         1.45336e+58
          1204.33710	         8.80965e+57
          1205.14340	         3.34288e+57
          1205.94970	         5.20691e+57
          1206.75600	         8.20563e+57
          1207.56230	         8.38706e+57
          1208.36860	         9.48098e+57
          1209.17490	         5.57519e+57
          1209.98120	         6.06544e+57
          1210.78750	         7.87637e+57
          1211.59380	         8.81360e+57
          1212.40010	         1.74125e+58
          1213.20640	         2.12315e+58
          1214.01270	         1.90123e+58
          1214.81900	         2.24452e+58
          1215.62530	         4.26731e+58
          1216.43160	         8.75615e+58
          1217.23790	         1.43899e+59
          1218.04420	         1.20200e+59
          1218.85050	         9.14419e+58
          1219.65680	         5.64209e+58
          1220.46310	         2.98215e+58
          1221.26940	         2.18935e+58
          1222.07570	         1.45362e+58
          1222.88200	         1.03130e+58
          1223.68830	         6.43042e+57
          1224.49460	         5.54443e+57
          1225.30090	         7.96363e+57
          1226.10720	         9.43705e+57
          1226.91350	         8.55290e+57
          1227.71980	         9.26327e+57
          1228.52610	         1.22857e+58
          1229.33240	         8.41514e+57
          1230.13870	         1.08877e+58
          1230.94500	         1.09385e+58
          1231.75130	         5.73407e+57
          1232.55760	         6.76369e+57
          1233.36390	         9.20937e+57
          1234.17020	         1.08537e+58
          1234.97650	         1.15515e+58
          1235.78280	         1.11224e+58
          1236.58910	         8.99401e+57
          1237.39540	         8.96808e+57
          1238.20170	         1.25178e+58
          1239.00800	         1.55732e+58
          1239.81430	         1.52059e+58
          1240.62060	         8.62797e+57
          1241.42690	         7.61742e+57
          1242.23320	         1.17998e+58
          1243.03950	         8.58188e+57
          1243.84580	         8.92797e+57
          1244.65210	         1.20743e+58
          1245.45840	         1.17239e+58
          1246.26470	         8.36357e+57
          1247.07100	         6.71396e+57
          1247.87730	         6.88031e+57
          1248.68360	         7.16018e+57
          1249.48990	         8.45384e+57
          1250.29620	         1.17317e+58
          1251.10250	         9.38850e+57
          1251.90880	         5.65623e+57
          1252.71510	         6.00766e+57
          1253.52140	         8.31987e+57
          1254.32770	         9.33843e+57
          1255.13400	         1.27602e+58
          1255.94030	         1.22470e+58
          1256.74660	         9.99698e+57
          1257.55290	         1.00884e+58
          1258.35920	         7.54129e+57
          1259.16550	         5.25661e+57
          1259.97180	         4.96629e+57
          1260.77810	         6.88974e+57
          1261.58440	         1.06330e+58
          1262.39070	         8.44542e+57
          1263.19700	         6.27333e+57
          1264.00330	         7.72112e+57
          1264.80960	         9.44544e+57
          1265.61590	         1.28562e+58
          1266.42220	         1.39568e+58
          1267.22850	         1.18904e+58
          1268.03480	         1.29060e+58
          1268.84110	         1.35817e+58
          1269.64740	         1.28292e+58
          1270.45370	         1.22804e+58
          1271.26000	         1.18858e+58
          1272.06630	         1.19051e+58
          1272.87260	         1.11978e+58
          1273.67890	         1.06817e+58
          1274.48520	         1.22922e+58
          1275.29150	         1.41676e+58
          1276.09780	         1.20194e+58
          1276.90410	         1.34056e+58
          1277.71040	         1.18187e+58
          1278.51670	         1.17550e+58
          1279.32300	         1.46023e+58
          1280.12930	         1.40085e+58
          1280.93560	         1.24009e+58
          1281.74190	         1.23599e+58
          1282.54820	         1.16239e+58
          1283.35450	         1.05836e+58
          1284.16080	         1.15317e+58
          1284.96710	         1.30688e+58
          1285.77340	         1.31845e+58
          1286.57970	         1.36440e+58
          1287.38600	         1.71311e+58
          1288.19230	         1.91005e+58
          1288.99860	         1.75943e+58
          1289.80490	         1.29269e+58
          1290.61120	         1.34523e+58
          1291.41750	         1.53225e+58
          1292.22380	         1.32120e+58
          1293.03010	         1.19470e+58
          1293.83640	         1.20287e+58
          1294.64270	         1.06237e+58
          1295.44900	         8.24061e+57
          1296.25530	         8.69410e+57
          1297.06160	         1.05981e+58
          1297.86790	         1.02962e+58
          1298.67420	         9.32847e+57
          1299.48050	         9.43628e+57
          1300.28680	         1.06642e+58
          1301.09310	         9.06980e+57
          1301.89940	         5.30559e+57
          1302.70570	         6.72526e+57
          1303.51200	         7.06661e+57
          1304.31830	         1.02349e+58
          1305.12460	         1.16643e+58
          1305.93090	         1.18286e+58
          1306.73720	         1.15454e+58
          1307.54350	         1.38689e+58
          1308.34980	         1.56034e+58
          1309.15610	         1.55743e+58
          1309.96240	         1.49434e+58
          1310.76870	         1.38322e+58
          1311.57500	         1.23945e+58
          1312.38130	         1.14970e+58
          1313.18760	         1.47233e+58
          1313.99390	         1.60296e+58
          1314.80020	         1.51415e+58
          1315.60650	         1.66975e+58
          1316.41280	         1.12089e+58
          1317.21910	         1.09579e+58
          1318.02540	         1.37777e+58
          1318.83170	         1.45254e+58
          1319.63800	         1.34529e+58
          1320.44430	         1.13630e+58
          1321.25060	         1.20437e+58
          1322.05690	         1.20847e+58
          1322.86320	         1.19445e+58
          1323.66950	         1.10407e+58
          1324.47580	         8.73415e+57
          1325.28210	         9.28732e+57
          1326.08840	         1.11849e+58
          1326.89470	         1.16281e+58
          1327.70100	         1.02710e+58
          1328.50730	         1.04582e+58
          1329.31360	         1.09280e+58
          1330.11990	         9.90801e+57
          1330.92620	         8.89992e+57
          1331.73250	         1.03265e+58
          1332.53880	         9.10758e+57
          1333.34510	         8.66848e+57
          1334.15140	         9.27245e+57
          1334.95770	         9.68090e+57
          1335.76400	         1.03897e+58
          1336.57030	         1.17056e+58
          1337.37660	         1.03851e+58
          1338.18290	         1.02803e+58
          1338.98920	         1.21370e+58
          1339.79550	         1.23129e+58
          1340.60180	         1.30542e+58
          1341.40810	         1.22992e+58
          1342.21440	         1.08621e+58
          1343.02070	         1.15307e+58
          1343.82700	         1.30566e+58
          1344.63330	         1.19341e+58
          1345.43960	         1.21906e+58
          1346.24590	         1.22898e+58
          1347.05220	         1.22344e+58
          1347.85850	         1.06491e+58
          1348.66480	         1.20453e+58
          1349.47110	         1.24323e+58
          1350.27740	         1.21686e+58
          1351.08370	         1.22641e+58
          1351.89000	         1.18766e+58
          1352.69630	         1.10988e+58
          1353.50260	         1.09056e+58
          1354.30890	         1.10434e+58
          1355.11520	         1.05661e+58
          1355.92150	         1.02162e+58
          1356.72780	         1.07716e+58
          1357.53410	         1.16237e+58
          1358.34040	         1.17458e+58
          1359.14670	         1.09225e+58
          1359.95300	         1.16370e+58
          1360.75930	         1.30543e+58
          1361.56560	         1.21396e+58
          1362.37190	         1.21336e+58
          1363.17820	         1.21368e+58
          1363.98450	         1.21668e+58
          1364.79080	         1.12359e+58
          1365.59710	         1.09032e+58
          1366.40340	         1.12524e+58
          1367.20970	         9.95107e+57
          1368.01600	         8.54504e+57
          1368.82230	         8.00602e+57
          1369.62860	         9.79629e+57
          1370.43490	         9.92665e+57
          1371.24120	         1.21859e+58
          1372.04750	         1.23828e+58
          1372.85380	         1.26356e+58
          1373.66010	         1.05483e+58
          1374.46640	         9.81285e+57
          1375.27270	         1.15480e+58
          1376.07900	         1.01221e+58
          1376.88530	         9.11724e+57
          1377.69160	         9.88780e+57
          1378.49790	         7.89497e+57
          1379.30420	         7.15635e+57
          1380.11050	         9.54543e+57
          1380.91680	         9.92839e+57
          1381.72310	         8.74729e+57
          1382.52940	         9.16681e+57
          1383.33570	         8.20160e+57
          1384.14200	         8.55302e+57
          1384.94830	         9.40027e+57
          1385.75460	         9.72755e+57
          1386.56090	         1.09466e+58
          1387.36720	         9.50668e+57
          1388.17350	         1.20261e+58
          1388.97980	         1.22923e+58
          1389.78610	         9.34996e+57
          1390.59240	         8.13573e+57
          1391.39870	         7.57697e+57
          1392.20500	         8.29500e+57
          1393.01130	         9.04857e+57
          1393.81760	         8.53903e+57
          1394.62390	         6.09167e+57
          1395.43020	         5.23150e+57
          1396.23650	         7.06593e+57
          1397.04280	         8.51510e+57
          1397.84910	         7.85140e+57
          1398.65540	         8.55813e+57
          1399.46170	         1.01329e+58
          1400.26800	         9.37648e+57
          1401.07430	         8.92316e+57
          1401.88060	         9.11362e+57
          1402.68690	         9.12639e+57
          1403.49320	         9.05168e+57
          1404.29950	         8.79998e+57
          1405.10580	         1.00871e+58
          1405.91210	         1.11027e+58
          1406.71840	         1.16620e+58
          1407.52470	         1.09059e+58
          1408.33100	         1.06823e+58
          1409.13730	         1.22382e+58
          1409.94360	         1.18756e+58
          1410.74990	         1.17151e+58
          1411.55620	         1.04619e+58
          1412.36250	         9.68502e+57
          1413.16880	         9.03640e+57
          1413.97510	         8.47554e+57
          1414.78140	         9.25988e+57
          1415.58770	         1.13729e+58
          1416.39400	         1.05620e+58
          1417.20030	         1.11875e+58
          1418.00660	         1.10954e+58
          1418.81290	         1.06815e+58
          1419.61920	         1.06911e+58
          1420.42550	         1.32454e+58
          1421.23180	         1.52499e+58
          1422.03810	         1.37240e+58
          1422.84440	         1.07807e+58
          1423.65070	         1.07536e+58
          1424.45700	         1.11636e+58
          1425.26330	         9.25958e+57
          1426.06960	         8.31242e+57
          1426.87590	         9.40962e+57
          1427.68220	         9.70534e+57
          1428.48850	         1.02500e+58
          1429.29480	         1.11201e+58
          1430.10110	         1.04813e+58
          1430.90740	         9.62575e+57
          1431.71370	         1.02551e+58
          1432.52000	         9.56602e+57
          1433.32630	         8.66242e+57
          1434.13260	         9.08543e+57
          1434.93890	         8.53552e+57
          1435.74520	         8.45048e+57
          1436.55150	         1.00099e+58
          1437.35780	         9.87509e+57
          1438.16410	         9.92672e+57
          1438.97040	         9.54884e+57
          1439.77670	         9.10752e+57
          1440.58300	         8.86455e+57
          1441.38930	         9.09289e+57
          1442.19560	         9.76835e+57
          1443.00190	         1.08350e+58
          1443.80820	         1.21305e+58
          1444.61450	         1.06296e+58
          1445.42080	         8.14663e+57
          1446.22710	         1.02156e+58
          1447.03340	         1.08574e+58
          1447.83970	         1.09734e+58
          1448.64600	         1.13310e+58
          1449.45230	         1.05724e+58
          1450.25860	         9.58232e+57
          1451.06490	         8.64222e+57
          1451.87120	         7.77170e+57
          1452.67750	         8.16403e+57
          1453.48380	         9.47192e+57
          1454.29010	         8.27798e+57
          1455.09640	         7.09703e+57
          1455.90270	         8.43463e+57
          1456.70900	         8.04624e+57
          1457.51530	         8.74609e+57
          1458.32160	         1.10953e+58
          1459.12790	         1.21916e+58
          1459.93420	         1.07136e+58
          1460.74050	         9.65090e+57
          1461.54680	         9.46398e+57
          1462.35310	         7.86978e+57
          1463.15940	         9.55400e+57
          1463.96570	         1.17596e+58
          1464.77200	         1.12606e+58
          1465.57830	         1.03178e+58
          1466.38460	         1.01537e+58
          1467.19090	         8.62400e+57
          1467.99720	         8.16943e+57
          1468.80350	         9.67175e+57
          1469.60980	         1.08881e+58
          1470.41610	         1.10083e+58
          1471.22240	         9.74102e+57
          1472.02870	         1.10687e+58
          1472.83500	         1.06704e+58
          1473.64130	         9.66416e+57
          1474.44760	         9.53374e+57
          1475.25390	         9.18591e+57
          1476.06020	         8.35294e+57
          1476.86650	         7.81263e+57
          1477.67280	         7.46411e+57
          1478.47910	         6.25834e+57
          1479.28540	         6.42431e+57
          1480.09170	         8.39677e+57
          1480.89800	         9.41664e+57
          1481.70430	         9.12497e+57
          1482.51060	         7.88198e+57
          1483.31690	         7.63772e+57
          1484.12320	         7.94550e+57
          1484.92950	         7.75808e+57
          1485.73580	         6.69864e+57
          1486.54210	         7.65167e+57
          1487.34840	         8.60634e+57
          1488.15470	         7.58233e+57
          1488.96100	         6.51114e+57
          1489.76730	         6.86001e+57
