#sample_419_stacked_spectrum_rest_UV-bands_median_H-alpha_noDC.txt
#median Lum: 1.68243e+42
#Rest-frame wavelength (A) | Luminosity (erg/s/A)
#
          1110.00000	         0.00000e+00
          1110.80630	        -1.17296e+59
          1111.61260	        -1.66509e+59
          1112.41890	         1.32224e+59
          1113.22520	        -1.52877e+58
          1114.03150	        -1.11638e+59
          1114.83780	         1.36099e+59
          1115.64410	        -8.96968e+58
          1116.45040	         3.08471e+58
          1117.25670	        -4.72073e+58
          1118.06300	         6.60739e+58
          1118.86930	        -4.27655e+58
          1119.67560	        -2.01002e+58
          1120.48190	        -8.19513e+58
          1121.28820	        -1.20743e+59
          1122.09450	         1.10347e+58
          1122.90080	         3.33284e+58
          1123.70710	         1.82292e+58
          1124.51340	         5.88366e+58
          1125.31970	         1.03241e+58
          1126.12600	        -2.70177e+58
          1126.93230	        -5.35772e+58
          1127.73860	        -7.68054e+58
          1128.54490	         4.70830e+58
          1129.35120	         3.79664e+58
          1130.15750	        -6.86824e+58
          1130.96380	        -4.85207e+58
          1131.77010	         5.41461e+58
          1132.57640	         4.49673e+58
          1133.38270	         2.15764e+58
          1134.18900	         2.53015e+58
          1134.99530	         1.60187e+58
          1135.80160	         5.95235e+57
          1136.60790	         1.91159e+58
          1137.41420	        -2.06411e+58
          1138.22050	         3.22092e+58
          1139.02680	         7.75299e+57
          1139.83310	         2.66882e+58
          1140.63940	         1.35557e+58
          1141.44570	        -3.31306e+57
          1142.25200	         1.72357e+58
          1143.05830	         1.04382e+58
          1143.86460	         1.00091e+58
          1144.67090	         1.62630e+58
          1145.47720	         8.96993e+57
          1146.28350	         2.53979e+58
          1147.08980	         1.30774e+58
          1147.89610	         1.66957e+58
          1148.70240	         9.49606e+57
          1149.50870	         6.82189e+57
          1150.31500	         9.11291e+56
          1151.12130	         2.15138e+57
          1151.92760	         2.93402e+57
          1152.73390	         5.97730e+57
          1153.54020	         1.23939e+58
          1154.34650	         1.91795e+58
          1155.15280	         1.54270e+58
          1155.95910	         1.12060e+58
          1156.76540	         5.58601e+57
          1157.57170	        -1.91910e+57
          1158.37800	         3.79163e+57
          1159.18430	         1.56753e+57
          1159.99060	         9.44480e+57
          1160.79690	         1.60958e+58
          1161.60320	         1.52540e+58
          1162.40950	         5.98347e+57
          1163.21580	         1.19406e+58
          1164.02210	         1.73427e+58
          1164.82840	         8.44977e+57
          1165.63470	         2.22801e+58
          1166.44100	         3.09592e+58
          1167.24730	         1.40276e+58
          1168.05360	         8.16146e+56
          1168.85990	         9.35028e+57
          1169.66620	         8.23678e+57
          1170.47250	         1.62557e+58
          1171.27880	         1.23604e+58
          1172.08510	         1.48643e+58
          1172.89140	         1.11737e+58
          1173.69770	         2.83551e+57
          1174.50400	         6.78133e+57
          1175.31030	         1.64577e+58
          1176.11660	         1.59106e+58
          1176.92290	         9.97033e+57
          1177.72920	         7.47140e+57
          1178.53550	         8.70836e+57
          1179.34180	         7.43665e+57
          1180.14810	         1.05297e+58
          1180.95440	         1.03017e+58
          1181.76070	         7.58908e+57
          1182.56700	         9.26847e+57
          1183.37330	         7.70610e+57
          1184.17960	         1.38869e+58
          1184.98590	         9.52731e+57
          1185.79220	         5.07037e+57
          1186.59850	         8.03203e+57
          1187.40480	         5.80034e+57
          1188.21110	         1.00978e+58
          1189.01740	         1.33532e+58
          1189.82370	         6.58511e+57
          1190.63000	         7.95352e+57
          1191.43630	         1.11472e+58
          1192.24260	         8.05129e+57
          1193.04890	         1.03315e+58
          1193.85520	         9.07891e+57
          1194.66150	         6.42125e+57
          1195.46780	         1.08317e+58
          1196.27410	         1.34662e+58
          1197.08040	         1.15071e+58
          1197.88670	         1.28461e+58
          1198.69300	         1.34154e+58
          1199.49930	         1.66758e+58
          1200.30560	         1.27617e+58
          1201.11190	         9.81476e+57
          1201.91820	         6.79580e+57
          1202.72450	         7.72347e+57
          1203.53080	         1.29468e+58
          1204.33710	         7.06122e+57
          1205.14340	         2.93134e+57
          1205.94970	         6.86228e+57
          1206.75600	         9.12649e+57
          1207.56230	         7.07978e+57
          1208.36860	         1.04781e+58
          1209.17490	         5.40440e+57
          1209.98120	         3.30807e+57
          1210.78750	         4.12288e+57
          1211.59380	         1.19241e+58
          1212.40010	         1.75725e+58
          1213.20640	         1.95329e+58
          1214.01270	         2.29671e+58
          1214.81900	         2.73952e+58
          1215.62530	         4.49916e+58
          1216.43160	         9.08485e+58
          1217.23790	         1.50493e+59
          1218.04420	         1.11395e+59
          1218.85050	         8.75174e+58
          1219.65680	         5.94030e+58
          1220.46310	         3.61970e+58
          1221.26940	         2.59988e+58
          1222.07570	         1.63292e+58
          1222.88200	         1.05696e+58
          1223.68830	         1.18875e+58
          1224.49460	         1.02467e+58
          1225.30090	         9.44617e+57
          1226.10720	         1.09927e+58
          1226.91350	         9.75820e+57
          1227.71980	         1.19056e+58
          1228.52610	         1.19503e+58
          1229.33240	         7.07501e+57
          1230.13870	         8.31276e+57
          1230.94500	         1.09859e+58
          1231.75130	         7.65751e+57
          1232.55760	         1.01819e+58
          1233.36390	         1.02894e+58
          1234.17020	         8.56507e+57
          1234.97650	         6.95593e+57
          1235.78280	         9.46774e+57
          1236.58910	         1.06682e+58
          1237.39540	         1.02719e+58
          1238.20170	         9.85160e+57
          1239.00800	         1.21764e+58
          1239.81430	         1.26496e+58
          1240.62060	         1.05134e+58
          1241.42690	         1.22740e+58
          1242.23320	         1.10656e+58
          1243.03950	         7.77768e+57
          1243.84580	         8.75560e+57
          1244.65210	         8.97278e+57
          1245.45840	         9.63780e+57
          1246.26470	         8.46194e+57
          1247.07100	         5.45534e+57
          1247.87730	         5.95472e+57
          1248.68360	         5.53493e+57
          1249.48990	         9.47359e+57
          1250.29620	         1.15626e+58
          1251.10250	         8.66818e+57
          1251.90880	         6.12937e+57
          1252.71510	         5.92313e+57
          1253.52140	         7.42580e+57
          1254.32770	         1.04635e+58
          1255.13400	         1.32012e+58
          1255.94030	         1.18900e+58
          1256.74660	         9.95609e+57
          1257.55290	         1.08686e+58
          1258.35920	         8.58873e+57
          1259.16550	         5.99864e+57
          1259.97180	         5.10183e+57
          1260.77810	         8.02085e+57
          1261.58440	         1.09809e+58
          1262.39070	         7.60612e+57
          1263.19700	         9.22994e+57
          1264.00330	         1.10119e+58
          1264.80960	         8.81085e+57
          1265.61590	         1.07271e+58
          1266.42220	         1.27632e+58
          1267.22850	         1.17220e+58
          1268.03480	         1.31780e+58
          1268.84110	         1.43571e+58
          1269.64740	         1.09254e+58
          1270.45370	         1.21811e+58
          1271.26000	         1.33755e+58
          1272.06630	         1.26584e+58
          1272.87260	         1.22493e+58
          1273.67890	         1.26408e+58
          1274.48520	         1.43991e+58
          1275.29150	         1.30308e+58
          1276.09780	         1.02892e+58
          1276.90410	         1.38997e+58
          1277.71040	         1.18158e+58
          1278.51670	         1.13983e+58
          1279.32300	         1.45959e+58
          1280.12930	         1.30164e+58
          1280.93560	         1.14550e+58
          1281.74190	         1.27632e+58
          1282.54820	         1.32162e+58
          1283.35450	         1.26965e+58
          1284.16080	         1.41795e+58
          1284.96710	         1.55953e+58
          1285.77340	         1.38282e+58
          1286.57970	         1.11748e+58
          1287.38600	         1.47394e+58
          1288.19230	         1.76731e+58
          1288.99860	         1.52655e+58
          1289.80490	         9.35335e+57
          1290.61120	         1.23937e+58
          1291.41750	         1.54572e+58
          1292.22380	         1.30682e+58
          1293.03010	         1.10937e+58
          1293.83640	         1.20641e+58
          1294.64270	         1.01504e+58
          1295.44900	         5.93640e+57
          1296.25530	         7.19365e+57
          1297.06160	         9.62330e+57
          1297.86790	         1.02951e+58
          1298.67420	         1.03120e+58
          1299.48050	         1.11019e+58
          1300.28680	         1.12709e+58
          1301.09310	         8.46604e+57
          1301.89940	         3.58558e+57
          1302.70570	         4.11447e+57
          1303.51200	         6.97457e+57
          1304.31830	         9.51947e+57
          1305.12460	         1.08529e+58
          1305.93090	         1.26977e+58
          1306.73720	         1.31649e+58
          1307.54350	         1.32337e+58
          1308.34980	         1.51559e+58
          1309.15610	         1.58878e+58
          1309.96240	         1.52375e+58
          1310.76870	         1.43057e+58
          1311.57500	         1.03342e+58
          1312.38130	         1.02840e+58
          1313.18760	         1.22970e+58
          1313.99390	         1.69253e+58
          1314.80020	         1.68709e+58
          1315.60650	         1.37485e+58
          1316.41280	         1.26552e+58
          1317.21910	         1.15686e+58
          1318.02540	         1.32148e+58
          1318.83170	         1.29739e+58
          1319.63800	         1.25873e+58
          1320.44430	         1.14186e+58
          1321.25060	         1.20401e+58
          1322.05690	         1.21961e+58
          1322.86320	         1.18912e+58
          1323.66950	         1.07623e+58
          1324.47580	         9.85967e+57
          1325.28210	         1.09245e+58
          1326.08840	         1.18614e+58
          1326.89470	         1.18706e+58
          1327.70100	         1.11099e+58
          1328.50730	         8.93930e+57
          1329.31360	         7.90342e+57
          1330.11990	         9.86559e+57
          1330.92620	         9.41713e+57
          1331.73250	         9.98240e+57
          1332.53880	         8.76685e+57
          1333.34510	         9.15072e+57
          1334.15140	         9.30480e+57
          1334.95770	         7.77478e+57
          1335.76400	         9.65938e+57
          1336.57030	         1.13601e+58
          1337.37660	         1.05482e+58
          1338.18290	         1.15412e+58
          1338.98920	         1.22613e+58
          1339.79550	         1.14771e+58
          1340.60180	         1.24929e+58
          1341.40810	         1.35417e+58
          1342.21440	         1.15836e+58
          1343.02070	         1.18528e+58
          1343.82700	         1.31081e+58
          1344.63330	         1.18280e+58
          1345.43960	         1.42372e+58
          1346.24590	         1.28696e+58
          1347.05220	         1.13264e+58
          1347.85850	         9.05194e+57
          1348.66480	         8.73254e+57
          1349.47110	         1.18862e+58
          1350.27740	         1.31404e+58
          1351.08370	         1.25007e+58
          1351.89000	         1.22555e+58
          1352.69630	         1.18610e+58
          1353.50260	         1.18493e+58
          1354.30890	         1.19430e+58
          1355.11520	         1.14882e+58
          1355.92150	         1.03677e+58
          1356.72780	         1.02521e+58
          1357.53410	         1.11057e+58
          1358.34040	         1.15904e+58
          1359.14670	         1.11263e+58
          1359.95300	         1.07978e+58
          1360.75930	         1.09827e+58
          1361.56560	         1.09637e+58
          1362.37190	         1.17385e+58
          1363.17820	         1.02270e+58
          1363.98450	         1.01648e+58
          1364.79080	         1.15867e+58
          1365.59710	         1.25920e+58
          1366.40340	         1.13349e+58
          1367.20970	         9.27422e+57
          1368.01600	         9.58573e+57
          1368.82230	         9.48218e+57
          1369.62860	         1.15523e+58
          1370.43490	         1.04047e+58
          1371.24120	         8.76760e+57
          1372.04750	         8.51136e+57
          1372.85380	         1.14344e+58
          1373.66010	         1.16751e+58
          1374.46640	         1.00866e+58
          1375.27270	         1.09067e+58
          1376.07900	         1.01842e+58
          1376.88530	         7.60626e+57
          1377.69160	         8.87816e+57
          1378.49790	         7.95712e+57
          1379.30420	         7.32481e+57
          1380.11050	         9.18659e+57
          1380.91680	         8.84952e+57
          1381.72310	         9.06860e+57
          1382.52940	         9.06158e+57
          1383.33570	         9.10756e+57
          1384.14200	         9.73045e+57
          1384.94830	         1.05655e+58
          1385.75460	         1.15615e+58
          1386.56090	         1.10874e+58
          1387.36720	         1.07437e+58
          1388.17350	         1.23095e+58
          1388.97980	         1.19601e+58
          1389.78610	         1.06994e+58
          1390.59240	         8.40053e+57
          1391.39870	         7.16282e+57
          1392.20500	         9.43717e+57
          1393.01130	         9.58001e+57
          1393.81760	         7.62540e+57
          1394.62390	         7.88696e+57
          1395.43020	         7.71429e+57
          1396.23650	         7.12488e+57
          1397.04280	         7.92669e+57
          1397.84910	         8.79280e+57
          1398.65540	         8.03160e+57
          1399.46170	         1.01873e+58
          1400.26800	         7.86932e+57
          1401.07430	         6.33893e+57
          1401.88060	         8.32013e+57
          1402.68690	         9.74935e+57
          1403.49320	         9.38310e+57
          1404.29950	         8.96841e+57
          1405.10580	         9.53161e+57
          1405.91210	         1.07507e+58
          1406.71840	         1.08568e+58
          1407.52470	         1.03559e+58
          1408.33100	         1.04952e+58
          1409.13730	         1.11726e+58
          1409.94360	         1.13732e+58
          1410.74990	         1.08617e+58
          1411.55620	         1.02486e+58
          1412.36250	         8.44390e+57
          1413.16880	         7.68374e+57
          1413.97510	         7.95416e+57
          1414.78140	         9.00188e+57
          1415.58770	         1.02807e+58
          1416.39400	         9.11500e+57
          1417.20030	         1.12513e+58
          1418.00660	         1.03397e+58
          1418.81290	         1.01554e+58
          1419.61920	         1.14217e+58
          1420.42550	         1.25543e+58
          1421.23180	         1.31491e+58
          1422.03810	         1.22603e+58
          1422.84440	         1.34302e+58
          1423.65070	         1.30448e+58
          1424.45700	         1.06760e+58
          1425.26330	         8.39633e+57
          1426.06960	         7.93689e+57
          1426.87590	         9.84659e+57
          1427.68220	         9.79783e+57
          1428.48850	         9.27460e+57
          1429.29480	         9.35355e+57
          1430.10110	         9.17659e+57
          1430.90740	         7.46292e+57
          1431.71370	         8.09691e+57
          1432.52000	         8.39701e+57
          1433.32630	         8.27262e+57
          1434.13260	         8.31042e+57
          1434.93890	         8.84689e+57
          1435.74520	         9.88073e+57
          1436.55150	         9.42405e+57
          1437.35780	         8.40904e+57
          1438.16410	         8.94351e+57
          1438.97040	         8.79034e+57
          1439.77670	         8.85955e+57
          1440.58300	         8.89833e+57
          1441.38930	         9.03406e+57
          1442.19560	         9.51933e+57
          1443.00190	         8.93299e+57
          1443.80820	         1.06083e+58
          1444.61450	         1.05394e+58
          1445.42080	         7.78316e+57
          1446.22710	         9.02646e+57
          1447.03340	         1.02220e+58
          1447.83970	         1.13976e+58
          1448.64600	         1.14239e+58
          1449.45230	         9.96505e+57
          1450.25860	         9.31659e+57
          1451.06490	         9.65167e+57
          1451.87120	         8.98308e+57
          1452.67750	         7.70164e+57
          1453.48380	         8.42155e+57
          1454.29010	         7.67443e+57
          1455.09640	         7.10604e+57
          1455.90270	         9.12934e+57
          1456.70900	         8.76483e+57
          1457.51530	         8.16781e+57
          1458.32160	         1.13386e+58
          1459.12790	         1.16329e+58
          1459.93420	         8.79189e+57
          1460.74050	         7.76733e+57
          1461.54680	         9.97110e+57
          1462.35310	         9.52669e+57
          1463.15940	         9.69892e+57
          1463.96570	         1.13326e+58
          1464.77200	         1.22630e+58
          1465.57830	         1.06963e+58
          1466.38460	         9.15662e+57
          1467.19090	         8.84373e+57
          1467.99720	         8.68211e+57
          1468.80350	         9.22968e+57
          1469.60980	         1.00087e+58
          1470.41610	         1.02823e+58
          1471.22240	         8.63267e+57
          1472.02870	         8.54165e+57
          1472.83500	         9.02932e+57
          1473.64130	         9.67532e+57
          1474.44760	         1.06997e+58
          1475.25390	         1.04594e+58
          1476.06020	         8.03612e+57
          1476.86650	         8.31244e+57
          1477.67280	         9.12533e+57
          1478.47910	         7.63466e+57
          1479.28540	         7.06065e+57
          1480.09170	         8.34206e+57
          1480.89800	         9.07124e+57
          1481.70430	         9.03681e+57
          1482.51060	         8.13346e+57
          1483.31690	         8.27869e+57
          1484.12320	         8.70057e+57
          1484.92950	         7.99422e+57
          1485.73580	         7.13863e+57
          1486.54210	         8.02252e+57
          1487.34840	         8.25679e+57
          1488.15470	         8.27684e+57
          1488.96100	         8.84538e+57
          1489.76730	         8.46019e+57
