#sample_498_stacked_spectrum_rest_UV-bands_median_H-alpha_noDC.txt
#median Lum: 1.70396e+42
#Rest-frame wavelength (A) | Luminosity (erg/s/A)
#
          1110.00000	         0.00000e+00
          1110.80630	         4.11731e+59
          1111.61260	         1.90081e+58
          1112.41890	        -4.11602e+58
          1113.22520	        -1.24486e+59
          1114.03150	        -6.44272e+58
          1114.83780	         9.67501e+58
          1115.64410	         1.64439e+59
          1116.45040	         1.20365e+59
          1117.25670	         1.12090e+59
          1118.06300	         5.91165e+58
          1118.86930	        -3.28224e+58
          1119.67560	         1.48101e+58
          1120.48190	        -4.20283e+58
          1121.28820	        -1.26465e+59
          1122.09450	        -1.04353e+58
          1122.90080	         3.54942e+58
          1123.70710	         7.65104e+58
          1124.51340	         1.24284e+59
          1125.31970	         4.40863e+58
          1126.12600	        -1.67346e+58
          1126.93230	        -5.12468e+58
          1127.73860	        -6.51573e+58
          1128.54490	        -1.56614e+58
          1129.35120	        -3.92467e+58
          1130.15750	        -4.31062e+58
          1130.96380	        -2.22967e+58
          1131.77010	         3.26211e+58
          1132.57640	         7.11103e+57
          1133.38270	         3.41247e+58
          1134.18900	         1.82345e+58
          1134.99530	         1.69707e+58
          1135.80160	         3.87968e+58
          1136.60790	         1.25132e+58
          1137.41420	        -2.50097e+58
          1138.22050	         1.52233e+58
          1139.02680	         1.99515e+58
          1139.83310	         1.86464e+58
          1140.63940	         2.25137e+58
          1141.44570	        -2.56194e+58
          1142.25200	        -7.29689e+57
          1143.05830	         1.30720e+58
          1143.86460	         2.57070e+58
          1144.67090	         1.95175e+58
          1145.47720	        -1.52167e+57
          1146.28350	         2.42876e+58
          1147.08980	         1.41781e+58
          1147.89610	         1.92023e+58
          1148.70240	         2.23539e+58
          1149.50870	         2.29266e+58
          1150.31500	         5.43292e+57
          1151.12130	         8.59251e+57
          1151.92760	         2.97077e+57
          1152.73390	         4.94366e+57
          1153.54020	         1.71353e+57
          1154.34650	         2.02455e+58
          1155.15280	         1.53240e+58
          1155.95910	        -3.87157e+57
          1156.76540	         2.82070e+57
          1157.57170	         2.78944e+57
          1158.37800	         5.17475e+57
          1159.18430	         3.43855e+57
          1159.99060	         2.64857e+57
          1160.79690	         2.88032e+57
          1161.60320	         8.77164e+57
          1162.40950	         1.90520e+58
          1163.21580	         2.01152e+58
          1164.02210	         1.42450e+58
          1164.82840	         9.04726e+57
          1165.63470	         2.10848e+58
          1166.44100	         3.13177e+58
          1167.24730	         2.23049e+58
          1168.05360	         9.85296e+57
          1168.85990	         1.53342e+58
          1169.66620	         1.43256e+58
          1170.47250	         8.75393e+57
          1171.27880	         2.60450e+57
          1172.08510	         1.17720e+58
          1172.89140	         1.36534e+58
          1173.69770	         8.45647e+57
          1174.50400	         1.01801e+58
          1175.31030	         1.73325e+58
          1176.11660	         1.41811e+58
          1176.92290	         1.13164e+58
          1177.72920	         1.15226e+58
          1178.53550	         5.79518e+57
          1179.34180	         4.06442e+57
          1180.14810	         7.37192e+57
          1180.95440	         5.62784e+57
          1181.76070	         2.92494e+57
          1182.56700	         3.02609e+57
          1183.37330	         5.22592e+57
          1184.17960	         1.23058e+58
          1184.98590	         9.14858e+57
          1185.79220	         6.45612e+57
          1186.59850	         8.78048e+57
          1187.40480	         9.46717e+57
          1188.21110	         1.49443e+58
          1189.01740	         8.85831e+57
          1189.82370	         1.06009e+58
          1190.63000	         1.12839e+58
          1191.43630	         9.35434e+57
          1192.24260	         7.59668e+57
          1193.04890	         1.50923e+58
          1193.85520	         1.46221e+58
          1194.66150	         9.97814e+57
          1195.46780	         1.01774e+58
          1196.27410	         1.57948e+58
          1197.08040	         1.29912e+58
          1197.88670	         1.30985e+58
          1198.69300	         1.64794e+58
          1199.49930	         1.45060e+58
          1200.30560	         8.25429e+57
          1201.11190	         7.62794e+57
          1201.91820	         6.95873e+57
          1202.72450	         8.44439e+57
          1203.53080	         1.30775e+58
          1204.33710	         5.88011e+57
          1205.14340	         6.56714e+57
          1205.94970	         4.01245e+57
          1206.75600	         7.81381e+57
          1207.56230	         4.58626e+57
          1208.36860	         6.22297e+57
          1209.17490	         1.78435e+57
          1209.98120	         5.84010e+57
          1210.78750	         1.15695e+58
          1211.59380	         1.29588e+58
          1212.40010	         1.87971e+58
          1213.20640	         2.13146e+58
          1214.01270	         2.29130e+58
          1214.81900	         2.48009e+58
          1215.62530	         4.70423e+58
          1216.43160	         9.22373e+58
          1217.23790	         1.49732e+59
          1218.04420	         1.11935e+59
          1218.85050	         8.24882e+58
          1219.65680	         5.18444e+58
          1220.46310	         3.20752e+58
          1221.26940	         2.16223e+58
          1222.07570	         1.34315e+58
          1222.88200	         1.48705e+58
          1223.68830	         1.19890e+58
          1224.49460	         8.72761e+57
          1225.30090	         5.75267e+57
          1226.10720	         5.28599e+57
          1226.91350	         6.36267e+57
          1227.71980	         7.56737e+57
          1228.52610	         1.00079e+58
          1229.33240	         6.66392e+57
          1230.13870	         8.57965e+57
          1230.94500	         9.49568e+57
          1231.75130	         5.41960e+57
          1232.55760	         7.22128e+57
          1233.36390	         9.48617e+57
          1234.17020	         9.33373e+57
          1234.97650	         5.62372e+57
          1235.78280	         7.43054e+57
          1236.58910	         7.87223e+57
          1237.39540	         8.28815e+57
          1238.20170	         8.36194e+57
          1239.00800	         1.29643e+58
          1239.81430	         1.49757e+58
          1240.62060	         9.68719e+57
          1241.42690	         9.64829e+57
          1242.23320	         1.23650e+58
          1243.03950	         8.71858e+57
          1243.84580	         9.68303e+57
          1244.65210	         1.03779e+58
          1245.45840	         9.37528e+57
          1246.26470	         8.56383e+57
          1247.07100	         7.77530e+57
          1247.87730	         4.71091e+57
          1248.68360	         5.28974e+57
          1249.48990	         8.78427e+57
          1250.29620	         9.78322e+57
          1251.10250	         6.35720e+57
          1251.90880	         4.31029e+57
          1252.71510	         7.57588e+57
          1253.52140	         8.83866e+57
          1254.32770	         1.10634e+58
          1255.13400	         1.27596e+58
          1255.94030	         1.21900e+58
          1256.74660	         1.09667e+58
          1257.55290	         9.85190e+57
          1258.35920	         7.92630e+57
          1259.16550	         7.09298e+57
          1259.97180	         7.18410e+57
          1260.77810	         7.85774e+57
          1261.58440	         9.63668e+57
          1262.39070	         8.54466e+57
          1263.19700	         9.03229e+57
          1264.00330	         8.66125e+57
          1264.80960	         1.02635e+58
          1265.61590	         1.14821e+58
          1266.42220	         1.01624e+58
          1267.22850	         1.08545e+58
          1268.03480	         1.21475e+58
          1268.84110	         1.30393e+58
          1269.64740	         1.29113e+58
          1270.45370	         1.39481e+58
          1271.26000	         1.14711e+58
          1272.06630	         1.16185e+58
          1272.87260	         1.22917e+58
          1273.67890	         1.26239e+58
          1274.48520	         1.26898e+58
          1275.29150	         1.29709e+58
          1276.09780	         1.13716e+58
          1276.90410	         1.28265e+58
          1277.71040	         1.34391e+58
          1278.51670	         1.23206e+58
          1279.32300	         1.39623e+58
          1280.12930	         1.34670e+58
          1280.93560	         1.11844e+58
          1281.74190	         1.16910e+58
          1282.54820	         1.17049e+58
          1283.35450	         9.47073e+57
          1284.16080	         1.05199e+58
          1284.96710	         1.22632e+58
          1285.77340	         1.14821e+58
          1286.57970	         1.14247e+58
          1287.38600	         1.42452e+58
          1288.19230	         1.58708e+58
          1288.99860	         1.38754e+58
          1289.80490	         9.78280e+57
          1290.61120	         1.16416e+58
          1291.41750	         1.29072e+58
          1292.22380	         1.19074e+58
          1293.03010	         9.83968e+57
          1293.83640	         1.02342e+58
          1294.64270	         9.71179e+57
          1295.44900	         7.66047e+57
          1296.25530	         7.82549e+57
          1297.06160	         9.51789e+57
          1297.86790	         9.46519e+57
          1298.67420	         7.82116e+57
          1299.48050	         8.84860e+57
          1300.28680	         1.13967e+58
          1301.09310	         9.15906e+57
          1301.89940	         4.37990e+57
          1302.70570	         5.51317e+57
          1303.51200	         7.34578e+57
          1304.31830	         1.02992e+58
          1305.12460	         1.09694e+58
          1305.93090	         9.02674e+57
          1306.73720	         1.05128e+58
          1307.54350	         1.34437e+58
          1308.34980	         1.43622e+58
          1309.15610	         1.55018e+58
          1309.96240	         1.51803e+58
          1310.76870	         1.34301e+58
          1311.57500	         1.26964e+58
          1312.38130	         1.05207e+58
          1313.18760	         1.05471e+58
          1313.99390	         1.31951e+58
          1314.80020	         1.41117e+58
          1315.60650	         1.24533e+58
          1316.41280	         1.07375e+58
          1317.21910	         9.72499e+57
          1318.02540	         1.15258e+58
          1318.83170	         1.38734e+58
          1319.63800	         1.36437e+58
          1320.44430	         1.14898e+58
          1321.25060	         1.25516e+58
          1322.05690	         1.17028e+58
          1322.86320	         1.07299e+58
          1323.66950	         1.01308e+58
          1324.47580	         8.01921e+57
          1325.28210	         9.17638e+57
          1326.08840	         1.18415e+58
          1326.89470	         1.20637e+58
          1327.70100	         1.05813e+58
          1328.50730	         8.02427e+57
          1329.31360	         9.37001e+57
          1330.11990	         1.03218e+58
          1330.92620	         8.42768e+57
          1331.73250	         9.52341e+57
          1332.53880	         9.89000e+57
          1333.34510	         9.47417e+57
          1334.15140	         9.50188e+57
          1334.95770	         8.57911e+57
          1335.76400	         1.03320e+58
          1336.57030	         1.16089e+58
          1337.37660	         9.89734e+57
          1338.18290	         1.11679e+58
          1338.98920	         1.28189e+58
          1339.79550	         1.01164e+58
          1340.60180	         9.96059e+57
          1341.40810	         1.29263e+58
          1342.21440	         1.10508e+58
          1343.02070	         1.07275e+58
          1343.82700	         1.18766e+58
          1344.63330	         1.26316e+58
          1345.43960	         1.35783e+58
          1346.24590	         1.19495e+58
          1347.05220	         1.23141e+58
          1347.85850	         9.52052e+57
          1348.66480	         1.00027e+58
          1349.47110	         1.27599e+58
          1350.27740	         1.04378e+58
          1351.08370	         1.09228e+58
          1351.89000	         1.10561e+58
          1352.69630	         1.11757e+58
          1353.50260	         1.02504e+58
          1354.30890	         1.12347e+58
          1355.11520	         1.27224e+58
          1355.92150	         1.07177e+58
          1356.72780	         9.82016e+57
          1357.53410	         1.01075e+58
          1358.34040	         1.00410e+58
          1359.14670	         1.01096e+58
          1359.95300	         1.03743e+58
          1360.75930	         1.07960e+58
          1361.56560	         9.81952e+57
          1362.37190	         1.09421e+58
          1363.17820	         1.16225e+58
          1363.98450	         1.05583e+58
          1364.79080	         1.16788e+58
          1365.59710	         1.28688e+58
          1366.40340	         1.15074e+58
          1367.20970	         1.02752e+58
          1368.01600	         1.07548e+58
          1368.82230	         1.05978e+58
          1369.62860	         1.00649e+58
          1370.43490	         9.38283e+57
          1371.24120	         9.19475e+57
          1372.04750	         8.32252e+57
          1372.85380	         1.04900e+58
          1373.66010	         1.05405e+58
          1374.46640	         1.08778e+58
          1375.27270	         1.16003e+58
          1376.07900	         8.47764e+57
          1376.88530	         7.82148e+57
          1377.69160	         8.56218e+57
          1378.49790	         6.42349e+57
          1379.30420	         6.30147e+57
          1380.11050	         8.23894e+57
          1380.91680	         7.88236e+57
          1381.72310	         8.90722e+57
          1382.52940	         9.37653e+57
          1383.33570	         8.04155e+57
          1384.14200	         9.68375e+57
          1384.94830	         1.24503e+58
          1385.75460	         1.19732e+58
          1386.56090	         1.11510e+58
          1387.36720	         9.48715e+57
          1388.17350	         1.01489e+58
          1388.97980	         1.07524e+58
          1389.78610	         9.59570e+57
          1390.59240	         9.38125e+57
          1391.39870	         7.28073e+57
          1392.20500	         7.96912e+57
          1393.01130	         8.13637e+57
          1393.81760	         7.68632e+57
          1394.62390	         7.36183e+57
          1395.43020	         5.87661e+57
          1396.23650	         6.41142e+57
          1397.04280	         7.52675e+57
          1397.84910	         9.53411e+57
          1398.65540	         8.95655e+57
          1399.46170	         9.46202e+57
          1400.26800	         9.25646e+57
          1401.07430	         9.61421e+57
          1401.88060	         8.34372e+57
          1402.68690	         9.62632e+57
          1403.49320	         9.13466e+57
          1404.29950	         8.02850e+57
          1405.10580	         9.56871e+57
          1405.91210	         1.08113e+58
          1406.71840	         9.98856e+57
          1407.52470	         1.04032e+58
          1408.33100	         9.38408e+57
          1409.13730	         1.06965e+58
          1409.94360	         1.16659e+58
          1410.74990	         1.07529e+58
          1411.55620	         1.02308e+58
          1412.36250	         1.04957e+58
          1413.16880	         9.40878e+57
          1413.97510	         8.92759e+57
          1414.78140	         9.46169e+57
          1415.58770	         1.01080e+58
          1416.39400	         1.03937e+58
          1417.20030	         1.10928e+58
          1418.00660	         9.60443e+57
          1418.81290	         1.07538e+58
          1419.61920	         1.07080e+58
          1420.42550	         1.17039e+58
          1421.23180	         1.36964e+58
          1422.03810	         1.23437e+58
          1422.84440	         1.18852e+58
          1423.65070	         1.18459e+58
          1424.45700	         9.95408e+57
          1425.26330	         8.57019e+57
          1426.06960	         8.93753e+57
          1426.87590	         9.62403e+57
          1427.68220	         1.02437e+58
          1428.48850	         1.01224e+58
          1429.29480	         9.22782e+57
          1430.10110	         8.82520e+57
          1430.90740	         8.43398e+57
          1431.71370	         8.69368e+57
          1432.52000	         8.98768e+57
          1433.32630	         8.24532e+57
          1434.13260	         7.42583e+57
          1434.93890	         7.70763e+57
          1435.74520	         8.81251e+57
          1436.55150	         9.67306e+57
          1437.35780	         8.35185e+57
          1438.16410	         7.64010e+57
          1438.97040	         7.82915e+57
          1439.77670	         7.36029e+57
          1440.58300	         8.22672e+57
          1441.38930	         8.90828e+57
          1442.19560	         9.24022e+57
          1443.00190	         9.87763e+57
          1443.80820	         1.10293e+58
          1444.61450	         9.72323e+57
          1445.42080	         8.81794e+57
          1446.22710	         1.02030e+58
          1447.03340	         9.75785e+57
          1447.83970	         9.73824e+57
          1448.64600	         9.76060e+57
          1449.45230	         8.61108e+57
          1450.25860	         8.76364e+57
          1451.06490	         8.76730e+57
          1451.87120	         7.96163e+57
          1452.67750	         7.03474e+57
          1453.48380	         8.16669e+57
          1454.29010	         7.76348e+57
          1455.09640	         8.18598e+57
          1455.90270	         8.45413e+57
          1456.70900	         8.16922e+57
          1457.51530	         9.62859e+57
          1458.32160	         1.10693e+58
          1459.12790	         1.14632e+58
          1459.93420	         9.90481e+57
          1460.74050	         7.84221e+57
          1461.54680	         7.73385e+57
          1462.35310	         7.31681e+57
          1463.15940	         8.52786e+57
          1463.96570	         1.09325e+58
          1464.77200	         1.11501e+58
          1465.57830	         9.38553e+57
          1466.38460	         9.24704e+57
          1467.19090	         8.70322e+57
          1467.99720	         7.84298e+57
          1468.80350	         7.87568e+57
          1469.60980	         9.00980e+57
          1470.41610	         1.02820e+58
          1471.22240	         9.60711e+57
          1472.02870	         1.08842e+58
          1472.83500	         1.00587e+58
          1473.64130	         8.44892e+57
          1474.44760	         7.84117e+57
          1475.25390	         8.83393e+57
          1476.06020	         8.97657e+57
          1476.86650	         8.09677e+57
          1477.67280	         8.12951e+57
          1478.47910	         7.06203e+57
          1479.28540	         7.60914e+57
          1480.09170	         9.21648e+57
          1480.89800	         9.47085e+57
          1481.70430	         9.42122e+57
          1482.51060	         8.22028e+57
          1483.31690	         8.40517e+57
          1484.12320	         8.55818e+57
          1484.92950	         7.34681e+57
          1485.73580	         7.92555e+57
          1486.54210	         9.05814e+57
          1487.34840	         8.92540e+57
          1488.15470	         8.63635e+57
          1488.96100	         8.40156e+57
          1489.76730	         9.32760e+57
