#sample_95_stacked_spectrum_rest_UV-bands_median_H-alpha_noDC.txt
#median Lum: 1.70522e+42
#Rest-frame wavelength (A) | Luminosity (erg/s/A)
#
          1110.00000	         0.00000e+00
          1110.80630	        -3.00766e+59
          1111.61260	        -2.37210e+59
          1112.41890	         1.72807e+59
          1113.22520	         1.52325e+59
          1114.03150	         1.98456e+58
          1114.83780	         3.25112e+59
          1115.64410	         7.35866e+58
          1116.45040	         1.76791e+59
          1117.25670	        -1.45262e+59
          1118.06300	         2.21560e+58
          1118.86930	        -3.74034e+58
          1119.67560	         1.14692e+59
          1120.48190	        -8.79836e+57
          1121.28820	        -1.67818e+59
          1122.09450	        -7.01625e+57
          1122.90080	         8.41722e+58
          1123.70710	         3.13559e+58
          1124.51340	         7.58752e+58
          1125.31970	         2.36297e+58
          1126.12600	         3.37947e+57
          1126.93230	        -2.17247e+58
          1127.73860	        -3.32344e+58
          1128.54490	         2.11542e+58
          1129.35120	         1.98012e+58
          1130.15750	         1.00813e+58
          1130.96380	         4.37875e+56
          1131.77010	         5.87825e+58
          1132.57640	         1.78885e+58
          1133.38270	         5.13246e+58
          1134.18900	         1.27502e+58
          1134.99530	         1.45579e+58
          1135.80160	         1.63847e+58
          1136.60790	         3.33854e+57
          1137.41420	        -2.52243e+57
          1138.22050	         3.44087e+58
          1139.02680	         3.10138e+58
          1139.83310	         3.37938e+58
          1140.63940	         2.17919e+58
          1141.44570	         1.17048e+58
          1142.25200	         1.86821e+58
          1143.05830	         3.88558e+58
          1143.86460	         2.19956e+58
          1144.67090	         3.16060e+58
          1145.47720	         2.01271e+58
          1146.28350	         1.09473e+58
          1147.08980	         5.96521e+57
          1147.89610	         1.85273e+58
          1148.70240	         1.86262e+58
          1149.50870	         1.66711e+58
          1150.31500	         1.82141e+58
          1151.12130	         9.76476e+57
          1151.92760	         2.81742e+57
          1152.73390	        -5.31565e+56
          1153.54020	        -7.32804e+57
          1154.34650	         1.38043e+58
          1155.15280	         1.58760e+58
          1155.95910	        -4.91059e+57
          1156.76540	         1.03588e+58
          1157.57170	         2.88842e+57
          1158.37800	         7.03491e+56
          1159.18430	         5.74969e+57
          1159.99060	         4.95538e+57
          1160.79690	         2.05431e+57
          1161.60320	         1.49658e+58
          1162.40950	         1.36814e+58
          1163.21580	         2.13216e+58
          1164.02210	         1.66005e+58
          1164.82840	         3.10087e+57
          1165.63470	         1.43828e+58
          1166.44100	         3.44511e+58
          1167.24730	         2.31635e+58
          1168.05360	         1.00377e+58
          1168.85990	         6.49955e+57
          1169.66620	         1.67635e+58
          1170.47250	         2.05448e+58
          1171.27880	         1.10759e+58
          1172.08510	         1.52653e+58
          1172.89140	         9.16566e+57
          1173.69770	         1.13507e+58
          1174.50400	         1.03776e+58
          1175.31030	         1.29418e+58
          1176.11660	         1.35996e+58
          1176.92290	         1.57887e+58
          1177.72920	         9.93968e+57
          1178.53550	         4.04933e+57
          1179.34180	         6.71769e+57
          1180.14810	         5.01381e+57
          1180.95440	         7.32176e+57
          1181.76070	         8.70445e+57
          1182.56700	         8.69213e+57
          1183.37330	         6.09110e+57
          1184.17960	         1.05938e+58
          1184.98590	         1.50275e+58
          1185.79220	         1.22345e+58
          1186.59850	         1.02716e+58
          1187.40480	         6.06512e+57
          1188.21110	         1.21629e+58
          1189.01740	         7.60470e+57
          1189.82370	         5.93605e+57
          1190.63000	         5.51006e+57
          1191.43630	         7.39645e+57
          1192.24260	         7.02209e+57
          1193.04890	         8.89838e+57
          1193.85520	         1.16925e+58
          1194.66150	         1.08807e+58
          1195.46780	         1.09467e+58
          1196.27410	         1.66928e+58
          1197.08040	         1.30848e+58
          1197.88670	         1.40103e+58
          1198.69300	         1.46421e+58
          1199.49930	         1.58375e+58
          1200.30560	         1.20317e+58
          1201.11190	         1.16575e+58
          1201.91820	         1.32012e+58
          1202.72450	         1.01850e+58
          1203.53080	         1.52056e+58
          1204.33710	         8.50951e+57
          1205.14340	         8.90379e+57
          1205.94970	         8.52587e+57
          1206.75600	         9.18846e+57
          1207.56230	         6.01974e+57
          1208.36860	         8.26400e+57
          1209.17490	         4.83163e+57
          1209.98120	         5.83979e+57
          1210.78750	         9.25508e+57
          1211.59380	         9.15446e+57
          1212.40010	         1.57624e+58
          1213.20640	         1.87273e+58
          1214.01270	         2.05230e+58
          1214.81900	         2.57701e+58
          1215.62530	         4.67213e+58
          1216.43160	         9.46075e+58
          1217.23790	         1.55692e+59
          1218.04420	         1.13100e+59
          1218.85050	         8.21428e+58
          1219.65680	         5.66987e+58
          1220.46310	         3.54545e+58
          1221.26940	         2.47426e+58
          1222.07570	         1.26189e+58
          1222.88200	         8.45426e+57
          1223.68830	         8.63684e+57
          1224.49460	         5.66265e+57
          1225.30090	         5.21643e+57
          1226.10720	         5.15441e+57
          1226.91350	         7.94255e+57
          1227.71980	         1.02235e+58
          1228.52610	         1.09158e+58
          1229.33240	         5.66327e+57
          1230.13870	         1.05069e+58
          1230.94500	         8.23926e+57
          1231.75130	         4.82812e+57
          1232.55760	         5.83965e+57
          1233.36390	         7.58165e+57
          1234.17020	         8.37958e+57
          1234.97650	         9.84788e+57
          1235.78280	         7.38098e+57
          1236.58910	         7.50622e+57
          1237.39540	         9.05308e+57
          1238.20170	         9.77225e+57
          1239.00800	         1.23266e+58
          1239.81430	         1.44862e+58
          1240.62060	         1.29023e+58
          1241.42690	         1.20081e+58
          1242.23320	         1.26531e+58
          1243.03950	         8.47244e+57
          1243.84580	         7.86147e+57
          1244.65210	         1.02079e+58
          1245.45840	         1.04013e+58
          1246.26470	         6.82544e+57
          1247.07100	         7.88194e+57
          1247.87730	         5.95462e+57
          1248.68360	         4.24281e+57
          1249.48990	         8.12592e+57
          1250.29620	         9.79663e+57
          1251.10250	         7.77359e+57
          1251.90880	         5.25970e+57
          1252.71510	         4.47905e+57
          1253.52140	         6.47657e+57
          1254.32770	         9.28234e+57
          1255.13400	         1.14368e+58
          1255.94030	         1.15726e+58
          1256.74660	         9.44354e+57
          1257.55290	         1.01517e+58
          1258.35920	         8.28894e+57
          1259.16550	         5.17961e+57
          1259.97180	         5.69975e+57
          1260.77810	         8.32485e+57
          1261.58440	         1.06378e+58
          1262.39070	         9.10006e+57
          1263.19700	         7.69946e+57
          1264.00330	         9.45991e+57
          1264.80960	         1.07353e+58
          1265.61590	         1.34916e+58
          1266.42220	         1.20800e+58
          1267.22850	         1.00398e+58
          1268.03480	         1.39743e+58
          1268.84110	         1.62461e+58
          1269.64740	         1.40190e+58
          1270.45370	         1.25387e+58
          1271.26000	         1.11255e+58
          1272.06630	         9.50345e+57
          1272.87260	         9.38961e+57
          1273.67890	         1.17223e+58
          1274.48520	         1.19257e+58
          1275.29150	         1.38967e+58
          1276.09780	         1.22908e+58
          1276.90410	         1.33502e+58
          1277.71040	         1.45258e+58
          1278.51670	         1.31129e+58
          1279.32300	         1.43556e+58
          1280.12930	         1.29400e+58
          1280.93560	         1.10160e+58
          1281.74190	         1.14491e+58
          1282.54820	         1.30945e+58
          1283.35450	         1.28822e+58
          1284.16080	         1.05990e+58
          1284.96710	         1.20413e+58
          1285.77340	         1.28625e+58
          1286.57970	         9.98659e+57
          1287.38600	         1.47704e+58
          1288.19230	         1.85015e+58
          1288.99860	         1.38990e+58
          1289.80490	         9.51101e+57
          1290.61120	         1.24427e+58
          1291.41750	         1.49447e+58
          1292.22380	         1.30930e+58
          1293.03010	         9.80631e+57
          1293.83640	         1.04976e+58
          1294.64270	         9.23835e+57
          1295.44900	         4.79542e+57
          1296.25530	         6.36564e+57
          1297.06160	         1.00980e+58
          1297.86790	         9.41618e+57
          1298.67420	         8.04939e+57
          1299.48050	         8.69914e+57
          1300.28680	         9.99763e+57
          1301.09310	         1.03032e+58
          1301.89940	         6.53269e+57
          1302.70570	         6.47325e+57
          1303.51200	         6.96979e+57
          1304.31830	         8.56805e+57
          1305.12460	         1.09248e+58
          1305.93090	         1.14097e+58
          1306.73720	         1.28727e+58
          1307.54350	         1.49555e+58
          1308.34980	         1.45994e+58
          1309.15610	         1.42776e+58
          1309.96240	         1.47158e+58
          1310.76870	         1.16569e+58
          1311.57500	         1.15327e+58
          1312.38130	         1.34377e+58
          1313.18760	         1.38169e+58
          1313.99390	         1.77388e+58
          1314.80020	         1.76951e+58
          1315.60650	         1.50676e+58
          1316.41280	         1.20631e+58
          1317.21910	         1.13055e+58
          1318.02540	         1.18242e+58
          1318.83170	         1.19443e+58
          1319.63800	         1.16076e+58
          1320.44430	         1.15069e+58
          1321.25060	         1.20616e+58
          1322.05690	         1.40260e+58
          1322.86320	         1.38761e+58
          1323.66950	         1.19139e+58
          1324.47580	         9.25773e+57
          1325.28210	         1.05964e+58
          1326.08840	         1.20184e+58
          1326.89470	         1.22336e+58
          1327.70100	         1.08951e+58
          1328.50730	         9.70984e+57
          1329.31360	         1.02615e+58
          1330.11990	         1.00187e+58
          1330.92620	         8.76836e+57
          1331.73250	         9.96625e+57
          1332.53880	         1.02306e+58
          1333.34510	         9.52380e+57
          1334.15140	         9.62866e+57
          1334.95770	         1.04830e+58
          1335.76400	         1.14276e+58
          1336.57030	         1.21706e+58
          1337.37660	         1.10877e+58
          1338.18290	         1.10916e+58
          1338.98920	         1.15577e+58
          1339.79550	         1.21019e+58
          1340.60180	         1.19549e+58
          1341.40810	         1.29271e+58
          1342.21440	         1.21484e+58
          1343.02070	         1.14885e+58
          1343.82700	         1.16957e+58
          1344.63330	         1.32331e+58
          1345.43960	         1.43151e+58
          1346.24590	         1.11321e+58
          1347.05220	         1.05509e+58
          1347.85850	         1.09000e+58
          1348.66480	         1.09861e+58
          1349.47110	         1.14265e+58
          1350.27740	         1.16215e+58
          1351.08370	         1.15266e+58
          1351.89000	         1.20199e+58
          1352.69630	         1.13600e+58
          1353.50260	         1.15035e+58
          1354.30890	         1.24436e+58
          1355.11520	         1.09384e+58
          1355.92150	         9.67073e+57
          1356.72780	         1.02329e+58
          1357.53410	         1.03178e+58
          1358.34040	         1.05179e+58
          1359.14670	         9.79542e+57
          1359.95300	         9.98891e+57
          1360.75930	         1.02388e+58
          1361.56560	         1.02950e+58
          1362.37190	         1.29161e+58
          1363.17820	         1.11446e+58
          1363.98450	         1.00375e+58
          1364.79080	         1.27879e+58
          1365.59710	         1.35404e+58
          1366.40340	         1.22208e+58
          1367.20970	         1.00454e+58
          1368.01600	         9.41443e+57
          1368.82230	         8.65422e+57
          1369.62860	         9.86411e+57
          1370.43490	         9.09136e+57
          1371.24120	         9.41154e+57
          1372.04750	         7.73334e+57
          1372.85380	         9.56500e+57
          1373.66010	         1.29160e+58
          1374.46640	         1.32994e+58
          1375.27270	         1.25096e+58
          1376.07900	         1.07165e+58
          1376.88530	         8.77990e+57
          1377.69160	         8.19086e+57
          1378.49790	         7.28055e+57
          1379.30420	         8.52531e+57
          1380.11050	         1.02037e+58
          1380.91680	         9.02845e+57
          1381.72310	         8.65778e+57
          1382.52940	         8.76246e+57
          1383.33570	         7.77166e+57
          1384.14200	         8.46351e+57
          1384.94830	         9.94333e+57
          1385.75460	         9.33584e+57
          1386.56090	         1.00347e+58
          1387.36720	         1.16257e+58
          1388.17350	         1.40721e+58
          1388.97980	         1.08273e+58
          1389.78610	         8.78657e+57
          1390.59240	         8.13025e+57
          1391.39870	         7.20570e+57
          1392.20500	         8.79720e+57
          1393.01130	         9.44915e+57
          1393.81760	         6.96386e+57
          1394.62390	         6.93097e+57
          1395.43020	         6.97514e+57
          1396.23650	         5.15971e+57
          1397.04280	         6.54480e+57
          1397.84910	         9.26448e+57
          1398.65540	         8.76109e+57
          1399.46170	         9.40961e+57
          1400.26800	         8.91355e+57
          1401.07430	         8.09083e+57
          1401.88060	         8.89135e+57
          1402.68690	         9.14239e+57
          1403.49320	         9.95937e+57
          1404.29950	         1.04046e+58
          1405.10580	         9.61046e+57
          1405.91210	         1.00755e+58
          1406.71840	         1.15019e+58
          1407.52470	         1.11757e+58
          1408.33100	         1.07624e+58
          1409.13730	         1.19415e+58
          1409.94360	         1.20035e+58
          1410.74990	         1.09928e+58
          1411.55620	         8.83492e+57
          1412.36250	         9.50229e+57
          1413.16880	         8.74482e+57
          1413.97510	         7.39037e+57
          1414.78140	         8.66540e+57
          1415.58770	         1.13871e+58
          1416.39400	         1.11749e+58
          1417.20030	         1.02918e+58
          1418.00660	         8.66277e+57
          1418.81290	         8.55857e+57
          1419.61920	         1.04858e+58
          1420.42550	         1.30771e+58
          1421.23180	         1.27485e+58
          1422.03810	         1.12318e+58
          1422.84440	         1.02836e+58
          1423.65070	         1.22383e+58
          1424.45700	         1.13113e+58
          1425.26330	         8.61919e+57
          1426.06960	         9.61340e+57
          1426.87590	         9.99982e+57
          1427.68220	         9.40629e+57
          1428.48850	         1.01370e+58
          1429.29480	         1.08864e+58
          1430.10110	         1.09364e+58
          1430.90740	         9.29649e+57
          1431.71370	         8.79406e+57
          1432.52000	         8.82623e+57
          1433.32630	         8.33213e+57
          1434.13260	         7.99739e+57
          1434.93890	         8.39259e+57
          1435.74520	         8.71974e+57
          1436.55150	         9.14785e+57
          1437.35780	         8.60432e+57
          1438.16410	         8.49983e+57
          1438.97040	         9.39531e+57
          1439.77670	         9.70625e+57
          1440.58300	         1.01365e+58
          1441.38930	         1.03839e+58
          1442.19560	         9.58946e+57
          1443.00190	         1.05544e+58
          1443.80820	         1.09581e+58
          1444.61450	         9.58508e+57
          1445.42080	         7.98140e+57
          1446.22710	         9.63999e+57
          1447.03340	         1.02047e+58
          1447.83970	         1.05678e+58
          1448.64600	         1.00553e+58
          1449.45230	         1.03661e+58
          1450.25860	         1.04297e+58
          1451.06490	         9.85017e+57
          1451.87120	         8.52110e+57
          1452.67750	         8.44583e+57
          1453.48380	         8.74203e+57
          1454.29010	         7.38142e+57
          1455.09640	         7.32320e+57
          1455.90270	         9.02998e+57
          1456.70900	         9.72958e+57
          1457.51530	         1.09408e+58
          1458.32160	         1.20715e+58
          1459.12790	         1.14215e+58
          1459.93420	         9.89895e+57
          1460.74050	         8.46664e+57
          1461.54680	         7.89438e+57
          1462.35310	         8.52663e+57
          1463.15940	         1.00286e+58
          1463.96570	         9.97111e+57
          1464.77200	         1.02318e+58
          1465.57830	         1.01790e+58
          1466.38460	         8.90356e+57
          1467.19090	         8.61384e+57
          1467.99720	         8.87818e+57
          1468.80350	         9.58076e+57
          1469.60980	         1.05929e+58
          1470.41610	         1.06104e+58
          1471.22240	         8.90264e+57
          1472.02870	         8.99129e+57
          1472.83500	         9.83490e+57
          1473.64130	         1.06287e+58
          1474.44760	         1.01694e+58
          1475.25390	         9.90196e+57
          1476.06020	         8.82404e+57
          1476.86650	         8.05296e+57
          1477.67280	         7.77175e+57
          1478.47910	         7.50613e+57
          1479.28540	         7.21961e+57
          1480.09170	         7.99141e+57
          1480.89800	         7.37485e+57
          1481.70430	         7.65912e+57
          1482.51060	         8.94414e+57
          1483.31690	         8.74137e+57
          1484.12320	         7.97200e+57
          1484.92950	         7.78071e+57
          1485.73580	         7.80230e+57
          1486.54210	         7.99728e+57
          1487.34840	         7.83769e+57
          1488.15470	         7.08974e+57
          1488.96100	         7.08342e+57
          1489.76730	         8.44713e+57
