#sample_346_stacked_spectrum_rest_UV-bands_median_H-alpha_noDC.txt
#median Lum: 1.70771e+42
#Rest-frame wavelength (A) | Luminosity (erg/s/A)
#
          1110.00000	         0.00000e+00
          1110.80630	        -2.54143e+59
          1111.61260	         5.03318e+58
          1112.41890	         6.62778e+58
          1113.22520	        -2.00102e+59
          1114.03150	        -7.31101e+58
          1114.83780	         4.77617e+58
          1115.64410	         1.93735e+59
          1116.45040	         1.72354e+59
          1117.25670	         9.11635e+57
          1118.06300	         3.53161e+58
          1118.86930	        -2.86827e+58
          1119.67560	         1.90242e+59
          1120.48190	         2.46416e+58
          1121.28820	        -1.83375e+58
          1122.09450	         6.79012e+58
          1122.90080	         1.68532e+58
          1123.70710	         6.23681e+58
          1124.51340	         1.08429e+59
          1125.31970	         4.23124e+58
          1126.12600	        -1.48360e+57
          1126.93230	        -4.09868e+58
          1127.73860	        -3.00639e+58
          1128.54490	        -3.92360e+58
          1129.35120	        -1.27742e+58
          1130.15750	        -1.50608e+58
          1130.96380	         1.09608e+58
          1131.77010	         3.85019e+58
          1132.57640	         3.31693e+58
          1133.38270	         4.61089e+57
          1134.18900	        -7.30732e+57
          1134.99530	         2.08485e+58
          1135.80160	        -1.18684e+58
          1136.60790	        -1.01528e+58
          1137.41420	        -7.97987e+57
          1138.22050	         1.07281e+58
          1139.02680	         5.55122e+57
          1139.83310	         3.19593e+57
          1140.63940	         3.36061e+58
          1141.44570	        -2.14372e+57
          1142.25200	         2.92536e+57
          1143.05830	         2.14978e+58
          1143.86460	         1.60536e+58
          1144.67090	         1.27222e+58
          1145.47720	         1.68976e+57
          1146.28350	         3.28497e+57
          1147.08980	         1.26160e+58
          1147.89610	         1.28126e+58
          1148.70240	         1.26900e+58
          1149.50870	         2.41031e+58
          1150.31500	         1.53364e+58
          1151.12130	         4.55078e+57
          1151.92760	         9.95102e+57
          1152.73390	         1.58425e+58
          1153.54020	        -1.17889e+56
          1154.34650	         1.93461e+58
          1155.15280	         1.99398e+58
          1155.95910	        -1.23024e+58
          1156.76540	        -5.13097e+57
          1157.57170	         2.00002e+57
          1158.37800	         6.02469e+57
          1159.18430	         2.45056e+56
          1159.99060	         1.34780e+58
          1160.79690	         8.59661e+57
          1161.60320	         1.93720e+58
          1162.40950	         3.60874e+57
          1163.21580	         1.82017e+58
          1164.02210	         1.89184e+57
          1164.82840	         1.55882e+58
          1165.63470	         2.56919e+58
          1166.44100	         3.22865e+58
          1167.24730	         2.30429e+58
          1168.05360	         8.94346e+57
          1168.85990	         6.27421e+57
          1169.66620	         8.42073e+57
          1170.47250	         1.17149e+58
          1171.27880	         1.27850e+58
          1172.08510	         1.24933e+58
          1172.89140	         5.88202e+57
          1173.69770	         1.04486e+58
          1174.50400	         9.45819e+57
          1175.31030	         1.53505e+58
          1176.11660	         2.14235e+58
          1176.92290	         1.55253e+58
          1177.72920	         8.47493e+57
          1178.53550	         5.02439e+57
          1179.34180	         6.87108e+57
          1180.14810	         9.32922e+57
          1180.95440	         1.04672e+58
          1181.76070	         1.19457e+58
          1182.56700	         6.06582e+57
          1183.37330	         5.99052e+57
          1184.17960	         1.03743e+58
          1184.98590	         8.63174e+57
          1185.79220	         5.24904e+57
          1186.59850	         7.61110e+57
          1187.40480	         5.07319e+57
          1188.21110	         1.38379e+58
          1189.01740	         1.01101e+58
          1189.82370	         9.73230e+57
          1190.63000	         1.53862e+58
          1191.43630	         1.28087e+58
          1192.24260	         7.70323e+57
          1193.04890	         1.41892e+58
          1193.85520	         1.28857e+58
          1194.66150	         8.33980e+57
          1195.46780	         5.52558e+57
          1196.27410	         9.21013e+57
          1197.08040	         9.83815e+57
          1197.88670	         1.48386e+58
          1198.69300	         1.80951e+58
          1199.49930	         1.70920e+58
          1200.30560	         1.15929e+58
          1201.11190	         8.89291e+57
          1201.91820	         9.52536e+57
          1202.72450	         9.45173e+57
          1203.53080	         1.42121e+58
          1204.33710	         5.96617e+57
          1205.14340	         6.13414e+57
          1205.94970	         4.63938e+57
          1206.75600	         3.70575e+57
          1207.56230	         5.07606e+57
          1208.36860	         1.02749e+58
          1209.17490	         6.19652e+57
          1209.98120	         5.88685e+57
          1210.78750	         7.14728e+57
          1211.59380	         1.23526e+58
          1212.40010	         1.88916e+58
          1213.20640	         1.97681e+58
          1214.01270	         2.06774e+58
          1214.81900	         2.31180e+58
          1215.62530	         4.20208e+58
          1216.43160	         8.74751e+58
          1217.23790	         1.53170e+59
          1218.04420	         1.14951e+59
          1218.85050	         8.95280e+58
          1219.65680	         5.80708e+58
          1220.46310	         3.14324e+58
          1221.26940	         2.20104e+58
          1222.07570	         1.36620e+58
          1222.88200	         9.14712e+57
          1223.68830	         9.12586e+57
          1224.49460	         9.16199e+57
          1225.30090	         6.67820e+57
          1226.10720	         6.98306e+57
          1226.91350	         9.19616e+57
          1227.71980	         9.01388e+57
          1228.52610	         1.27727e+58
          1229.33240	         8.34387e+57
          1230.13870	         5.68753e+57
          1230.94500	         6.32365e+57
          1231.75130	         5.79023e+57
          1232.55760	         8.06846e+57
          1233.36390	         6.31464e+57
          1234.17020	         6.77318e+57
          1234.97650	         4.20227e+57
          1235.78280	         7.68609e+57
          1236.58910	         1.06806e+58
          1237.39540	         1.06717e+58
          1238.20170	         8.35484e+57
          1239.00800	         9.75048e+57
          1239.81430	         1.39022e+58
          1240.62060	         1.26899e+58
          1241.42690	         9.79007e+57
          1242.23320	         1.15969e+58
          1243.03950	         9.41742e+57
          1243.84580	         6.09687e+57
          1244.65210	         8.29187e+57
          1245.45840	         7.85840e+57
          1246.26470	         7.78864e+57
          1247.07100	         5.95953e+57
          1247.87730	         4.39994e+57
          1248.68360	         7.55150e+57
          1249.48990	         9.28808e+57
          1250.29620	         7.50354e+57
          1251.10250	         5.09871e+57
          1251.90880	         4.64846e+57
          1252.71510	         4.34218e+57
          1253.52140	         4.21349e+57
          1254.32770	         7.14623e+57
          1255.13400	         1.17785e+58
          1255.94030	         1.18868e+58
          1256.74660	         1.07735e+58
          1257.55290	         1.07879e+58
          1258.35920	         8.71070e+57
          1259.16550	         5.51460e+57
          1259.97180	         3.65950e+57
          1260.77810	         7.46893e+57
          1261.58440	         1.18457e+58
          1262.39070	         1.10190e+58
          1263.19700	         9.62361e+57
          1264.00330	         9.21340e+57
          1264.80960	         1.04495e+58
          1265.61590	         1.27298e+58
          1266.42220	         1.23450e+58
          1267.22850	         1.24263e+58
          1268.03480	         1.58239e+58
          1268.84110	         1.50009e+58
          1269.64740	         1.30338e+58
          1270.45370	         1.36547e+58
          1271.26000	         1.25205e+58
          1272.06630	         1.29243e+58
          1272.87260	         1.24597e+58
          1273.67890	         1.14035e+58
          1274.48520	         1.18481e+58
          1275.29150	         1.34002e+58
          1276.09780	         1.32272e+58
          1276.90410	         1.44891e+58
          1277.71040	         1.26725e+58
          1278.51670	         1.05733e+58
          1279.32300	         1.29359e+58
          1280.12930	         1.37535e+58
          1280.93560	         1.31054e+58
          1281.74190	         1.34127e+58
          1282.54820	         1.10539e+58
          1283.35450	         1.01380e+58
          1284.16080	         1.12753e+58
          1284.96710	         1.24236e+58
          1285.77340	         1.15633e+58
          1286.57970	         1.04461e+58
          1287.38600	         1.46205e+58
          1288.19230	         1.66528e+58
          1288.99860	         1.50256e+58
          1289.80490	         1.15413e+58
          1290.61120	         1.10033e+58
          1291.41750	         1.17986e+58
          1292.22380	         1.17937e+58
          1293.03010	         1.07675e+58
          1293.83640	         1.15355e+58
          1294.64270	         9.86930e+57
          1295.44900	         6.21132e+57
          1296.25530	         6.99582e+57
          1297.06160	         1.04972e+58
          1297.86790	         1.03376e+58
          1298.67420	         8.09526e+57
          1299.48050	         7.91817e+57
          1300.28680	         1.03681e+58
          1301.09310	         7.71389e+57
          1301.89940	         3.51341e+57
          1302.70570	         6.79779e+57
          1303.51200	         9.12483e+57
          1304.31830	         1.05308e+58
          1305.12460	         1.09954e+58
          1305.93090	         1.25669e+58
          1306.73720	         1.28857e+58
          1307.54350	         1.44210e+58
          1308.34980	         1.62464e+58
          1309.15610	         1.59443e+58
          1309.96240	         1.63872e+58
          1310.76870	         1.51244e+58
          1311.57500	         1.17079e+58
          1312.38130	         1.27514e+58
          1313.18760	         1.53410e+58
          1313.99390	         1.84006e+58
          1314.80020	         1.58238e+58
          1315.60650	         1.68498e+58
          1316.41280	         1.23564e+58
          1317.21910	         1.12014e+58
          1318.02540	         1.21786e+58
          1318.83170	         1.33756e+58
          1319.63800	         1.23015e+58
          1320.44430	         1.11988e+58
          1321.25060	         1.24150e+58
          1322.05690	         1.41331e+58
          1322.86320	         1.33895e+58
          1323.66950	         1.12425e+58
          1324.47580	         9.47270e+57
          1325.28210	         9.86637e+57
          1326.08840	         1.24571e+58
          1326.89470	         1.37339e+58
          1327.70100	         1.07381e+58
          1328.50730	         8.14519e+57
          1329.31360	         9.38369e+57
          1330.11990	         1.00122e+58
          1330.92620	         8.99441e+57
          1331.73250	         1.05425e+58
          1332.53880	         9.62253e+57
          1333.34510	         9.54487e+57
          1334.15140	         8.69537e+57
          1334.95770	         8.11825e+57
          1335.76400	         1.10413e+58
          1336.57030	         1.17604e+58
          1337.37660	         1.02207e+58
          1338.18290	         1.00389e+58
          1338.98920	         1.24086e+58
          1339.79550	         1.16972e+58
          1340.60180	         1.22181e+58
          1341.40810	         1.49230e+58
          1342.21440	         1.24985e+58
          1343.02070	         1.24931e+58
          1343.82700	         1.71615e+58
          1344.63330	         1.49048e+58
          1345.43960	         1.33991e+58
          1346.24590	         1.12010e+58
          1347.05220	         1.22676e+58
          1347.85850	         1.10456e+58
          1348.66480	         1.01789e+58
          1349.47110	         1.20809e+58
          1350.27740	         1.19468e+58
          1351.08370	         1.23721e+58
          1351.89000	         1.05723e+58
          1352.69630	         1.08344e+58
          1353.50260	         1.09668e+58
          1354.30890	         1.25356e+58
          1355.11520	         1.21122e+58
          1355.92150	         1.04571e+58
          1356.72780	         9.24875e+57
          1357.53410	         1.02965e+58
          1358.34040	         1.09712e+58
          1359.14670	         9.64154e+57
          1359.95300	         1.09297e+58
          1360.75930	         1.18346e+58
          1361.56560	         1.10019e+58
          1362.37190	         1.12143e+58
          1363.17820	         9.12886e+57
          1363.98450	         1.07959e+58
          1364.79080	         1.33832e+58
          1365.59710	         1.26552e+58
          1366.40340	         1.10588e+58
          1367.20970	         9.58137e+57
          1368.01600	         9.08998e+57
          1368.82230	         1.03939e+58
          1369.62860	         1.01015e+58
          1370.43490	         8.95436e+57
          1371.24120	         8.19190e+57
          1372.04750	         7.08732e+57
          1372.85380	         1.01862e+58
          1373.66010	         1.00154e+58
          1374.46640	         9.60221e+57
          1375.27270	         1.09140e+58
          1376.07900	         9.01118e+57
          1376.88530	         9.16708e+57
          1377.69160	         8.80530e+57
          1378.49790	         7.94180e+57
          1379.30420	         8.06126e+57
          1380.11050	         8.51866e+57
          1380.91680	         8.08669e+57
          1381.72310	         8.22534e+57
          1382.52940	         9.22879e+57
          1383.33570	         8.90191e+57
          1384.14200	         8.73791e+57
          1384.94830	         1.12483e+58
          1385.75460	         1.31283e+58
          1386.56090	         1.38006e+58
          1387.36720	         1.24330e+58
          1388.17350	         1.34294e+58
          1388.97980	         1.27599e+58
          1389.78610	         8.85154e+57
          1390.59240	         6.35422e+57
          1391.39870	         6.35247e+57
          1392.20500	         7.95522e+57
          1393.01130	         7.10525e+57
          1393.81760	         6.53924e+57
          1394.62390	         7.40149e+57
          1395.43020	         6.46405e+57
          1396.23650	         6.83664e+57
          1397.04280	         8.07954e+57
          1397.84910	         8.74385e+57
          1398.65540	         8.17675e+57
          1399.46170	         8.79642e+57
          1400.26800	         8.63102e+57
          1401.07430	         8.19806e+57
          1401.88060	         9.66702e+57
          1402.68690	         1.03330e+58
          1403.49320	         9.51257e+57
          1404.29950	         9.06525e+57
          1405.10580	         1.13824e+58
          1405.91210	         1.19778e+58
          1406.71840	         1.14249e+58
          1407.52470	         1.02574e+58
          1408.33100	         1.10176e+58
          1409.13730	         1.26594e+58
          1409.94360	         1.16635e+58
          1410.74990	         1.13851e+58
          1411.55620	         1.08531e+58
          1412.36250	         8.70284e+57
          1413.16880	         8.92401e+57
          1413.97510	         1.02920e+58
          1414.78140	         1.03156e+58
          1415.58770	         1.03922e+58
          1416.39400	         1.03279e+58
          1417.20030	         1.21817e+58
          1418.00660	         1.26736e+58
          1418.81290	         1.06654e+58
          1419.61920	         9.27448e+57
          1420.42550	         1.13761e+58
          1421.23180	         1.37834e+58
          1422.03810	         1.24149e+58
          1422.84440	         1.07822e+58
          1423.65070	         1.32490e+58
          1424.45700	         1.16705e+58
          1425.26330	         8.11793e+57
          1426.06960	         8.56524e+57
          1426.87590	         1.06578e+58
          1427.68220	         1.09420e+58
          1428.48850	         1.09621e+58
          1429.29480	         1.11657e+58
          1430.10110	         1.03278e+58
          1430.90740	         7.94991e+57
          1431.71370	         8.01934e+57
          1432.52000	         8.92838e+57
          1433.32630	         8.88362e+57
          1434.13260	         9.32687e+57
          1434.93890	         9.29727e+57
          1435.74520	         9.21757e+57
          1436.55150	         9.41948e+57
          1437.35780	         9.41372e+57
          1438.16410	         1.04187e+58
          1438.97040	         9.76626e+57
          1439.77670	         8.96223e+57
          1440.58300	         8.34417e+57
          1441.38930	         7.80229e+57
          1442.19560	         9.43886e+57
          1443.00190	         1.01000e+58
          1443.80820	         1.16950e+58
          1444.61450	         9.61449e+57
          1445.42080	         8.04963e+57
          1446.22710	         1.14166e+58
          1447.03340	         1.15677e+58
          1447.83970	         1.04988e+58
          1448.64600	         1.06991e+58
          1449.45230	         1.07174e+58
          1450.25860	         1.19825e+58
          1451.06490	         1.08180e+58
          1451.87120	         8.16603e+57
          1452.67750	         7.43901e+57
          1453.48380	         9.25020e+57
          1454.29010	         8.55235e+57
          1455.09640	         7.66470e+57
          1455.90270	         8.77233e+57
          1456.70900	         1.00649e+58
          1457.51530	         1.12161e+58
          1458.32160	         1.12567e+58
          1459.12790	         1.11486e+58
          1459.93420	         1.03919e+58
          1460.74050	         8.61890e+57
          1461.54680	         8.48691e+57
          1462.35310	         8.83482e+57
          1463.15940	         9.88831e+57
          1463.96570	         1.04669e+58
          1464.77200	         1.17078e+58
          1465.57830	         1.07866e+58
          1466.38460	         9.67388e+57
          1467.19090	         8.30441e+57
          1467.99720	         9.06541e+57
          1468.80350	         1.03209e+58
          1469.60980	         1.03042e+58
          1470.41610	         1.10373e+58
          1471.22240	         9.45136e+57
          1472.02870	         9.32990e+57
          1472.83500	         9.78905e+57
          1473.64130	         9.30493e+57
          1474.44760	         9.70524e+57
          1475.25390	         1.00799e+58
          1476.06020	         8.80382e+57
          1476.86650	         7.98515e+57
          1477.67280	         7.80695e+57
          1478.47910	         8.01956e+57
          1479.28540	         7.50588e+57
          1480.09170	         7.45082e+57
          1480.89800	         7.23954e+57
          1481.70430	         8.67223e+57
          1482.51060	         9.42744e+57
          1483.31690	         7.92078e+57
          1484.12320	         6.96870e+57
          1484.92950	         7.32628e+57
          1485.73580	         8.67104e+57
          1486.54210	         8.71779e+57
          1487.34840	         9.43369e+57
          1488.15470	         8.40773e+57
          1488.96100	         8.78844e+57
          1489.76730	         8.55455e+57
