#sample_2_stacked_spectrum_rest_UV-bands_median_H-alpha_noDC.txt
#median Lum: 1.70447e+42
#Rest-frame wavelength (A) | Luminosity (erg/s/A)
#
          1110.00000	         0.00000e+00
          1110.80630	        -8.44186e+58
          1111.61260	         7.91563e+58
          1112.41890	         1.01706e+59
          1113.22520	        -4.09714e+58
          1114.03150	         6.56050e+58
          1114.83780	         2.53748e+59
          1115.64410	         9.27113e+58
          1116.45040	         1.13154e+59
          1117.25670	         6.87538e+58
          1118.06300	         1.61407e+59
          1118.86930	        -5.39850e+58
          1119.67560	         1.13414e+59
          1120.48190	        -5.53148e+58
          1121.28820	        -1.21644e+59
          1122.09450	        -7.82159e+58
          1122.90080	        -9.27178e+58
          1123.70710	         3.02676e+58
          1124.51340	         7.35775e+58
          1125.31970	         1.11016e+58
          1126.12600	        -2.14321e+58
          1126.93230	        -6.17303e+58
          1127.73860	        -2.71405e+58
          1128.54490	        -7.04077e+58
          1129.35120	        -3.48954e+58
          1130.15750	        -1.73077e+57
          1130.96380	        -3.23649e+58
          1131.77010	         2.16038e+58
          1132.57640	         5.42298e+58
          1133.38270	         3.53608e+58
          1134.18900	         2.43316e+58
          1134.99530	         3.58470e+57
          1135.80160	         6.04133e+57
          1136.60790	         4.01224e+58
          1137.41420	         2.58576e+58
          1138.22050	         4.35013e+58
          1139.02680	         3.21795e+58
          1139.83310	         1.75756e+58
          1140.63940	         2.86864e+58
          1141.44570	        -7.82628e+57
          1142.25200	        -9.78972e+57
          1143.05830	         2.58615e+58
          1143.86460	         3.42444e+58
          1144.67090	         1.54685e+58
          1145.47720	         2.10131e+57
          1146.28350	         1.56494e+58
          1147.08980	         1.31009e+58
          1147.89610	         9.80345e+57
          1148.70240	         1.55628e+58
          1149.50870	         2.20430e+58
          1150.31500	         1.33350e+58
          1151.12130	         1.22732e+58
          1151.92760	         3.11098e+57
          1152.73390	        -1.00991e+57
          1153.54020	         2.90674e+57
          1154.34650	         1.73407e+58
          1155.15280	         2.29204e+58
          1155.95910	         6.37105e+57
          1156.76540	         9.40373e+57
          1157.57170	         6.33774e+57
          1158.37800	        -2.37705e+57
          1159.18430	        -1.28354e+57
          1159.99060	         1.59127e+57
          1160.79690	         1.24484e+58
          1161.60320	         1.81202e+58
          1162.40950	         1.24059e+58
          1163.21580	         1.42580e+58
          1164.02210	         2.07754e+58
          1164.82840	         1.23676e+58
          1165.63470	         1.07610e+58
          1166.44100	         1.92408e+58
          1167.24730	         1.88204e+58
          1168.05360	         6.19485e+57
          1168.85990	         5.71512e+57
          1169.66620	         1.14667e+58
          1170.47250	         1.24564e+58
          1171.27880	         6.19248e+57
          1172.08510	         1.52809e+58
          1172.89140	         1.40211e+58
          1173.69770	         6.02781e+57
          1174.50400	         1.23658e+58
          1175.31030	         1.72423e+58
          1176.11660	         1.66184e+58
          1176.92290	         1.33910e+58
          1177.72920	         1.16138e+58
          1178.53550	         9.43995e+57
          1179.34180	        -1.14640e+57
          1180.14810	         6.33985e+57
          1180.95440	         1.24139e+58
          1181.76070	         8.23836e+57
          1182.56700	         1.04214e+58
          1183.37330	         5.84172e+57
          1184.17960	         9.77548e+57
          1184.98590	         1.08211e+58
          1185.79220	         8.17724e+57
          1186.59850	         1.32950e+58
          1187.40480	         8.35523e+57
          1188.21110	         1.55436e+58
          1189.01740	         7.87461e+57
          1189.82370	         7.01238e+57
          1190.63000	         1.24503e+58
          1191.43630	         1.21221e+58
          1192.24260	         9.85284e+57
          1193.04890	         9.16459e+57
          1193.85520	         1.04779e+58
          1194.66150	         7.19417e+57
          1195.46780	         1.14932e+58
          1196.27410	         1.69634e+58
          1197.08040	         1.14201e+58
          1197.88670	         1.29818e+58
          1198.69300	         1.28204e+58
          1199.49930	         1.30072e+58
          1200.30560	         8.73617e+57
          1201.11190	         8.22115e+57
          1201.91820	         8.84740e+57
          1202.72450	         5.79669e+57
          1203.53080	         1.06778e+58
          1204.33710	         6.92938e+57
          1205.14340	         6.38112e+57
          1205.94970	         7.83418e+57
          1206.75600	         6.81851e+57
          1207.56230	         8.22585e+57
          1208.36860	         1.31697e+58
          1209.17490	         4.72827e+57
          1209.98120	         3.06068e+57
          1210.78750	         7.08425e+57
          1211.59380	         1.28100e+58
          1212.40010	         1.43791e+58
          1213.20640	         2.09724e+58
          1214.01270	         1.86019e+58
          1214.81900	         2.58640e+58
          1215.62530	         4.55261e+58
          1216.43160	         8.92790e+58
          1217.23790	         1.51362e+59
          1218.04420	         1.16475e+59
          1218.85050	         9.15074e+58
          1219.65680	         5.97317e+58
          1220.46310	         3.32204e+58
          1221.26940	         2.54314e+58
          1222.07570	         1.36294e+58
          1222.88200	         8.47610e+57
          1223.68830	         8.08581e+57
          1224.49460	         8.09825e+57
          1225.30090	         4.88255e+57
          1226.10720	         4.22227e+57
          1226.91350	         5.90340e+57
          1227.71980	         9.69362e+57
          1228.52610	         1.38234e+58
          1229.33240	         8.18533e+57
          1230.13870	         9.36321e+57
          1230.94500	         6.87477e+57
          1231.75130	         7.00653e+57
          1232.55760	         9.35705e+57
          1233.36390	         9.19280e+57
          1234.17020	         9.52353e+57
          1234.97650	         8.51628e+57
          1235.78280	         9.26615e+57
          1236.58910	         7.60738e+57
          1237.39540	         9.31110e+57
          1238.20170	         1.29656e+58
          1239.00800	         1.27053e+58
          1239.81430	         1.31439e+58
          1240.62060	         1.08391e+58
          1241.42690	         1.04197e+58
          1242.23320	         1.10596e+58
          1243.03950	         8.39497e+57
          1243.84580	         7.40674e+57
          1244.65210	         8.26848e+57
          1245.45840	         1.21815e+58
          1246.26470	         1.14825e+58
          1247.07100	         1.01205e+58
          1247.87730	         6.53153e+57
          1248.68360	         4.98761e+57
          1249.48990	         9.68728e+57
          1250.29620	         9.75532e+57
          1251.10250	         6.81865e+57
          1251.90880	         4.70633e+57
          1252.71510	         3.33312e+57
          1253.52140	         7.24870e+57
          1254.32770	         1.12144e+58
          1255.13400	         1.26210e+58
          1255.94030	         1.17801e+58
          1256.74660	         1.08421e+58
          1257.55290	         1.08456e+58
          1258.35920	         8.31087e+57
          1259.16550	         7.07975e+57
          1259.97180	         4.10588e+57
          1260.77810	         6.35767e+57
          1261.58440	         9.09843e+57
          1262.39070	         8.26827e+57
          1263.19700	         1.09644e+58
          1264.00330	         1.12048e+58
          1264.80960	         1.10159e+58
          1265.61590	         1.19893e+58
          1266.42220	         1.16156e+58
          1267.22850	         1.11420e+58
          1268.03480	         1.45053e+58
          1268.84110	         1.57610e+58
          1269.64740	         1.36628e+58
          1270.45370	         1.11786e+58
          1271.26000	         1.01141e+58
          1272.06630	         1.10912e+58
          1272.87260	         1.08292e+58
          1273.67890	         1.12660e+58
          1274.48520	         1.22612e+58
          1275.29150	         1.23418e+58
          1276.09780	         1.02438e+58
          1276.90410	         1.29917e+58
          1277.71040	         1.26065e+58
          1278.51670	         1.26637e+58
          1279.32300	         1.68143e+58
          1280.12930	         1.57678e+58
          1280.93560	         1.24825e+58
          1281.74190	         1.21829e+58
          1282.54820	         1.40303e+58
          1283.35450	         1.19522e+58
          1284.16080	         1.08106e+58
          1284.96710	         1.20008e+58
          1285.77340	         1.05683e+58
          1286.57970	         1.14321e+58
          1287.38600	         1.40334e+58
          1288.19230	         1.69731e+58
          1288.99860	         1.62305e+58
          1289.80490	         1.08201e+58
          1290.61120	         1.36068e+58
          1291.41750	         1.43357e+58
          1292.22380	         1.35718e+58
          1293.03010	         1.11322e+58
          1293.83640	         1.10745e+58
          1294.64270	         1.11386e+58
          1295.44900	         8.83101e+57
          1296.25530	         6.39096e+57
          1297.06160	         9.88537e+57
          1297.86790	         1.17808e+58
          1298.67420	         8.74106e+57
          1299.48050	         1.06943e+58
          1300.28680	         1.06952e+58
          1301.09310	         7.32295e+57
          1301.89940	         2.46580e+57
          1302.70570	         5.16087e+57
          1303.51200	         7.58475e+57
          1304.31830	         9.74280e+57
          1305.12460	         1.13966e+58
          1305.93090	         1.17070e+58
          1306.73720	         1.19838e+58
          1307.54350	         1.37846e+58
          1308.34980	         1.56258e+58
          1309.15610	         1.66575e+58
          1309.96240	         1.54445e+58
          1310.76870	         1.28943e+58
          1311.57500	         1.05560e+58
          1312.38130	         9.78431e+57
          1313.18760	         1.21860e+58
          1313.99390	         1.71963e+58
          1314.80020	         1.57849e+58
          1315.60650	         1.32795e+58
          1316.41280	         1.46609e+58
          1317.21910	         1.21041e+58
          1318.02540	         1.17361e+58
          1318.83170	         1.49225e+58
          1319.63800	         1.40327e+58
          1320.44430	         1.18604e+58
          1321.25060	         1.30155e+58
          1322.05690	         1.32271e+58
          1322.86320	         1.21761e+58
          1323.66950	         1.04397e+58
          1324.47580	         9.38884e+57
          1325.28210	         1.16285e+58
          1326.08840	         1.16434e+58
          1326.89470	         1.09020e+58
          1327.70100	         9.91289e+57
          1328.50730	         9.49637e+57
          1329.31360	         1.07653e+58
          1330.11990	         1.01677e+58
          1330.92620	         9.43380e+57
          1331.73250	         1.12705e+58
          1332.53880	         1.07608e+58
          1333.34510	         8.74400e+57
          1334.15140	         9.08621e+57
          1334.95770	         9.15193e+57
          1335.76400	         1.09148e+58
          1336.57030	         1.23598e+58
          1337.37660	         1.13398e+58
          1338.18290	         1.18450e+58
          1338.98920	         1.17336e+58
          1339.79550	         1.19660e+58
          1340.60180	         1.19069e+58
          1341.40810	         1.32465e+58
          1342.21440	         1.31393e+58
          1343.02070	         1.26665e+58
          1343.82700	         1.21138e+58
          1344.63330	         1.07524e+58
          1345.43960	         1.22627e+58
          1346.24590	         1.17521e+58
          1347.05220	         1.09375e+58
          1347.85850	         1.08395e+58
          1348.66480	         1.29551e+58
          1349.47110	         1.26470e+58
          1350.27740	         1.02347e+58
          1351.08370	         1.07920e+58
          1351.89000	         1.27952e+58
          1352.69630	         1.16019e+58
          1353.50260	         1.08348e+58
          1354.30890	         1.23930e+58
          1355.11520	         1.19830e+58
          1355.92150	         1.07645e+58
          1356.72780	         1.04554e+58
          1357.53410	         1.07651e+58
          1358.34040	         1.08168e+58
          1359.14670	         1.09348e+58
          1359.95300	         1.00959e+58
          1360.75930	         1.01352e+58
          1361.56560	         1.12364e+58
          1362.37190	         1.13877e+58
          1363.17820	         1.11797e+58
          1363.98450	         1.07169e+58
          1364.79080	         9.61538e+57
          1365.59710	         1.11527e+58
          1366.40340	         1.33320e+58
          1367.20970	         1.10915e+58
          1368.01600	         9.55984e+57
          1368.82230	         9.72085e+57
          1369.62860	         1.07887e+58
          1370.43490	         8.93288e+57
          1371.24120	         8.64398e+57
          1372.04750	         9.92558e+57
          1372.85380	         1.11688e+58
          1373.66010	         1.03803e+58
          1374.46640	         1.04629e+58
          1375.27270	         1.08721e+58
          1376.07900	         1.01465e+58
          1376.88530	         9.27085e+57
          1377.69160	         7.94978e+57
          1378.49790	         6.61731e+57
          1379.30420	         7.38694e+57
          1380.11050	         7.97508e+57
          1380.91680	         8.17242e+57
          1381.72310	         8.18383e+57
          1382.52940	         9.86414e+57
          1383.33570	         1.09769e+58
          1384.14200	         1.00536e+58
          1384.94830	         1.04149e+58
          1385.75460	         1.02974e+58
          1386.56090	         1.11376e+58
          1387.36720	         1.19790e+58
          1388.17350	         1.35671e+58
          1388.97980	         1.16169e+58
          1389.78610	         8.86838e+57
          1390.59240	         8.44721e+57
          1391.39870	         7.57325e+57
          1392.20500	         8.24725e+57
          1393.01130	         7.26322e+57
          1393.81760	         7.50425e+57
          1394.62390	         8.64242e+57
          1395.43020	         7.11442e+57
          1396.23650	         5.95108e+57
          1397.04280	         6.09155e+57
          1397.84910	         8.16473e+57
          1398.65540	         9.27081e+57
          1399.46170	         1.08560e+58
          1400.26800	         1.10031e+58
          1401.07430	         7.70926e+57
          1401.88060	         7.87138e+57
          1402.68690	         8.92525e+57
          1403.49320	         9.77794e+57
          1404.29950	         8.50209e+57
          1405.10580	         1.04076e+58
          1405.91210	         1.18838e+58
          1406.71840	         1.07331e+58
          1407.52470	         9.56295e+57
          1408.33100	         9.75773e+57
          1409.13730	         1.19069e+58
          1409.94360	         1.19160e+58
          1410.74990	         1.11341e+58
          1411.55620	         9.87178e+57
          1412.36250	         1.02762e+58
          1413.16880	         1.04313e+58
          1413.97510	         8.30087e+57
          1414.78140	         8.68852e+57
          1415.58770	         1.11695e+58
          1416.39400	         1.19879e+58
          1417.20030	         1.11137e+58
          1418.00660	         9.84853e+57
          1418.81290	         1.09193e+58
          1419.61920	         1.05329e+58
          1420.42550	         1.13163e+58
          1421.23180	         1.28888e+58
          1422.03810	         1.27922e+58
          1422.84440	         1.18103e+58
          1423.65070	         1.29478e+58
          1424.45700	         1.15559e+58
          1425.26330	         9.26336e+57
          1426.06960	         9.76153e+57
          1426.87590	         9.31023e+57
          1427.68220	         1.07671e+58
          1428.48850	         1.12068e+58
          1429.29480	         9.68189e+57
          1430.10110	         9.47679e+57
          1430.90740	         8.95029e+57
          1431.71370	         8.53965e+57
          1432.52000	         8.84059e+57
          1433.32630	         7.41168e+57
          1434.13260	         6.98076e+57
          1434.93890	         8.43770e+57
          1435.74520	         9.18175e+57
          1436.55150	         9.68384e+57
          1437.35780	         9.70970e+57
          1438.16410	         9.28901e+57
          1438.97040	         8.84199e+57
          1439.77670	         9.28309e+57
          1440.58300	         9.93470e+57
          1441.38930	         1.01351e+58
          1442.19560	         9.83129e+57
          1443.00190	         9.95531e+57
          1443.80820	         1.13909e+58
          1444.61450	         9.39057e+57
          1445.42080	         8.32513e+57
          1446.22710	         1.11812e+58
          1447.03340	         1.05299e+58
          1447.83970	         1.08271e+58
          1448.64600	         1.12776e+58
          1449.45230	         1.06387e+58
          1450.25860	         1.09045e+58
          1451.06490	         9.86353e+57
          1451.87120	         8.30030e+57
          1452.67750	         8.04298e+57
          1453.48380	         8.81146e+57
          1454.29010	         7.41185e+57
          1455.09640	         7.45763e+57
          1455.90270	         8.88055e+57
          1456.70900	         8.85780e+57
          1457.51530	         9.51885e+57
          1458.32160	         1.11577e+58
          1459.12790	         1.12056e+58
          1459.93420	         9.19399e+57
          1460.74050	         7.44261e+57
          1461.54680	         8.19904e+57
          1462.35310	         8.30218e+57
          1463.15940	         9.64534e+57
          1463.96570	         1.11719e+58
          1464.77200	         1.18493e+58
          1465.57830	         1.14587e+58
          1466.38460	         9.87959e+57
          1467.19090	         8.80814e+57
          1467.99720	         8.41235e+57
          1468.80350	         9.35809e+57
          1469.60980	         9.33917e+57
          1470.41610	         9.88618e+57
          1471.22240	         8.80506e+57
          1472.02870	         8.60427e+57
          1472.83500	         8.43629e+57
          1473.64130	         9.53188e+57
          1474.44760	         9.63328e+57
          1475.25390	         9.14107e+57
          1476.06020	         9.25993e+57
          1476.86650	         8.76752e+57
          1477.67280	         8.00573e+57
          1478.47910	         7.25246e+57
          1479.28540	         7.90978e+57
          1480.09170	         9.26911e+57
          1480.89800	         8.82568e+57
          1481.70430	         9.21438e+57
          1482.51060	         9.28168e+57
          1483.31690	         8.38529e+57
          1484.12320	         7.14571e+57
          1484.92950	         8.02888e+57
          1485.73580	         7.87701e+57
          1486.54210	         8.80679e+57
          1487.34840	         8.94775e+57
          1488.15470	         8.79349e+57
          1488.96100	         8.00168e+57
          1489.76730	         8.65474e+57
