#sample_435_stacked_spectrum_rest_UV-bands_median_H-alpha_noDC.txt
#median Lum: 1.71520e+42
#Rest-frame wavelength (A) | Luminosity (erg/s/A)
#
          1110.00000	         0.00000e+00
          1110.80630	         4.53530e+59
          1111.61260	         1.79507e+59
          1112.41890	        -8.13258e+58
          1113.22520	         9.98190e+58
          1114.03150	        -6.85149e+58
          1114.83780	         8.20116e+58
          1115.64410	         9.44855e+58
          1116.45040	         8.69550e+58
          1117.25670	         2.31821e+59
          1118.06300	         2.21865e+59
          1118.86930	        -6.37126e+58
          1119.67560	        -8.93970e+57
          1120.48190	         4.52302e+58
          1121.28820	        -7.11391e+58
          1122.09450	         2.74095e+58
          1122.90080	         1.79409e+57
          1123.70710	         8.34146e+58
          1124.51340	         9.85282e+58
          1125.31970	         3.30652e+57
          1126.12600	        -1.33820e+58
          1126.93230	        -1.96277e+58
          1127.73860	        -6.12947e+58
          1128.54490	        -9.06543e+56
          1129.35120	         4.27230e+57
          1130.15750	        -8.24839e+57
          1130.96380	         1.47728e+58
          1131.77010	         7.16163e+58
          1132.57640	         4.84059e+58
          1133.38270	         7.09433e+57
          1134.18900	         1.00075e+58
          1134.99530	         1.89556e+58
          1135.80160	         3.24651e+58
          1136.60790	         2.10077e+58
          1137.41420	         8.76081e+57
          1138.22050	         3.30683e+58
          1139.02680	         2.99941e+58
          1139.83310	         1.85279e+58
          1140.63940	         1.66546e+58
          1141.44570	        -3.89547e+57
          1142.25200	        -1.00591e+57
          1143.05830	         2.36431e+58
          1143.86460	         4.95488e+57
          1144.67090	         3.28145e+58
          1145.47720	         1.04813e+58
          1146.28350	         8.41220e+57
          1147.08980	         1.63873e+58
          1147.89610	         1.51485e+58
          1148.70240	         2.12851e+58
          1149.50870	         1.84424e+58
          1150.31500	         6.38867e+57
          1151.12130	         1.23622e+58
          1151.92760	         8.60480e+57
          1152.73390	        -4.29907e+57
          1153.54020	         5.44166e+57
          1154.34650	         1.72925e+58
          1155.15280	         1.38206e+58
          1155.95910	         7.43857e+57
          1156.76540	         1.19699e+58
          1157.57170	         3.45373e+56
          1158.37800	         1.50113e+57
          1159.18430	        -3.64968e+57
          1159.99060	         3.13707e+57
          1160.79690	         6.04906e+56
          1161.60320	         9.45757e+57
          1162.40950	         1.48996e+58
          1163.21580	         1.93623e+58
          1164.02210	         1.39271e+58
          1164.82840	         8.81959e+57
          1165.63470	         1.58893e+58
          1166.44100	         2.91260e+58
          1167.24730	         1.68117e+58
          1168.05360	         8.44194e+57
          1168.85990	         8.60034e+57
          1169.66620	         1.19640e+58
          1170.47250	         1.68633e+58
          1171.27880	         7.16710e+57
          1172.08510	         1.84324e+58
          1172.89140	         1.49060e+58
          1173.69770	         1.15786e+58
          1174.50400	         1.10415e+58
          1175.31030	         9.76132e+57
          1176.11660	         2.10149e+58
          1176.92290	         1.79826e+58
          1177.72920	         1.15652e+58
          1178.53550	         6.30411e+57
          1179.34180	         2.06259e+56
          1180.14810	         1.15529e+58
          1180.95440	         1.29031e+58
          1181.76070	         7.76461e+57
          1182.56700	         1.07832e+58
          1183.37330	         1.27156e+58
          1184.17960	         1.40796e+58
          1184.98590	         1.29231e+58
          1185.79220	         7.40775e+57
          1186.59850	         9.66912e+57
          1187.40480	         1.17860e+58
          1188.21110	         1.92593e+58
          1189.01740	         9.15480e+57
          1189.82370	         1.00816e+58
          1190.63000	         1.02449e+58
          1191.43630	         1.03070e+58
          1192.24260	         1.03163e+58
          1193.04890	         1.65137e+58
          1193.85520	         9.10389e+57
          1194.66150	         5.10376e+57
          1195.46780	         1.14312e+58
          1196.27410	         1.46543e+58
          1197.08040	         1.04306e+58
          1197.88670	         1.24121e+58
          1198.69300	         1.40729e+58
          1199.49930	         1.39968e+58
          1200.30560	         1.08027e+58
          1201.11190	         9.99623e+57
          1201.91820	         1.12651e+58
          1202.72450	         8.79150e+57
          1203.53080	         1.40576e+58
          1204.33710	         1.15058e+58
          1205.14340	         5.94757e+57
          1205.94970	         7.20429e+57
          1206.75600	         6.76989e+57
          1207.56230	         6.13491e+57
          1208.36860	         6.58653e+57
          1209.17490	         4.35105e+57
          1209.98120	         5.20725e+57
          1210.78750	         8.29265e+57
          1211.59380	         1.32932e+58
          1212.40010	         1.58617e+58
          1213.20640	         2.37174e+58
          1214.01270	         2.38960e+58
          1214.81900	         2.51475e+58
          1215.62530	         4.23289e+58
          1216.43160	         9.02113e+58
          1217.23790	         1.51889e+59
          1218.04420	         1.10556e+59
          1218.85050	         8.24405e+58
          1219.65680	         5.37448e+58
          1220.46310	         2.93885e+58
          1221.26940	         2.29610e+58
          1222.07570	         1.34088e+58
          1222.88200	         1.25357e+58
          1223.68830	         9.09103e+57
          1224.49460	         4.86253e+57
          1225.30090	         5.81542e+57
          1226.10720	         2.62518e+57
          1226.91350	         5.19496e+57
          1227.71980	         1.00048e+58
          1228.52610	         1.31540e+58
          1229.33240	         7.19543e+57
          1230.13870	         9.02385e+57
          1230.94500	         1.14942e+58
          1231.75130	         6.85005e+57
          1232.55760	         7.60803e+57
          1233.36390	         8.55941e+57
          1234.17020	         6.36822e+57
          1234.97650	         5.57008e+57
          1235.78280	         9.01237e+57
          1236.58910	         9.88715e+57
          1237.39540	         1.17765e+58
          1238.20170	         1.12517e+58
          1239.00800	         1.19147e+58
          1239.81430	         1.63989e+58
          1240.62060	         1.24793e+58
          1241.42690	         1.07436e+58
          1242.23320	         1.14572e+58
          1243.03950	         7.43719e+57
          1243.84580	         8.95707e+57
          1244.65210	         1.15661e+58
          1245.45840	         1.10609e+58
          1246.26470	         1.17622e+58
          1247.07100	         1.04799e+58
          1247.87730	         8.63745e+57
          1248.68360	         6.66730e+57
          1249.48990	         7.89977e+57
          1250.29620	         8.92788e+57
          1251.10250	         4.58308e+57
          1251.90880	         5.29619e+57
          1252.71510	         8.56607e+57
          1253.52140	         6.46231e+57
          1254.32770	         8.85196e+57
          1255.13400	         1.47179e+58
          1255.94030	         1.31318e+58
          1256.74660	         1.00800e+58
          1257.55290	         9.63871e+57
          1258.35920	         1.15153e+58
          1259.16550	         9.29710e+57
          1259.97180	         6.12266e+57
          1260.77810	         9.80653e+57
          1261.58440	         1.27252e+58
          1262.39070	         1.13573e+58
          1263.19700	         1.02705e+58
          1264.00330	         1.03414e+58
          1264.80960	         1.12901e+58
          1265.61590	         1.25526e+58
          1266.42220	         1.24327e+58
          1267.22850	         1.08521e+58
          1268.03480	         1.29938e+58
          1268.84110	         1.52281e+58
          1269.64740	         1.41108e+58
          1270.45370	         1.28691e+58
          1271.26000	         1.37688e+58
          1272.06630	         1.24346e+58
          1272.87260	         1.01136e+58
          1273.67890	         1.06631e+58
          1274.48520	         1.36321e+58
          1275.29150	         1.41478e+58
          1276.09780	         1.07936e+58
          1276.90410	         1.41242e+58
          1277.71040	         1.27452e+58
          1278.51670	         1.00135e+58
          1279.32300	         1.22278e+58
          1280.12930	         1.09418e+58
          1280.93560	         1.18575e+58
          1281.74190	         1.14950e+58
          1282.54820	         1.16601e+58
          1283.35450	         1.04322e+58
          1284.16080	         1.06991e+58
          1284.96710	         1.45075e+58
          1285.77340	         1.19871e+58
          1286.57970	         1.05649e+58
          1287.38600	         1.41457e+58
          1288.19230	         1.60833e+58
          1288.99860	         1.36925e+58
          1289.80490	         1.07389e+58
          1290.61120	         1.35556e+58
          1291.41750	         1.48863e+58
          1292.22380	         1.35369e+58
          1293.03010	         1.10613e+58
          1293.83640	         1.16057e+58
          1294.64270	         1.01683e+58
          1295.44900	         6.95182e+57
          1296.25530	         7.17932e+57
          1297.06160	         7.99443e+57
          1297.86790	         9.66800e+57
          1298.67420	         1.03423e+58
          1299.48050	         1.13532e+58
          1300.28680	         1.12653e+58
          1301.09310	         7.80990e+57
          1301.89940	         3.23245e+57
          1302.70570	         5.01365e+57
          1303.51200	         7.99865e+57
          1304.31830	         1.03934e+58
          1305.12460	         1.23996e+58
          1305.93090	         1.20991e+58
          1306.73720	         1.17971e+58
          1307.54350	         1.31127e+58
          1308.34980	         1.47287e+58
          1309.15610	         1.56102e+58
          1309.96240	         1.52092e+58
          1310.76870	         1.26307e+58
          1311.57500	         1.23041e+58
          1312.38130	         1.28895e+58
          1313.18760	         1.30640e+58
          1313.99390	         1.39637e+58
          1314.80020	         1.40895e+58
          1315.60650	         1.37671e+58
          1316.41280	         1.24882e+58
          1317.21910	         1.18347e+58
          1318.02540	         1.20604e+58
          1318.83170	         1.12341e+58
          1319.63800	         1.10554e+58
          1320.44430	         1.07173e+58
          1321.25060	         1.02425e+58
          1322.05690	         1.11495e+58
          1322.86320	         1.19932e+58
          1323.66950	         1.10945e+58
          1324.47580	         9.60123e+57
          1325.28210	         1.08428e+58
          1326.08840	         1.16555e+58
          1326.89470	         1.08508e+58
          1327.70100	         9.61891e+57
          1328.50730	         9.72146e+57
          1329.31360	         9.18636e+57
          1330.11990	         9.28694e+57
          1330.92620	         8.75674e+57
          1331.73250	         1.10084e+58
          1332.53880	         1.09336e+58
          1333.34510	         9.68159e+57
          1334.15140	         9.35150e+57
          1334.95770	         8.32081e+57
          1335.76400	         1.03117e+58
          1336.57030	         1.13124e+58
          1337.37660	         1.05948e+58
          1338.18290	         1.08833e+58
          1338.98920	         1.14489e+58
          1339.79550	         1.06934e+58
          1340.60180	         1.32000e+58
          1341.40810	         1.64533e+58
          1342.21440	         1.24510e+58
          1343.02070	         1.02945e+58
          1343.82700	         1.32647e+58
          1344.63330	         1.25688e+58
          1345.43960	         1.23786e+58
          1346.24590	         1.17020e+58
          1347.05220	         1.12262e+58
          1347.85850	         1.13200e+58
          1348.66480	         1.11619e+58
          1349.47110	         1.11715e+58
          1350.27740	         1.21578e+58
          1351.08370	         1.13852e+58
          1351.89000	         1.10691e+58
          1352.69630	         1.16654e+58
          1353.50260	         1.29372e+58
          1354.30890	         1.24195e+58
          1355.11520	         1.15242e+58
          1355.92150	         9.83318e+57
          1356.72780	         7.87252e+57
          1357.53410	         9.83019e+57
          1358.34040	         1.19143e+58
          1359.14670	         1.13271e+58
          1359.95300	         1.16805e+58
          1360.75930	         1.10538e+58
          1361.56560	         1.00156e+58
          1362.37190	         1.16045e+58
          1363.17820	         1.00443e+58
          1363.98450	         9.73021e+57
          1364.79080	         1.29701e+58
          1365.59710	         1.28340e+58
          1366.40340	         1.17270e+58
          1367.20970	         9.59337e+57
          1368.01600	         8.23094e+57
          1368.82230	         9.01663e+57
          1369.62860	         9.57277e+57
          1370.43490	         9.23105e+57
          1371.24120	         1.00733e+58
          1372.04750	         8.23418e+57
          1372.85380	         9.68810e+57
          1373.66010	         1.04066e+58
          1374.46640	         1.07493e+58
          1375.27270	         1.18526e+58
          1376.07900	         9.77431e+57
          1376.88530	         8.40594e+57
          1377.69160	         8.22722e+57
          1378.49790	         6.88274e+57
          1379.30420	         7.18118e+57
          1380.11050	         9.09413e+57
          1380.91680	         8.70567e+57
          1381.72310	         7.41550e+57
          1382.52940	         7.78861e+57
          1383.33570	         8.46783e+57
          1384.14200	         9.94346e+57
          1384.94830	         1.09977e+58
          1385.75460	         1.22989e+58
          1386.56090	         1.24208e+58
          1387.36720	         1.00120e+58
          1388.17350	         1.21560e+58
          1388.97980	         1.24133e+58
          1389.78610	         9.22095e+57
          1390.59240	         7.98027e+57
          1391.39870	         7.55535e+57
          1392.20500	         9.44649e+57
          1393.01130	         9.74957e+57
          1393.81760	         7.93921e+57
          1394.62390	         7.18143e+57
          1395.43020	         5.74337e+57
          1396.23650	         6.22443e+57
          1397.04280	         8.35768e+57
          1397.84910	         8.94609e+57
          1398.65540	         8.32893e+57
          1399.46170	         9.36909e+57
          1400.26800	         8.87088e+57
          1401.07430	         8.19671e+57
          1401.88060	         8.30284e+57
          1402.68690	         8.99871e+57
          1403.49320	         8.83567e+57
          1404.29950	         8.49603e+57
          1405.10580	         1.04514e+58
          1405.91210	         1.06782e+58
          1406.71840	         9.92681e+57
          1407.52470	         1.11794e+58
          1408.33100	         1.00328e+58
          1409.13730	         1.04568e+58
          1409.94360	         1.14978e+58
          1410.74990	         1.25950e+58
          1411.55620	         1.13620e+58
          1412.36250	         9.47772e+57
          1413.16880	         8.72853e+57
          1413.97510	         7.94827e+57
          1414.78140	         8.58385e+57
          1415.58770	         1.09431e+58
          1416.39400	         1.24975e+58
          1417.20030	         1.09327e+58
          1418.00660	         9.45905e+57
          1418.81290	         1.09664e+58
          1419.61920	         1.17965e+58
          1420.42550	         1.33421e+58
          1421.23180	         1.45049e+58
          1422.03810	         1.30444e+58
          1422.84440	         9.83766e+57
          1423.65070	         1.16566e+58
          1424.45700	         1.09522e+58
          1425.26330	         8.88773e+57
          1426.06960	         9.70274e+57
          1426.87590	         9.24143e+57
          1427.68220	         9.86396e+57
          1428.48850	         1.06432e+58
          1429.29480	         1.02163e+58
          1430.10110	         1.02009e+58
          1430.90740	         9.09128e+57
          1431.71370	         8.52967e+57
          1432.52000	         8.95566e+57
          1433.32630	         8.44945e+57
          1434.13260	         7.68390e+57
          1434.93890	         8.46639e+57
          1435.74520	         9.24686e+57
          1436.55150	         9.71560e+57
          1437.35780	         9.36992e+57
          1438.16410	         8.76022e+57
          1438.97040	         8.21633e+57
          1439.77670	         8.19534e+57
          1440.58300	         8.40492e+57
          1441.38930	         9.02379e+57
          1442.19560	         1.00032e+58
          1443.00190	         9.90756e+57
          1443.80820	         1.06274e+58
          1444.61450	         9.74063e+57
          1445.42080	         7.87185e+57
          1446.22710	         9.57206e+57
          1447.03340	         9.75961e+57
          1447.83970	         9.37201e+57
          1448.64600	         8.73009e+57
          1449.45230	         9.40194e+57
          1450.25860	         9.56101e+57
          1451.06490	         8.70297e+57
          1451.87120	         7.80033e+57
          1452.67750	         8.09793e+57
          1453.48380	         9.11413e+57
          1454.29010	         7.95490e+57
          1455.09640	         7.55300e+57
          1455.90270	         8.77953e+57
          1456.70900	         8.84444e+57
          1457.51530	         9.85623e+57
          1458.32160	         1.24451e+58
          1459.12790	         1.10304e+58
          1459.93420	         8.73762e+57
          1460.74050	         8.39430e+57
          1461.54680	         8.80301e+57
          1462.35310	         8.49539e+57
          1463.15940	         1.02660e+58
          1463.96570	         1.23820e+58
          1464.77200	         1.23049e+58
          1465.57830	         1.01574e+58
          1466.38460	         8.47187e+57
          1467.19090	         8.19618e+57
          1467.99720	         9.25173e+57
          1468.80350	         1.00753e+58
          1469.60980	         1.04088e+58
          1470.41610	         1.09141e+58
          1471.22240	         9.09830e+57
          1472.02870	         8.26924e+57
          1472.83500	         9.48340e+57
          1473.64130	         1.03624e+58
          1474.44760	         1.00689e+58
          1475.25390	         9.86118e+57
          1476.06020	         8.78582e+57
          1476.86650	         8.10024e+57
          1477.67280	         8.00201e+57
          1478.47910	         7.29665e+57
          1479.28540	         7.13723e+57
          1480.09170	         8.93407e+57
          1480.89800	         9.16672e+57
          1481.70430	         7.61821e+57
          1482.51060	         7.58343e+57
          1483.31690	         8.45158e+57
          1484.12320	         8.22628e+57
          1484.92950	         7.52433e+57
          1485.73580	         8.59960e+57
          1486.54210	         9.21502e+57
          1487.34840	         8.29480e+57
          1488.15470	         7.11621e+57
          1488.96100	         7.43838e+57
          1489.76730	         8.70792e+57
