#sample_148_stacked_spectrum_rest_UV-bands_median_H-alpha_noDC.txt
#median Lum: 1.66570e+42
#Rest-frame wavelength (A) | Luminosity (erg/s/A)
#
          1110.00000	         0.00000e+00
          1110.80630	        -2.26379e+59
          1111.61260	        -2.46262e+59
          1112.41890	        -4.13802e+59
          1113.22520	         6.28666e+58
          1114.03150	        -1.13812e+59
          1114.83780	         1.84555e+59
          1115.64410	         4.68499e+58
          1116.45040	         1.62012e+59
          1117.25670	         9.08970e+58
          1118.06300	         1.23251e+59
          1118.86930	         1.39851e+59
          1119.67560	         1.08436e+59
          1120.48190	        -1.84592e+58
          1121.28820	        -1.23428e+59
          1122.09450	         1.03146e+57
          1122.90080	         3.47044e+58
          1123.70710	         4.20987e+58
          1124.51340	         6.35899e+58
          1125.31970	         2.54476e+58
          1126.12600	        -1.92272e+57
          1126.93230	        -4.42058e+58
          1127.73860	        -7.37220e+58
          1128.54490	        -8.13939e+57
          1129.35120	        -8.38316e+56
          1130.15750	        -1.64220e+58
          1130.96380	        -4.51848e+58
          1131.77010	         3.07194e+58
          1132.57640	         3.04039e+58
          1133.38270	        -4.74244e+57
          1134.18900	         5.16618e+57
          1134.99530	        -1.84139e+57
          1135.80160	         1.68828e+58
          1136.60790	         2.23513e+58
          1137.41420	        -6.39761e+57
          1138.22050	         3.54213e+58
          1139.02680	         4.21274e+58
          1139.83310	         2.85092e+58
          1140.63940	         1.04932e+58
          1141.44570	        -2.42287e+58
          1142.25200	        -7.26766e+57
          1143.05830	         3.61211e+58
          1143.86460	         2.78491e+58
          1144.67090	         2.23305e+58
          1145.47720	         1.57165e+58
          1146.28350	         1.00946e+58
          1147.08980	         2.74327e+58
          1147.89610	         3.07098e+58
          1148.70240	         1.47686e+58
          1149.50870	         1.64086e+58
          1150.31500	         3.00706e+57
          1151.12130	         6.33320e+57
          1151.92760	         6.08402e+57
          1152.73390	         2.58220e+58
          1153.54020	         1.48066e+58
          1154.34650	         2.31015e+58
          1155.15280	         1.93656e+58
          1155.95910	         9.19329e+57
          1156.76540	         1.04657e+58
          1157.57170	        -3.22709e+57
          1158.37800	        -1.59228e+57
          1159.18430	        -3.29138e+57
          1159.99060	         4.58546e+57
          1160.79690	         2.96152e+57
          1161.60320	         1.09374e+58
          1162.40950	         1.73105e+58
          1163.21580	         1.74602e+58
          1164.02210	         1.06785e+58
          1164.82840	         9.10692e+57
          1165.63470	         1.52126e+58
          1166.44100	         2.72802e+58
          1167.24730	         1.87004e+58
          1168.05360	         6.79432e+57
          1168.85990	         1.21812e+58
          1169.66620	         1.45358e+58
          1170.47250	         1.59195e+58
          1171.27880	         2.16285e+58
          1172.08510	         1.85134e+58
          1172.89140	         8.93068e+57
          1173.69770	         3.02634e+57
          1174.50400	         1.26804e+58
          1175.31030	         1.74879e+58
          1176.11660	         1.60827e+58
          1176.92290	         1.37947e+58
          1177.72920	         1.08861e+58
          1178.53550	         6.87951e+57
          1179.34180	         1.21260e+57
          1180.14810	         4.05720e+57
          1180.95440	         7.10009e+57
          1181.76070	         9.59421e+57
          1182.56700	         1.00076e+58
          1183.37330	         8.09774e+57
          1184.17960	         1.25030e+58
          1184.98590	         9.55640e+57
          1185.79220	         5.54065e+57
          1186.59850	         1.47286e+58
          1187.40480	         1.32921e+58
          1188.21110	         1.15546e+58
          1189.01740	         8.16763e+57
          1189.82370	         4.28826e+57
          1190.63000	         1.02715e+58
          1191.43630	         1.54520e+58
          1192.24260	         7.46908e+57
          1193.04890	         1.04984e+58
          1193.85520	         9.26291e+57
          1194.66150	         2.32938e+57
          1195.46780	         1.11325e+58
          1196.27410	         1.92392e+58
          1197.08040	         1.13048e+58
          1197.88670	         1.13141e+58
          1198.69300	         1.53818e+58
          1199.49930	         1.74937e+58
          1200.30560	         1.38981e+58
          1201.11190	         1.14672e+58
          1201.91820	         6.15175e+57
          1202.72450	         5.69026e+57
          1203.53080	         1.32330e+58
          1204.33710	         1.04526e+58
          1205.14340	         3.58739e+57
          1205.94970	         4.62176e+57
          1206.75600	         3.36451e+57
          1207.56230	         1.44480e+57
          1208.36860	         8.14791e+57
          1209.17490	         3.60334e+57
          1209.98120	         5.80594e+57
          1210.78750	         7.04341e+57
          1211.59380	         1.00518e+58
          1212.40010	         1.58260e+58
          1213.20640	         1.84115e+58
          1214.01270	         1.80399e+58
          1214.81900	         2.63144e+58
          1215.62530	         4.55846e+58
          1216.43160	         9.18428e+58
          1217.23790	         1.52561e+59
          1218.04420	         1.14713e+59
          1218.85050	         8.57718e+58
          1219.65680	         5.92881e+58
          1220.46310	         3.32926e+58
          1221.26940	         2.14614e+58
          1222.07570	         1.27321e+58
          1222.88200	         8.93472e+57
          1223.68830	         7.46052e+57
          1224.49460	         8.05770e+57
          1225.30090	         6.57533e+57
          1226.10720	         6.91608e+57
          1226.91350	         6.74238e+57
          1227.71980	         9.25723e+57
          1228.52610	         1.30962e+58
          1229.33240	         9.18414e+57
          1230.13870	         6.38848e+57
          1230.94500	         6.12623e+57
          1231.75130	         6.01745e+57
          1232.55760	         6.83193e+57
          1233.36390	         9.09392e+57
          1234.17020	         8.23321e+57
          1234.97650	         8.74561e+57
          1235.78280	         5.90507e+57
          1236.58910	         7.38514e+57
          1237.39540	         1.01275e+58
          1238.20170	         7.98685e+57
          1239.00800	         1.10902e+58
          1239.81430	         1.41971e+58
          1240.62060	         9.75450e+57
          1241.42690	         1.03493e+58
          1242.23320	         1.20146e+58
          1243.03950	         8.77369e+57
          1243.84580	         7.70148e+57
          1244.65210	         9.23613e+57
          1245.45840	         1.00531e+58
          1246.26470	         7.59414e+57
          1247.07100	         5.28253e+57
          1247.87730	         7.71268e+57
          1248.68360	         2.40909e+57
          1249.48990	         6.22800e+57
          1250.29620	         9.63429e+57
          1251.10250	         7.94931e+57
          1251.90880	         5.17023e+57
          1252.71510	         6.53922e+57
          1253.52140	         8.98302e+57
          1254.32770	         1.02344e+58
          1255.13400	         1.14103e+58
          1255.94030	         9.82650e+57
          1256.74660	         9.89014e+57
          1257.55290	         1.26100e+58
          1258.35920	         1.16142e+58
          1259.16550	         8.06655e+57
          1259.97180	         5.86790e+57
          1260.77810	         6.58008e+57
          1261.58440	         8.41469e+57
          1262.39070	         7.49208e+57
          1263.19700	         7.75069e+57
          1264.00330	         1.00462e+58
          1264.80960	         1.10102e+58
          1265.61590	         1.36951e+58
          1266.42220	         1.40421e+58
          1267.22850	         1.00697e+58
          1268.03480	         1.25278e+58
          1268.84110	         1.41361e+58
          1269.64740	         1.21083e+58
          1270.45370	         1.20174e+58
          1271.26000	         1.12759e+58
          1272.06630	         1.32042e+58
          1272.87260	         1.36879e+58
          1273.67890	         1.32083e+58
          1274.48520	         1.14455e+58
          1275.29150	         1.15710e+58
          1276.09780	         9.71647e+57
          1276.90410	         1.33156e+58
          1277.71040	         1.35685e+58
          1278.51670	         1.38722e+58
          1279.32300	         1.53146e+58
          1280.12930	         1.36959e+58
          1280.93560	         1.16290e+58
          1281.74190	         1.22290e+58
          1282.54820	         1.42043e+58
          1283.35450	         1.30488e+58
          1284.16080	         1.31618e+58
          1284.96710	         1.35672e+58
          1285.77340	         1.20601e+58
          1286.57970	         1.30121e+58
          1287.38600	         1.64981e+58
          1288.19230	         1.63062e+58
          1288.99860	         1.27190e+58
          1289.80490	         1.20396e+58
          1290.61120	         1.41252e+58
          1291.41750	         1.49161e+58
          1292.22380	         1.12976e+58
          1293.03010	         9.65311e+57
          1293.83640	         1.06178e+58
          1294.64270	         1.05685e+58
          1295.44900	         6.20354e+57
          1296.25530	         6.35626e+57
          1297.06160	         8.37292e+57
          1297.86790	         7.36947e+57
          1298.67420	         8.99377e+57
          1299.48050	         1.06730e+58
          1300.28680	         1.05558e+58
          1301.09310	         8.99831e+57
          1301.89940	         3.37867e+57
          1302.70570	         4.70361e+57
          1303.51200	         6.79711e+57
          1304.31830	         9.72975e+57
          1305.12460	         1.03585e+58
          1305.93090	         1.11530e+58
          1306.73720	         1.20114e+58
          1307.54350	         1.35661e+58
          1308.34980	         1.44129e+58
          1309.15610	         1.56333e+58
          1309.96240	         1.75275e+58
          1310.76870	         1.42727e+58
          1311.57500	         1.09637e+58
          1312.38130	         1.18710e+58
          1313.18760	         1.43870e+58
          1313.99390	         1.67409e+58
          1314.80020	         1.77007e+58
          1315.60650	         1.42229e+58
          1316.41280	         1.06670e+58
          1317.21910	         1.02980e+58
          1318.02540	         1.06292e+58
          1318.83170	         1.18020e+58
          1319.63800	         1.20674e+58
          1320.44430	         1.15893e+58
          1321.25060	         1.18785e+58
          1322.05690	         1.24988e+58
          1322.86320	         1.26240e+58
          1323.66950	         1.16235e+58
          1324.47580	         9.91412e+57
          1325.28210	         9.46551e+57
          1326.08840	         1.06357e+58
          1326.89470	         1.26991e+58
          1327.70100	         1.28830e+58
          1328.50730	         9.60237e+57
          1329.31360	         8.23929e+57
          1330.11990	         8.62545e+57
          1330.92620	         9.50963e+57
          1331.73250	         1.14887e+58
          1332.53880	         9.41615e+57
          1333.34510	         8.96121e+57
          1334.15140	         9.77661e+57
          1334.95770	         9.84651e+57
          1335.76400	         1.01817e+58
          1336.57030	         1.15492e+58
          1337.37660	         1.19701e+58
          1338.18290	         1.04782e+58
          1338.98920	         1.18832e+58
          1339.79550	         1.21155e+58
          1340.60180	         1.20653e+58
          1341.40810	         1.39012e+58
          1342.21440	         1.23077e+58
          1343.02070	         1.25389e+58
          1343.82700	         1.38445e+58
          1344.63330	         1.22262e+58
          1345.43960	         1.24633e+58
          1346.24590	         1.19738e+58
          1347.05220	         1.22288e+58
          1347.85850	         1.10989e+58
          1348.66480	         1.17107e+58
          1349.47110	         1.44156e+58
          1350.27740	         1.26470e+58
          1351.08370	         1.06996e+58
          1351.89000	         1.11068e+58
          1352.69630	         1.11922e+58
          1353.50260	         1.16196e+58
          1354.30890	         1.25511e+58
          1355.11520	         1.23797e+58
          1355.92150	         1.14156e+58
          1356.72780	         1.03220e+58
          1357.53410	         1.08347e+58
          1358.34040	         1.18297e+58
          1359.14670	         1.10390e+58
          1359.95300	         1.20580e+58
          1360.75930	         1.27808e+58
          1361.56560	         1.13304e+58
          1362.37190	         1.16181e+58
          1363.17820	         1.10929e+58
          1363.98450	         1.26903e+58
          1364.79080	         1.31188e+58
          1365.59710	         1.30865e+58
          1366.40340	         1.24364e+58
          1367.20970	         1.20622e+58
          1368.01600	         9.64199e+57
          1368.82230	         8.99780e+57
          1369.62860	         1.24732e+58
          1370.43490	         1.15875e+58
          1371.24120	         8.59859e+57
          1372.04750	         8.00434e+57
          1372.85380	         1.14865e+58
          1373.66010	         1.20252e+58
          1374.46640	         1.03494e+58
          1375.27270	         1.11559e+58
          1376.07900	         9.40804e+57
          1376.88530	         8.51483e+57
          1377.69160	         8.80427e+57
          1378.49790	         7.19998e+57
          1379.30420	         7.12197e+57
          1380.11050	         8.23715e+57
          1380.91680	         8.42211e+57
          1381.72310	         9.63563e+57
          1382.52940	         9.12741e+57
          1383.33570	         8.50155e+57
          1384.14200	         8.76181e+57
          1384.94830	         1.01294e+58
          1385.75460	         9.92896e+57
          1386.56090	         1.07001e+58
          1387.36720	         1.08412e+58
          1388.17350	         1.29640e+58
          1388.97980	         1.17836e+58
          1389.78610	         9.57976e+57
          1390.59240	         7.89183e+57
          1391.39870	         7.45371e+57
          1392.20500	         8.07341e+57
          1393.01130	         6.22137e+57
          1393.81760	         6.89801e+57
          1394.62390	         8.31019e+57
          1395.43020	         7.24999e+57
          1396.23650	         6.73307e+57
          1397.04280	         7.03000e+57
          1397.84910	         9.10030e+57
          1398.65540	         1.02668e+58
          1399.46170	         1.00023e+58
          1400.26800	         8.21270e+57
          1401.07430	         7.54961e+57
          1401.88060	         8.58269e+57
          1402.68690	         9.41934e+57
          1403.49320	         9.32372e+57
          1404.29950	         9.30713e+57
          1405.10580	         1.07644e+58
          1405.91210	         1.22250e+58
          1406.71840	         1.09575e+58
          1407.52470	         1.04400e+58
          1408.33100	         9.94493e+57
          1409.13730	         1.16863e+58
          1409.94360	         1.24314e+58
          1410.74990	         1.24357e+58
          1411.55620	         1.06296e+58
          1412.36250	         8.34151e+57
          1413.16880	         8.65116e+57
          1413.97510	         8.73178e+57
          1414.78140	         8.54596e+57
          1415.58770	         1.07637e+58
          1416.39400	         1.12354e+58
          1417.20030	         1.04065e+58
          1418.00660	         9.67659e+57
          1418.81290	         1.08036e+58
          1419.61920	         1.00346e+58
          1420.42550	         1.16280e+58
          1421.23180	         1.41022e+58
          1422.03810	         1.29601e+58
          1422.84440	         1.07975e+58
          1423.65070	         1.22233e+58
          1424.45700	         1.18779e+58
          1425.26330	         8.88276e+57
          1426.06960	         8.49907e+57
          1426.87590	         1.02879e+58
          1427.68220	         1.07992e+58
          1428.48850	         1.10152e+58
          1429.29480	         1.01299e+58
          1430.10110	         1.03966e+58
          1430.90740	         9.31166e+57
          1431.71370	         8.49880e+57
          1432.52000	         8.55503e+57
          1433.32630	         7.75707e+57
          1434.13260	         7.73504e+57
          1434.93890	         8.41850e+57
          1435.74520	         8.60109e+57
          1436.55150	         9.07038e+57
          1437.35780	         8.88381e+57
          1438.16410	         8.33943e+57
          1438.97040	         8.48949e+57
          1439.77670	         9.26229e+57
          1440.58300	         9.53396e+57
          1441.38930	         9.23933e+57
          1442.19560	         9.78957e+57
          1443.00190	         9.64796e+57
          1443.80820	         1.13739e+58
          1444.61450	         1.05309e+58
          1445.42080	         9.80705e+57
          1446.22710	         1.12771e+58
          1447.03340	         9.69105e+57
          1447.83970	         9.82075e+57
          1448.64600	         1.00012e+58
          1449.45230	         1.04209e+58
          1450.25860	         1.05442e+58
          1451.06490	         9.17032e+57
          1451.87120	         7.40103e+57
          1452.67750	         7.60003e+57
          1453.48380	         9.78692e+57
          1454.29010	         8.98889e+57
          1455.09640	         7.80642e+57
          1455.90270	         8.84628e+57
          1456.70900	         9.33872e+57
          1457.51530	         9.39552e+57
          1458.32160	         1.12815e+58
          1459.12790	         1.21990e+58
          1459.93420	         1.03560e+58
          1460.74050	         8.34161e+57
          1461.54680	         8.37804e+57
          1462.35310	         8.30962e+57
          1463.15940	         9.68926e+57
          1463.96570	         1.20951e+58
          1464.77200	         1.22375e+58
          1465.57830	         1.10288e+58
          1466.38460	         9.72385e+57
          1467.19090	         9.15002e+57
          1467.99720	         9.28223e+57
          1468.80350	         1.03003e+58
          1469.60980	         1.04351e+58
          1470.41610	         1.05327e+58
          1471.22240	         9.11353e+57
          1472.02870	         9.39622e+57
          1472.83500	         9.88346e+57
          1473.64130	         9.88497e+57
          1474.44760	         9.38647e+57
          1475.25390	         8.96465e+57
          1476.06020	         9.14534e+57
          1476.86650	         8.32749e+57
          1477.67280	         7.99051e+57
          1478.47910	         6.55192e+57
          1479.28540	         7.04745e+57
          1480.09170	         8.95631e+57
          1480.89800	         8.97223e+57
          1481.70430	         8.20244e+57
          1482.51060	         9.19890e+57
          1483.31690	         8.97016e+57
          1484.12320	         7.80780e+57
          1484.92950	         8.32361e+57
          1485.73580	         8.84109e+57
          1486.54210	         8.85340e+57
          1487.34840	         9.60259e+57
          1488.15470	         8.63683e+57
          1488.96100	         8.11299e+57
          1489.76730	         8.44618e+57
