#sample_90_stacked_spectrum_rest_UV-bands_median_H-alpha_noDC.txt
#median Lum: 1.70463e+42
#Rest-frame wavelength (A) | Luminosity (erg/s/A)
#
          1110.00000	         0.00000e+00
          1110.80630	        -1.04594e+60
          1111.61260	        -1.48560e+59
          1112.41890	         1.50548e+59
          1113.22520	         3.47376e+58
          1114.03150	         9.92293e+56
          1114.83780	         4.21960e+59
          1115.64410	         1.44625e+59
          1116.45040	         5.47495e+58
          1117.25670	         1.93484e+59
          1118.06300	         1.86079e+59
          1118.86930	         1.58995e+58
          1119.67560	         1.39971e+59
          1120.48190	        -1.71974e+58
          1121.28820	        -1.30808e+59
          1122.09450	         6.76849e+58
          1122.90080	         1.15868e+59
          1123.70710	         8.94719e+58
          1124.51340	         1.78208e+58
          1125.31970	        -4.45952e+57
          1126.12600	         3.98143e+57
          1126.93230	        -6.20484e+58
          1127.73860	         1.29495e+58
          1128.54490	         3.04360e+58
          1129.35120	         3.04124e+57
          1130.15750	        -1.28534e+58
          1130.96380	        -4.46870e+58
          1131.77010	         4.88256e+58
          1132.57640	         2.62071e+58
          1133.38270	         3.99461e+58
          1134.18900	         2.18885e+58
          1134.99530	         3.92990e+58
          1135.80160	         3.98821e+58
          1136.60790	         2.14027e+58
          1137.41420	        -7.69288e+57
          1138.22050	         3.18967e+58
          1139.02680	         3.11242e+58
          1139.83310	         2.44809e+58
          1140.63940	         4.05863e+58
          1141.44570	         3.74746e+57
          1142.25200	         1.33011e+58
          1143.05830	         3.03129e+58
          1143.86460	         3.14784e+58
          1144.67090	         1.33377e+58
          1145.47720	         6.06671e+57
          1146.28350	         6.93018e+57
          1147.08980	         1.09249e+58
          1147.89610	         1.01203e+58
          1148.70240	         2.92999e+58
          1149.50870	         2.85127e+58
          1150.31500	         1.60740e+58
          1151.12130	         1.56984e+58
          1151.92760	        -2.16652e+57
          1152.73390	         5.95705e+56
          1153.54020	         1.24896e+58
          1154.34650	         9.87331e+57
          1155.15280	         1.45921e+58
          1155.95910	         6.11289e+57
          1156.76540	        -4.20129e+57
          1157.57170	        -1.07712e+57
          1158.37800	         9.63417e+56
          1159.18430	        -1.78933e+57
          1159.99060	         5.10217e+57
          1160.79690	         5.68439e+57
          1161.60320	         1.37571e+58
          1162.40950	         1.91108e+58
          1163.21580	         1.50451e+58
          1164.02210	         1.23550e+58
          1164.82840	         1.15301e+58
          1165.63470	         1.30695e+58
          1166.44100	         2.69744e+58
          1167.24730	         1.65927e+58
          1168.05360	         4.86501e+57
          1168.85990	         5.09187e+57
          1169.66620	         2.82186e+57
          1170.47250	         1.17016e+58
          1171.27880	         8.83976e+57
          1172.08510	         4.65965e+57
          1172.89140	         3.95770e+57
          1173.69770	         1.26001e+58
          1174.50400	         1.11664e+58
          1175.31030	         1.59245e+58
          1176.11660	         1.76366e+58
          1176.92290	         1.17054e+58
          1177.72920	         1.04977e+58
          1178.53550	         3.95538e+57
          1179.34180	         1.21173e+56
          1180.14810	         5.34141e+57
          1180.95440	         1.11106e+58
          1181.76070	         8.66164e+57
          1182.56700	         9.01912e+57
          1183.37330	         3.73294e+57
          1184.17960	         7.09371e+57
          1184.98590	         8.64447e+57
          1185.79220	         9.40439e+57
          1186.59850	         1.14548e+58
          1187.40480	         7.08569e+57
          1188.21110	         1.48084e+58
          1189.01740	         6.63592e+57
          1189.82370	         5.96559e+57
          1190.63000	         1.45872e+58
          1191.43630	         1.89742e+58
          1192.24260	         1.22112e+58
          1193.04890	         1.39705e+58
          1193.85520	         8.42457e+57
          1194.66150	         2.58166e+57
          1195.46780	         1.30418e+58
          1196.27410	         2.07407e+58
          1197.08040	         1.27245e+58
          1197.88670	         1.09524e+58
          1198.69300	         1.01667e+58
          1199.49930	         1.43876e+58
          1200.30560	         1.21202e+58
          1201.11190	         5.87485e+57
          1201.91820	         7.49660e+57
          1202.72450	         6.97428e+57
          1203.53080	         1.47736e+58
          1204.33710	         8.22960e+57
          1205.14340	         7.20325e+57
          1205.94970	         1.03940e+58
          1206.75600	         9.39992e+57
          1207.56230	         7.31833e+57
          1208.36860	         8.92605e+57
          1209.17490	         5.53281e+57
          1209.98120	         8.07998e+57
          1210.78750	         1.42994e+58
          1211.59380	         1.66775e+58
          1212.40010	         2.14815e+58
          1213.20640	         1.88532e+58
          1214.01270	         1.82192e+58
          1214.81900	         2.35395e+58
          1215.62530	         4.08052e+58
          1216.43160	         8.84652e+58
          1217.23790	         1.52904e+59
          1218.04420	         1.19949e+59
          1218.85050	         8.89252e+58
          1219.65680	         5.52782e+58
          1220.46310	         3.32691e+58
          1221.26940	         2.26485e+58
          1222.07570	         1.10199e+58
          1222.88200	         1.13352e+58
          1223.68830	         1.07553e+58
          1224.49460	         7.39833e+57
          1225.30090	         8.21637e+57
          1226.10720	         7.15448e+57
          1226.91350	         6.93737e+57
          1227.71980	         8.57635e+57
          1228.52610	         1.01149e+58
          1229.33240	         7.36254e+57
          1230.13870	         9.42601e+57
          1230.94500	         1.01629e+58
          1231.75130	         5.75194e+57
          1232.55760	         9.29238e+57
          1233.36390	         1.03289e+58
          1234.17020	         6.79818e+57
          1234.97650	         7.24059e+57
          1235.78280	         8.02926e+57
          1236.58910	         1.04843e+58
          1237.39540	         1.01121e+58
          1238.20170	         1.00991e+58
          1239.00800	         1.37954e+58
          1239.81430	         1.52812e+58
          1240.62060	         1.13862e+58
          1241.42690	         8.94679e+57
          1242.23320	         9.72487e+57
          1243.03950	         6.90281e+57
          1243.84580	         7.43527e+57
          1244.65210	         9.40486e+57
          1245.45840	         1.06285e+58
          1246.26470	         1.28381e+58
          1247.07100	         9.55668e+57
          1247.87730	         8.15267e+57
          1248.68360	         5.36911e+57
          1249.48990	         6.66530e+57
          1250.29620	         8.92074e+57
          1251.10250	         6.76638e+57
          1251.90880	         5.17969e+57
          1252.71510	         5.28433e+57
          1253.52140	         4.63155e+57
          1254.32770	         7.51091e+57
          1255.13400	         1.28833e+58
          1255.94030	         1.16178e+58
          1256.74660	         1.04356e+58
          1257.55290	         1.06361e+58
          1258.35920	         7.75271e+57
          1259.16550	         6.45448e+57
          1259.97180	         5.67785e+57
          1260.77810	         9.69198e+57
          1261.58440	         1.18337e+58
          1262.39070	         8.45816e+57
          1263.19700	         7.56392e+57
          1264.00330	         8.35351e+57
          1264.80960	         1.10227e+58
          1265.61590	         1.36269e+58
          1266.42220	         1.34860e+58
          1267.22850	         1.14293e+58
          1268.03480	         1.29233e+58
          1268.84110	         1.27383e+58
          1269.64740	         1.34666e+58
          1270.45370	         1.54851e+58
          1271.26000	         1.26913e+58
          1272.06630	         1.16862e+58
          1272.87260	         1.19468e+58
          1273.67890	         1.23981e+58
          1274.48520	         1.22213e+58
          1275.29150	         1.17859e+58
          1276.09780	         1.16602e+58
          1276.90410	         1.54716e+58
          1277.71040	         1.41202e+58
          1278.51670	         1.23563e+58
          1279.32300	         1.25609e+58
          1280.12930	         1.05285e+58
          1280.93560	         1.06241e+58
          1281.74190	         1.43972e+58
          1282.54820	         1.47635e+58
          1283.35450	         1.19787e+58
          1284.16080	         1.33309e+58
          1284.96710	         1.69517e+58
          1285.77340	         1.18247e+58
          1286.57970	         9.36852e+57
          1287.38600	         1.37256e+58
          1288.19230	         1.79947e+58
          1288.99860	         1.71446e+58
          1289.80490	         1.10879e+58
          1290.61120	         1.09564e+58
          1291.41750	         1.34845e+58
          1292.22380	         1.12385e+58
          1293.03010	         1.02687e+58
          1293.83640	         1.19622e+58
          1294.64270	         1.12738e+58
          1295.44900	         8.99208e+57
          1296.25530	         1.07007e+58
          1297.06160	         1.25585e+58
          1297.86790	         1.07255e+58
          1298.67420	         8.73620e+57
          1299.48050	         8.38239e+57
          1300.28680	         9.82522e+57
          1301.09310	         8.79858e+57
          1301.89940	         4.72628e+57
          1302.70570	         5.87402e+57
          1303.51200	         8.79531e+57
          1304.31830	         9.90433e+57
          1305.12460	         9.38404e+57
          1305.93090	         9.76346e+57
          1306.73720	         1.21025e+58
          1307.54350	         1.51617e+58
          1308.34980	         1.58811e+58
          1309.15610	         1.58037e+58
          1309.96240	         1.77654e+58
          1310.76870	         1.42640e+58
          1311.57500	         1.32818e+58
          1312.38130	         1.45134e+58
          1313.18760	         1.49645e+58
          1313.99390	         1.54611e+58
          1314.80020	         1.61817e+58
          1315.60650	         1.65506e+58
          1316.41280	         1.26122e+58
          1317.21910	         1.07271e+58
          1318.02540	         1.21407e+58
          1318.83170	         1.46916e+58
          1319.63800	         1.50395e+58
          1320.44430	         1.26663e+58
          1321.25060	         1.37390e+58
          1322.05690	         1.29086e+58
          1322.86320	         1.18190e+58
          1323.66950	         1.04963e+58
          1324.47580	         9.77984e+57
          1325.28210	         1.17733e+58
          1326.08840	         1.29694e+58
          1326.89470	         1.27850e+58
          1327.70100	         1.00037e+58
          1328.50730	         7.84067e+57
          1329.31360	         8.77344e+57
          1330.11990	         8.90696e+57
          1330.92620	         9.19640e+57
          1331.73250	         1.11224e+58
          1332.53880	         1.15803e+58
          1333.34510	         1.02757e+58
          1334.15140	         7.83032e+57
          1334.95770	         7.37368e+57
          1335.76400	         9.79526e+57
          1336.57030	         1.08669e+58
          1337.37660	         1.07048e+58
          1338.18290	         1.13818e+58
          1338.98920	         1.08642e+58
          1339.79550	         1.08922e+58
          1340.60180	         1.22685e+58
          1341.40810	         1.44669e+58
          1342.21440	         1.26046e+58
          1343.02070	         1.16327e+58
          1343.82700	         1.42113e+58
          1344.63330	         1.66735e+58
          1345.43960	         1.46450e+58
          1346.24590	         1.08011e+58
          1347.05220	         1.19626e+58
          1347.85850	         1.07641e+58
          1348.66480	         1.18909e+58
          1349.47110	         1.27511e+58
          1350.27740	         1.17510e+58
          1351.08370	         1.26100e+58
          1351.89000	         1.26072e+58
          1352.69630	         1.13292e+58
          1353.50260	         1.12793e+58
          1354.30890	         1.18093e+58
          1355.11520	         1.15797e+58
          1355.92150	         9.96454e+57
          1356.72780	         1.01585e+58
          1357.53410	         9.98305e+57
          1358.34040	         9.64041e+57
          1359.14670	         9.91836e+57
          1359.95300	         1.01439e+58
          1360.75930	         1.09522e+58
          1361.56560	         1.15787e+58
          1362.37190	         1.14655e+58
          1363.17820	         1.10646e+58
          1363.98450	         1.16306e+58
          1364.79080	         1.38654e+58
          1365.59710	         1.41479e+58
          1366.40340	         1.16885e+58
          1367.20970	         9.28125e+57
          1368.01600	         8.30212e+57
          1368.82230	         9.44129e+57
          1369.62860	         1.19700e+58
          1370.43490	         1.07066e+58
          1371.24120	         9.84617e+57
          1372.04750	         8.84350e+57
          1372.85380	         9.98101e+57
          1373.66010	         1.25487e+58
          1374.46640	         1.20643e+58
          1375.27270	         1.11685e+58
          1376.07900	         9.66135e+57
          1376.88530	         9.01790e+57
          1377.69160	         8.70010e+57
          1378.49790	         7.57681e+57
          1379.30420	         8.52090e+57
          1380.11050	         1.06277e+58
          1380.91680	         1.02536e+58
          1381.72310	         9.11850e+57
          1382.52940	         9.04613e+57
          1383.33570	         9.19089e+57
          1384.14200	         1.12073e+58
          1384.94830	         1.34575e+58
          1385.75460	         1.17442e+58
          1386.56090	         1.12618e+58
          1387.36720	         1.08245e+58
          1388.17350	         1.25018e+58
          1388.97980	         1.20795e+58
          1389.78610	         9.88037e+57
          1390.59240	         8.45832e+57
          1391.39870	         7.24649e+57
          1392.20500	         8.25653e+57
          1393.01130	         7.43341e+57
          1393.81760	         7.08770e+57
          1394.62390	         8.35478e+57
          1395.43020	         6.08626e+57
          1396.23650	         5.88680e+57
          1397.04280	         9.04304e+57
          1397.84910	         1.02292e+58
          1398.65540	         8.75874e+57
          1399.46170	         1.01057e+58
          1400.26800	         9.37958e+57
          1401.07430	         8.53690e+57
          1401.88060	         8.49819e+57
          1402.68690	         1.07203e+58
          1403.49320	         1.06103e+58
          1404.29950	         9.09921e+57
          1405.10580	         1.01577e+58
          1405.91210	         1.12340e+58
          1406.71840	         1.14780e+58
          1407.52470	         1.08084e+58
          1408.33100	         1.04034e+58
          1409.13730	         1.19851e+58
          1409.94360	         1.18692e+58
          1410.74990	         1.23448e+58
          1411.55620	         1.05429e+58
          1412.36250	         9.23606e+57
          1413.16880	         8.89762e+57
          1413.97510	         7.86380e+57
          1414.78140	         8.27477e+57
          1415.58770	         1.05037e+58
          1416.39400	         1.03267e+58
          1417.20030	         1.10961e+58
          1418.00660	         1.15341e+58
          1418.81290	         1.13765e+58
          1419.61920	         1.22304e+58
          1420.42550	         1.30303e+58
          1421.23180	         1.34621e+58
          1422.03810	         1.23238e+58
          1422.84440	         1.16841e+58
          1423.65070	         1.29059e+58
          1424.45700	         1.15789e+58
          1425.26330	         8.99559e+57
          1426.06960	         8.08323e+57
          1426.87590	         9.21978e+57
          1427.68220	         9.84013e+57
          1428.48850	         1.03561e+58
          1429.29480	         1.02341e+58
          1430.10110	         9.84617e+57
          1430.90740	         9.02350e+57
          1431.71370	         8.40979e+57
          1432.52000	         9.52783e+57
          1433.32630	         8.54215e+57
          1434.13260	         8.33429e+57
          1434.93890	         8.56891e+57
          1435.74520	         9.62177e+57
          1436.55150	         9.68788e+57
          1437.35780	         8.46746e+57
          1438.16410	         8.40359e+57
          1438.97040	         9.07545e+57
          1439.77670	         8.90494e+57
          1440.58300	         8.78287e+57
          1441.38930	         9.60333e+57
          1442.19560	         9.82048e+57
          1443.00190	         9.59342e+57
          1443.80820	         1.04719e+58
          1444.61450	         9.85637e+57
          1445.42080	         9.84325e+57
          1446.22710	         1.10063e+58
          1447.03340	         1.10536e+58
          1447.83970	         1.28525e+58
          1448.64600	         1.20277e+58
          1449.45230	         1.04748e+58
          1450.25860	         1.00515e+58
          1451.06490	         8.55496e+57
          1451.87120	         7.83823e+57
          1452.67750	         7.83678e+57
          1453.48380	         9.14306e+57
          1454.29010	         7.13539e+57
          1455.09640	         6.85085e+57
          1455.90270	         8.95149e+57
          1456.70900	         7.57255e+57
          1457.51530	         9.05907e+57
          1458.32160	         1.25509e+58
          1459.12790	         1.16800e+58
          1459.93420	         1.02283e+58
          1460.74050	         8.32293e+57
          1461.54680	         8.17250e+57
          1462.35310	         7.89476e+57
          1463.15940	         1.01021e+58
          1463.96570	         1.19770e+58
          1464.77200	         1.22530e+58
          1465.57830	         1.11882e+58
          1466.38460	         9.28162e+57
          1467.19090	         9.02854e+57
          1467.99720	         9.56942e+57
          1468.80350	         9.17726e+57
          1469.60980	         8.89407e+57
          1470.41610	         9.95060e+57
          1471.22240	         9.82249e+57
          1472.02870	         1.03266e+58
          1472.83500	         1.00185e+58
          1473.64130	         9.90245e+57
          1474.44760	         9.84581e+57
          1475.25390	         9.47375e+57
          1476.06020	         9.18554e+57
          1476.86650	         8.14750e+57
          1477.67280	         7.90731e+57
          1478.47910	         7.13651e+57
          1479.28540	         7.21648e+57
          1480.09170	         8.84645e+57
          1480.89800	         8.47685e+57
          1481.70430	         8.48888e+57
          1482.51060	         8.32473e+57
          1483.31690	         8.78124e+57
          1484.12320	         8.55213e+57
          1484.92950	         8.03644e+57
          1485.73580	         9.23676e+57
          1486.54210	         9.43520e+57
          1487.34840	         8.44995e+57
          1488.15470	         8.00405e+57
          1488.96100	         8.56828e+57
          1489.76730	         9.52919e+57
