#sample_81_stacked_spectrum_rest_UV-bands_median_H-alpha_noDC.txt
#median Lum: 1.69148e+42
#Rest-frame wavelength (A) | Luminosity (erg/s/A)
#
          1110.00000	         0.00000e+00
          1110.80630	         2.43353e+59
          1111.61260	         4.35858e+59
          1112.41890	        -5.26599e+58
          1113.22520	         1.64371e+58
          1114.03150	        -7.78441e+58
          1114.83780	         2.57859e+59
          1115.64410	         1.56513e+59
          1116.45040	         9.83161e+58
          1117.25670	        -2.36242e+58
          1118.06300	        -2.61725e+58
          1118.86930	        -3.09242e+57
          1119.67560	         4.64636e+58
          1120.48190	        -2.49065e+56
          1121.28820	        -1.15565e+59
          1122.09450	        -2.26941e+58
          1122.90080	         6.96325e+58
          1123.70710	         1.03443e+59
          1124.51340	         1.17094e+59
          1125.31970	         1.43493e+58
          1126.12600	        -2.60672e+58
          1126.93230	        -3.90496e+58
          1127.73860	        -4.82726e+58
          1128.54490	         6.84760e+58
          1129.35120	         4.88829e+58
          1130.15750	        -4.99452e+58
          1130.96380	        -2.01764e+58
          1131.77010	         7.19372e+58
          1132.57640	         4.84539e+58
          1133.38270	         1.80511e+58
          1134.18900	         2.16141e+58
          1134.99530	         3.51398e+58
          1135.80160	         7.07600e+57
          1136.60790	         3.15446e+57
          1137.41420	        -1.94148e+58
          1138.22050	         2.96858e+58
          1139.02680	         3.88609e+58
          1139.83310	         2.70551e+58
          1140.63940	         5.44243e+57
          1141.44570	        -8.03127e+57
          1142.25200	         4.29378e+57
          1143.05830	         2.55787e+58
          1143.86460	         3.03287e+58
          1144.67090	         1.20891e+58
          1145.47720	        -1.55502e+57
          1146.28350	         8.34330e+57
          1147.08980	         1.37605e+58
          1147.89610	         1.43667e+58
          1148.70240	         2.58595e+58
          1149.50870	         2.84305e+58
          1150.31500	         1.53517e+58
          1151.12130	        -1.99323e+57
          1151.92760	         2.71384e+57
          1152.73390	         1.66455e+57
          1153.54020	        -4.59773e+57
          1154.34650	         1.53723e+58
          1155.15280	         1.16815e+58
          1155.95910	         6.95472e+57
          1156.76540	         9.63168e+57
          1157.57170	        -5.21761e+57
          1158.37800	        -1.96472e+57
          1159.18430	         2.70760e+57
          1159.99060	         6.77669e+57
          1160.79690	         7.07523e+56
          1161.60320	         1.40758e+58
          1162.40950	         1.28198e+58
          1163.21580	         3.27727e+58
          1164.02210	         4.10113e+57
          1164.82840	         8.00841e+57
          1165.63470	         1.83909e+58
          1166.44100	         2.69060e+58
          1167.24730	         2.07246e+58
          1168.05360	         1.15736e+58
          1168.85990	         4.07174e+57
          1169.66620	         6.68393e+57
          1170.47250	         7.14549e+57
          1171.27880	         6.49806e+57
          1172.08510	         1.54365e+58
          1172.89140	         9.50574e+57
          1173.69770	         6.30078e+57
          1174.50400	         1.13412e+58
          1175.31030	         1.82419e+58
          1176.11660	         1.33338e+58
          1176.92290	         1.47138e+58
          1177.72920	         9.76269e+57
          1178.53550	         7.54213e+57
          1179.34180	         2.26258e+56
          1180.14810	         1.17814e+57
          1180.95440	         7.71467e+57
          1181.76070	         5.56293e+57
          1182.56700	         7.58306e+57
          1183.37330	         7.03625e+57
          1184.17960	         1.12115e+58
          1184.98590	         1.00673e+58
          1185.79220	         9.43734e+57
          1186.59850	         1.66603e+58
          1187.40480	         1.40677e+58
          1188.21110	         9.88072e+57
          1189.01740	         5.34529e+57
          1189.82370	         7.77909e+57
          1190.63000	         1.25678e+58
          1191.43630	         1.64604e+58
          1192.24260	         8.61950e+57
          1193.04890	         7.52916e+57
          1193.85520	         1.29631e+58
          1194.66150	         4.46238e+57
          1195.46780	         1.22950e+58
          1196.27410	         1.54951e+58
          1197.08040	         1.03576e+58
          1197.88670	         1.19089e+58
          1198.69300	         1.42679e+58
          1199.49930	         2.02673e+58
          1200.30560	         1.01898e+58
          1201.11190	         6.73501e+57
          1201.91820	         1.02926e+58
          1202.72450	         7.97280e+57
          1203.53080	         1.31999e+58
          1204.33710	         8.18242e+57
          1205.14340	         5.23981e+57
          1205.94970	         5.22439e+57
          1206.75600	         7.81377e+57
          1207.56230	         5.84756e+57
          1208.36860	         4.43871e+57
          1209.17490	         4.86901e+57
          1209.98120	         4.94442e+57
          1210.78750	         5.20862e+57
          1211.59380	         1.29362e+58
          1212.40010	         2.02336e+58
          1213.20640	         1.86539e+58
          1214.01270	         2.22029e+58
          1214.81900	         3.03017e+58
          1215.62530	         4.70134e+58
          1216.43160	         9.03783e+58
          1217.23790	         1.50642e+59
          1218.04420	         1.11934e+59
          1218.85050	         8.13988e+58
          1219.65680	         5.33076e+58
          1220.46310	         3.19346e+58
          1221.26940	         2.21356e+58
          1222.07570	         1.17826e+58
          1222.88200	         8.57214e+57
          1223.68830	         9.77154e+57
          1224.49460	         9.29184e+57
          1225.30090	         6.23182e+57
          1226.10720	         4.56893e+57
          1226.91350	         5.57711e+57
          1227.71980	         7.66101e+57
          1228.52610	         1.07165e+58
          1229.33240	         7.55536e+57
          1230.13870	         5.69756e+57
          1230.94500	         6.34529e+57
          1231.75130	         7.77757e+57
          1232.55760	         9.80050e+57
          1233.36390	         9.01994e+57
          1234.17020	         8.01196e+57
          1234.97650	         6.60572e+57
          1235.78280	         1.05234e+58
          1236.58910	         1.12220e+58
          1237.39540	         8.91966e+57
          1238.20170	         9.64841e+57
          1239.00800	         1.35072e+58
          1239.81430	         1.47454e+58
          1240.62060	         8.95129e+57
          1241.42690	         1.03791e+58
          1242.23320	         1.39859e+58
          1243.03950	         1.07886e+58
          1243.84580	         8.03692e+57
          1244.65210	         8.83556e+57
          1245.45840	         8.48089e+57
          1246.26470	         6.53586e+57
          1247.07100	         7.01994e+57
          1247.87730	         7.22987e+57
          1248.68360	         4.25845e+57
          1249.48990	         3.00285e+57
          1250.29620	         6.42186e+57
          1251.10250	         6.33736e+57
          1251.90880	         3.24645e+57
          1252.71510	         2.53452e+57
          1253.52140	         6.61151e+57
          1254.32770	         1.23984e+58
          1255.13400	         1.35112e+58
          1255.94030	         1.18830e+58
          1256.74660	         1.11604e+58
          1257.55290	         9.18253e+57
          1258.35920	         6.29765e+57
          1259.16550	         3.46922e+57
          1259.97180	         5.39780e+57
          1260.77810	         7.78273e+57
          1261.58440	         9.06990e+57
          1262.39070	         6.61635e+57
          1263.19700	         7.76793e+57
          1264.00330	         1.03308e+58
          1264.80960	         1.38543e+58
          1265.61590	         1.42217e+58
          1266.42220	         1.15300e+58
          1267.22850	         9.56990e+57
          1268.03480	         1.31982e+58
          1268.84110	         1.63074e+58
          1269.64740	         1.47617e+58
          1270.45370	         1.21195e+58
          1271.26000	         1.02892e+58
          1272.06630	         1.14440e+58
          1272.87260	         1.09640e+58
          1273.67890	         1.12242e+58
          1274.48520	         1.23108e+58
          1275.29150	         1.35756e+58
          1276.09780	         1.20553e+58
          1276.90410	         1.51698e+58
          1277.71040	         1.38709e+58
          1278.51670	         1.31184e+58
          1279.32300	         1.31676e+58
          1280.12930	         1.09753e+58
          1280.93560	         7.79312e+57
          1281.74190	         1.06023e+58
          1282.54820	         1.18208e+58
          1283.35450	         8.96473e+57
          1284.16080	         9.07530e+57
          1284.96710	         1.17139e+58
          1285.77340	         1.02047e+58
          1286.57970	         1.11628e+58
          1287.38600	         1.57173e+58
          1288.19230	         1.66911e+58
          1288.99860	         1.61617e+58
          1289.80490	         1.29055e+58
          1290.61120	         1.36344e+58
          1291.41750	         1.51256e+58
          1292.22380	         1.34478e+58
          1293.03010	         1.03384e+58
          1293.83640	         1.07944e+58
          1294.64270	         1.07250e+58
          1295.44900	         6.16305e+57
          1296.25530	         7.04522e+57
          1297.06160	         1.01186e+58
          1297.86790	         1.11100e+58
          1298.67420	         7.59356e+57
          1299.48050	         7.52637e+57
          1300.28680	         9.19103e+57
          1301.09310	         8.93695e+57
          1301.89940	         4.27391e+57
          1302.70570	         5.71944e+57
          1303.51200	         8.60852e+57
          1304.31830	         8.71182e+57
          1305.12460	         9.98101e+57
          1305.93090	         1.04183e+58
          1306.73720	         1.05642e+58
          1307.54350	         1.37744e+58
          1308.34980	         1.55248e+58
          1309.15610	         1.57419e+58
          1309.96240	         1.56581e+58
          1310.76870	         1.27025e+58
          1311.57500	         1.20093e+58
          1312.38130	         1.25149e+58
          1313.18760	         1.24226e+58
          1313.99390	         1.47210e+58
          1314.80020	         1.44631e+58
          1315.60650	         1.32012e+58
          1316.41280	         1.16478e+58
          1317.21910	         1.18817e+58
          1318.02540	         1.36582e+58
          1318.83170	         1.34153e+58
          1319.63800	         1.14698e+58
          1320.44430	         1.24082e+58
          1321.25060	         1.31671e+58
          1322.05690	         1.19702e+58
          1322.86320	         1.31420e+58
          1323.66950	         1.23675e+58
          1324.47580	         1.02013e+58
          1325.28210	         8.46452e+57
          1326.08840	         8.82569e+57
          1326.89470	         1.19616e+58
          1327.70100	         1.16061e+58
          1328.50730	         7.90088e+57
          1329.31360	         7.88420e+57
          1330.11990	         9.12840e+57
          1330.92620	         7.80116e+57
          1331.73250	         1.05086e+58
          1332.53880	         1.06909e+58
          1333.34510	         8.41337e+57
          1334.15140	         8.61589e+57
          1334.95770	         9.16055e+57
          1335.76400	         8.88963e+57
          1336.57030	         8.96572e+57
          1337.37660	         9.81280e+57
          1338.18290	         1.02168e+58
          1338.98920	         1.01649e+58
          1339.79550	         1.05278e+58
          1340.60180	         1.07304e+58
          1341.40810	         1.19579e+58
          1342.21440	         1.27904e+58
          1343.02070	         1.26850e+58
          1343.82700	         1.46002e+58
          1344.63330	         1.37234e+58
          1345.43960	         1.16783e+58
          1346.24590	         9.25520e+57
          1347.05220	         9.24729e+57
          1347.85850	         9.58819e+57
          1348.66480	         1.11974e+58
          1349.47110	         1.22151e+58
          1350.27740	         1.02882e+58
          1351.08370	         1.11400e+58
          1351.89000	         1.22660e+58
          1352.69630	         1.16542e+58
          1353.50260	         1.20998e+58
          1354.30890	         1.22477e+58
          1355.11520	         1.16596e+58
          1355.92150	         1.03837e+58
          1356.72780	         9.59253e+57
          1357.53410	         1.14387e+58
          1358.34040	         1.15719e+58
          1359.14670	         9.39910e+57
          1359.95300	         1.12687e+58
          1360.75930	         1.22188e+58
          1361.56560	         1.10875e+58
          1362.37190	         1.09795e+58
          1363.17820	         1.02254e+58
          1363.98450	         1.13749e+58
          1364.79080	         1.24735e+58
          1365.59710	         1.19724e+58
          1366.40340	         1.02630e+58
          1367.20970	         9.44209e+57
          1368.01600	         9.44200e+57
          1368.82230	         8.77266e+57
          1369.62860	         9.78217e+57
          1370.43490	         8.75445e+57
          1371.24120	         8.17360e+57
          1372.04750	         7.60256e+57
          1372.85380	         1.08985e+58
          1373.66010	         1.16886e+58
          1374.46640	         1.17259e+58
          1375.27270	         1.08854e+58
          1376.07900	         8.60410e+57
          1376.88530	         7.02006e+57
          1377.69160	         7.71630e+57
          1378.49790	         8.03976e+57
          1379.30420	         8.08807e+57
          1380.11050	         1.00986e+58
          1380.91680	         1.07907e+58
          1381.72310	         9.15778e+57
          1382.52940	         9.25775e+57
          1383.33570	         8.80724e+57
          1384.14200	         9.56239e+57
          1384.94830	         1.20349e+58
          1385.75460	         1.03228e+58
          1386.56090	         8.02320e+57
          1387.36720	         1.02969e+58
          1388.17350	         1.36699e+58
          1388.97980	         1.02145e+58
          1389.78610	         8.07426e+57
          1390.59240	         8.56045e+57
          1391.39870	         8.71912e+57
          1392.20500	         8.87727e+57
          1393.01130	         8.02663e+57
          1393.81760	         7.57273e+57
          1394.62390	         7.39739e+57
          1395.43020	         6.47805e+57
          1396.23650	         6.50067e+57
          1397.04280	         7.04044e+57
          1397.84910	         9.05563e+57
          1398.65540	         1.02597e+58
          1399.46170	         9.57073e+57
          1400.26800	         8.24744e+57
          1401.07430	         7.97717e+57
          1401.88060	         7.74036e+57
          1402.68690	         8.99700e+57
          1403.49320	         1.03172e+58
          1404.29950	         9.17310e+57
          1405.10580	         1.08883e+58
          1405.91210	         1.23241e+58
          1406.71840	         1.21010e+58
          1407.52470	         1.12606e+58
          1408.33100	         1.05163e+58
          1409.13730	         1.17169e+58
          1409.94360	         1.17144e+58
          1410.74990	         1.15242e+58
          1411.55620	         9.35168e+57
          1412.36250	         8.47750e+57
          1413.16880	         9.23333e+57
          1413.97510	         9.40254e+57
          1414.78140	         8.71179e+57
          1415.58770	         8.71130e+57
          1416.39400	         1.01685e+58
          1417.20030	         1.15648e+58
          1418.00660	         1.08343e+58
          1418.81290	         1.13483e+58
          1419.61920	         1.11753e+58
          1420.42550	         1.07249e+58
          1421.23180	         1.29461e+58
          1422.03810	         1.31304e+58
          1422.84440	         1.15050e+58
          1423.65070	         1.13410e+58
          1424.45700	         1.06033e+58
          1425.26330	         8.28149e+57
          1426.06960	         7.05912e+57
          1426.87590	         9.41075e+57
          1427.68220	         1.06468e+58
          1428.48850	         1.12175e+58
          1429.29480	         1.04731e+58
          1430.10110	         9.22883e+57
          1430.90740	         8.92910e+57
          1431.71370	         9.91925e+57
          1432.52000	         9.01445e+57
          1433.32630	         7.34490e+57
          1434.13260	         7.15703e+57
          1434.93890	         8.03061e+57
          1435.74520	         9.35098e+57
          1436.55150	         9.68964e+57
          1437.35780	         9.18118e+57
          1438.16410	         9.47709e+57
          1438.97040	         9.09625e+57
          1439.77670	         8.26609e+57
          1440.58300	         9.00820e+57
          1441.38930	         9.27340e+57
          1442.19560	         8.86041e+57
          1443.00190	         9.22506e+57
          1443.80820	         1.05221e+58
          1444.61450	         9.47910e+57
          1445.42080	         8.67363e+57
          1446.22710	         1.00684e+58
          1447.03340	         1.00299e+58
          1447.83970	         1.06446e+58
          1448.64600	         1.06163e+58
          1449.45230	         9.49453e+57
          1450.25860	         1.00646e+58
          1451.06490	         8.54317e+57
          1451.87120	         7.78014e+57
          1452.67750	         7.59757e+57
          1453.48380	         9.41939e+57
          1454.29010	         8.41376e+57
          1455.09640	         8.11712e+57
          1455.90270	         8.98334e+57
          1456.70900	         8.98176e+57
          1457.51530	         9.90805e+57
          1458.32160	         1.22740e+58
          1459.12790	         1.21556e+58
          1459.93420	         1.03049e+58
          1460.74050	         7.72170e+57
          1461.54680	         6.90036e+57
          1462.35310	         7.19913e+57
          1463.15940	         1.04033e+58
          1463.96570	         1.22600e+58
          1464.77200	         1.19067e+58
          1465.57830	         1.12128e+58
          1466.38460	         1.05402e+58
          1467.19090	         8.66869e+57
          1467.99720	         8.38052e+57
          1468.80350	         8.07828e+57
          1469.60980	         9.38003e+57
          1470.41610	         1.04638e+58
          1471.22240	         9.16772e+57
          1472.02870	         9.24893e+57
          1472.83500	         9.65858e+57
          1473.64130	         1.03961e+58
          1474.44760	         9.32903e+57
          1475.25390	         8.92857e+57
          1476.06020	         9.45948e+57
          1476.86650	         8.92064e+57
          1477.67280	         7.11158e+57
          1478.47910	         6.70498e+57
          1479.28540	         7.72874e+57
          1480.09170	         8.47567e+57
          1480.89800	         8.05286e+57
          1481.70430	         8.15320e+57
          1482.51060	         7.85763e+57
          1483.31690	         7.26102e+57
          1484.12320	         7.90100e+57
          1484.92950	         7.70304e+57
          1485.73580	         6.83942e+57
          1486.54210	         7.60710e+57
          1487.34840	         8.65697e+57
          1488.15470	         8.83797e+57
          1488.96100	         8.43518e+57
          1489.76730	         8.98099e+57
