#sample_16_stacked_spectrum_rest_UV-bands_median_H-alpha_noDC.txt
#median Lum: 1.69849e+42
#Rest-frame wavelength (A) | Luminosity (erg/s/A)
#
          1110.00000	         0.00000e+00
          1110.80630	        -1.29925e+59
          1111.61260	         1.40640e+59
          1112.41890	         4.45147e+58
          1113.22520	        -1.17878e+59
          1114.03150	        -1.89323e+59
          1114.83780	        -7.44725e+58
          1115.64410	         9.72386e+58
          1116.45040	         1.69462e+59
          1117.25670	        -1.32040e+59
          1118.06300	         6.74610e+58
          1118.86930	         1.29153e+59
          1119.67560	         9.97190e+58
          1120.48190	         3.88193e+58
          1121.28820	        -4.33671e+58
          1122.09450	         4.23925e+58
          1122.90080	         7.20828e+58
          1123.70710	         6.17535e+58
          1124.51340	         5.82207e+58
          1125.31970	        -1.93371e+58
          1126.12600	         7.63457e+57
          1126.93230	        -3.22600e+58
          1127.73860	        -3.68345e+58
          1128.54490	         4.54591e+58
          1129.35120	         3.14603e+58
          1130.15750	        -4.55983e+57
          1130.96380	         1.82133e+57
          1131.77010	         5.83158e+58
          1132.57640	         6.50771e+58
          1133.38270	         4.82100e+58
          1134.18900	         4.91603e+56
          1134.99530	         1.64870e+58
          1135.80160	         1.10075e+58
          1136.60790	         9.29349e+57
          1137.41420	         1.78971e+58
          1138.22050	         5.95030e+58
          1139.02680	         4.28458e+58
          1139.83310	         3.32486e+58
          1140.63940	         3.46539e+58
          1141.44570	         1.56027e+58
          1142.25200	         6.45150e+57
          1143.05830	         5.71746e+57
          1143.86460	        -1.18291e+57
          1144.67090	         1.00741e+58
          1145.47720	         1.94801e+58
          1146.28350	         2.08416e+58
          1147.08980	         8.89983e+57
          1147.89610	         1.66985e+58
          1148.70240	         2.59704e+58
          1149.50870	         2.75169e+58
          1150.31500	         7.11513e+57
          1151.12130	         1.32910e+58
          1151.92760	         1.12403e+58
          1152.73390	         8.67267e+57
          1153.54020	        -2.62369e+57
          1154.34650	         1.63340e+58
          1155.15280	         2.01963e+58
          1155.95910	         5.35805e+57
          1156.76540	         2.79819e+57
          1157.57170	        -3.09481e+57
          1158.37800	        -6.79888e+57
          1159.18430	         3.65629e+56
          1159.99060	         8.40285e+57
          1160.79690	         2.47771e+57
          1161.60320	         1.49051e+58
          1162.40950	         1.56077e+58
          1163.21580	         2.18961e+58
          1164.02210	         1.52266e+58
          1164.82840	         1.19612e+58
          1165.63470	         2.49192e+58
          1166.44100	         3.11824e+58
          1167.24730	         2.05455e+58
          1168.05360	         1.10404e+58
          1168.85990	         1.21980e+58
          1169.66620	         1.06260e+58
          1170.47250	         1.23551e+58
          1171.27880	         6.60202e+57
          1172.08510	         1.34338e+58
          1172.89140	         1.67958e+58
          1173.69770	         1.26322e+58
          1174.50400	         1.38214e+58
          1175.31030	         1.72470e+58
          1176.11660	         1.81093e+58
          1176.92290	         1.30848e+58
          1177.72920	         1.06997e+58
          1178.53550	         6.07877e+57
          1179.34180	         2.41396e+57
          1180.14810	         1.00445e+58
          1180.95440	         8.80672e+57
          1181.76070	         6.57967e+57
          1182.56700	         1.01838e+58
          1183.37330	         1.01843e+58
          1184.17960	         1.29920e+58
          1184.98590	         1.23308e+58
          1185.79220	         1.08472e+58
          1186.59850	         1.29296e+58
          1187.40480	         9.64223e+57
          1188.21110	         1.54662e+58
          1189.01740	         1.37450e+58
          1189.82370	         1.74479e+58
          1190.63000	         2.00887e+58
          1191.43630	         1.15356e+58
          1192.24260	         3.53723e+57
          1193.04890	         1.07826e+58
          1193.85520	         1.43209e+58
          1194.66150	         1.07300e+58
          1195.46780	         1.01278e+58
          1196.27410	         1.43166e+58
          1197.08040	         1.14039e+58
          1197.88670	         1.01328e+58
          1198.69300	         1.27413e+58
          1199.49930	         1.25264e+58
          1200.30560	         1.50036e+58
          1201.11190	         1.64233e+58
          1201.91820	         1.20351e+58
          1202.72450	         8.24472e+57
          1203.53080	         1.67775e+58
          1204.33710	         8.14245e+57
          1205.14340	         5.84101e+57
          1205.94970	         6.97576e+57
          1206.75600	         6.45653e+57
          1207.56230	         7.71226e+57
          1208.36860	         7.51725e+57
          1209.17490	         2.96131e+57
          1209.98120	         3.61837e+57
          1210.78750	         5.83335e+57
          1211.59380	         8.70578e+57
          1212.40010	         1.44680e+58
          1213.20640	         1.66423e+58
          1214.01270	         2.04147e+58
          1214.81900	         2.78126e+58
          1215.62530	         4.65869e+58
          1216.43160	         9.35691e+58
          1217.23790	         1.55151e+59
          1218.04420	         1.16856e+59
          1218.85050	         8.62458e+58
          1219.65680	         5.83714e+58
          1220.46310	         3.50704e+58
          1221.26940	         2.40649e+58
          1222.07570	         1.41579e+58
          1222.88200	         1.10859e+58
          1223.68830	         1.21711e+58
          1224.49460	         8.51194e+57
          1225.30090	         6.11306e+57
          1226.10720	         5.67527e+57
          1226.91350	         4.32576e+57
          1227.71980	         8.42939e+57
          1228.52610	         1.18233e+58
          1229.33240	         7.86190e+57
          1230.13870	         6.93020e+57
          1230.94500	         5.99005e+57
          1231.75130	         5.11722e+57
          1232.55760	         7.53276e+57
          1233.36390	         1.05911e+58
          1234.17020	         9.89447e+57
          1234.97650	         7.83424e+57
          1235.78280	         1.01167e+58
          1236.58910	         9.57496e+57
          1237.39540	         1.00677e+58
          1238.20170	         1.14997e+58
          1239.00800	         1.31299e+58
          1239.81430	         1.47494e+58
          1240.62060	         1.06659e+58
          1241.42690	         1.13265e+58
          1242.23320	         1.46829e+58
          1243.03950	         1.12285e+58
          1243.84580	         9.81698e+57
          1244.65210	         9.55914e+57
          1245.45840	         9.51676e+57
          1246.26470	         1.03766e+58
          1247.07100	         7.39944e+57
          1247.87730	         4.76715e+57
          1248.68360	         1.81660e+57
          1249.48990	         6.14627e+57
          1250.29620	         1.03037e+58
          1251.10250	         1.14159e+58
          1251.90880	         7.54638e+57
          1252.71510	         3.50266e+57
          1253.52140	         4.93777e+57
          1254.32770	         8.73787e+57
          1255.13400	         1.32482e+58
          1255.94030	         1.27453e+58
          1256.74660	         1.11869e+58
          1257.55290	         1.10767e+58
          1258.35920	         6.86046e+57
          1259.16550	         4.14883e+57
          1259.97180	         3.31692e+57
          1260.77810	         7.99157e+57
          1261.58440	         1.01440e+58
          1262.39070	         5.92798e+57
          1263.19700	         8.13775e+57
          1264.00330	         8.24798e+57
          1264.80960	         9.00081e+57
          1265.61590	         1.34135e+58
          1266.42220	         1.36047e+58
          1267.22850	         1.06511e+58
          1268.03480	         1.37794e+58
          1268.84110	         1.54428e+58
          1269.64740	         1.21470e+58
          1270.45370	         1.17849e+58
          1271.26000	         1.09680e+58
          1272.06630	         1.20636e+58
          1272.87260	         1.31917e+58
          1273.67890	         1.13145e+58
          1274.48520	         1.21406e+58
          1275.29150	         1.33532e+58
          1276.09780	         1.08710e+58
          1276.90410	         1.29314e+58
          1277.71040	         1.22438e+58
          1278.51670	         1.06481e+58
          1279.32300	         1.35877e+58
          1280.12930	         1.09549e+58
          1280.93560	         8.43394e+57
          1281.74190	         9.90281e+57
          1282.54820	         1.30062e+58
          1283.35450	         1.10074e+58
          1284.16080	         1.12595e+58
          1284.96710	         1.36601e+58
          1285.77340	         1.33619e+58
          1286.57970	         1.23384e+58
          1287.38600	         1.46166e+58
          1288.19230	         1.88038e+58
          1288.99860	         1.50794e+58
          1289.80490	         9.89345e+57
          1290.61120	         1.24641e+58
          1291.41750	         1.44822e+58
          1292.22380	         1.11058e+58
          1293.03010	         1.06325e+58
          1293.83640	         1.12238e+58
          1294.64270	         1.03227e+58
          1295.44900	         6.90808e+57
          1296.25530	         6.56636e+57
          1297.06160	         8.72141e+57
          1297.86790	         8.57771e+57
          1298.67420	         1.00300e+58
          1299.48050	         1.13550e+58
          1300.28680	         1.19850e+58
          1301.09310	         9.78533e+57
          1301.89940	         3.82705e+57
          1302.70570	         4.93421e+57
          1303.51200	         8.02905e+57
          1304.31830	         1.11928e+58
          1305.12460	         1.17164e+58
          1305.93090	         1.10412e+58
          1306.73720	         1.34891e+58
          1307.54350	         1.49633e+58
          1308.34980	         1.57038e+58
          1309.15610	         1.56390e+58
          1309.96240	         1.34790e+58
          1310.76870	         1.03698e+58
          1311.57500	         1.08280e+58
          1312.38130	         1.23453e+58
          1313.18760	         1.23557e+58
          1313.99390	         1.50685e+58
          1314.80020	         1.77170e+58
          1315.60650	         1.48754e+58
          1316.41280	         1.20083e+58
          1317.21910	         1.05667e+58
          1318.02540	         1.00829e+58
          1318.83170	         1.25128e+58
          1319.63800	         1.08331e+58
          1320.44430	         1.04664e+58
          1321.25060	         1.35473e+58
          1322.05690	         1.40994e+58
          1322.86320	         1.31776e+58
          1323.66950	         1.04240e+58
          1324.47580	         1.03180e+58
          1325.28210	         1.08761e+58
          1326.08840	         1.09815e+58
          1326.89470	         1.31369e+58
          1327.70100	         1.08035e+58
          1328.50730	         8.24778e+57
          1329.31360	         9.96377e+57
          1330.11990	         9.15782e+57
          1330.92620	         8.19254e+57
          1331.73250	         1.02838e+58
          1332.53880	         9.86473e+57
          1333.34510	         8.98387e+57
          1334.15140	         8.48126e+57
          1334.95770	         8.29799e+57
          1335.76400	         9.53121e+57
          1336.57030	         9.86760e+57
          1337.37660	         1.04909e+58
          1338.18290	         1.03312e+58
          1338.98920	         1.07802e+58
          1339.79550	         1.09287e+58
          1340.60180	         1.09080e+58
          1341.40810	         1.35751e+58
          1342.21440	         1.17242e+58
          1343.02070	         1.18771e+58
          1343.82700	         1.41037e+58
          1344.63330	         1.33175e+58
          1345.43960	         1.29529e+58
          1346.24590	         1.18026e+58
          1347.05220	         1.20071e+58
          1347.85850	         1.03060e+58
          1348.66480	         1.14607e+58
          1349.47110	         1.21439e+58
          1350.27740	         1.13632e+58
          1351.08370	         1.05433e+58
          1351.89000	         1.04210e+58
          1352.69630	         1.11301e+58
          1353.50260	         1.20526e+58
          1354.30890	         1.27915e+58
          1355.11520	         1.16001e+58
          1355.92150	         1.11421e+58
          1356.72780	         1.05039e+58
          1357.53410	         9.87014e+57
          1358.34040	         1.05024e+58
          1359.14670	         1.10042e+58
          1359.95300	         1.27032e+58
          1360.75930	         1.34530e+58
          1361.56560	         1.18624e+58
          1362.37190	         1.15754e+58
          1363.17820	         1.11136e+58
          1363.98450	         1.25421e+58
          1364.79080	         1.25877e+58
          1365.59710	         1.23311e+58
          1366.40340	         1.23354e+58
          1367.20970	         1.16976e+58
          1368.01600	         1.08709e+58
          1368.82230	         8.91617e+57
          1369.62860	         9.44450e+57
          1370.43490	         8.86804e+57
          1371.24120	         8.84455e+57
          1372.04750	         7.82231e+57
          1372.85380	         1.08390e+58
          1373.66010	         1.23295e+58
          1374.46640	         1.18164e+58
          1375.27270	         1.12392e+58
          1376.07900	         9.15903e+57
          1376.88530	         8.70775e+57
          1377.69160	         8.79347e+57
          1378.49790	         7.79110e+57
          1379.30420	         8.42736e+57
          1380.11050	         1.08100e+58
          1380.91680	         9.21326e+57
          1381.72310	         8.51850e+57
          1382.52940	         9.29052e+57
          1383.33570	         7.34202e+57
          1384.14200	         1.04219e+58
          1384.94830	         1.26362e+58
          1385.75460	         1.25903e+58
          1386.56090	         1.27591e+58
          1387.36720	         1.17904e+58
          1388.17350	         1.40882e+58
          1388.97980	         1.20069e+58
          1389.78610	         9.60135e+57
          1390.59240	         8.87323e+57
          1391.39870	         7.95205e+57
          1392.20500	         8.29591e+57
          1393.01130	         7.47451e+57
          1393.81760	         7.02713e+57
          1394.62390	         8.44288e+57
          1395.43020	         7.62927e+57
          1396.23650	         6.89026e+57
          1397.04280	         7.58404e+57
          1397.84910	         9.23604e+57
          1398.65540	         1.02096e+58
          1399.46170	         1.08927e+58
          1400.26800	         8.08058e+57
          1401.07430	         6.71666e+57
          1401.88060	         7.89502e+57
          1402.68690	         9.71239e+57
          1403.49320	         9.56018e+57
          1404.29950	         9.28851e+57
          1405.10580	         1.06344e+58
          1405.91210	         1.07260e+58
          1406.71840	         1.05306e+58
          1407.52470	         1.01945e+58
          1408.33100	         9.60695e+57
          1409.13730	         1.12538e+58
          1409.94360	         1.16734e+58
          1410.74990	         1.25377e+58
          1411.55620	         1.16048e+58
          1412.36250	         9.93409e+57
          1413.16880	         8.08610e+57
          1413.97510	         5.99534e+57
          1414.78140	         7.45301e+57
          1415.58770	         9.66686e+57
          1416.39400	         1.18703e+58
          1417.20030	         1.25845e+58
          1418.00660	         1.08103e+58
          1418.81290	         1.06738e+58
          1419.61920	         1.17911e+58
          1420.42550	         1.16136e+58
          1421.23180	         1.29414e+58
          1422.03810	         1.23803e+58
          1422.84440	         1.16339e+58
          1423.65070	         1.30802e+58
          1424.45700	         1.06387e+58
          1425.26330	         9.65974e+57
          1426.06960	         9.97346e+57
          1426.87590	         1.08932e+58
          1427.68220	         1.06058e+58
          1428.48850	         1.18820e+58
          1429.29480	         1.14392e+58
          1430.10110	         9.26519e+57
          1430.90740	         9.12077e+57
          1431.71370	         1.00780e+58
          1432.52000	         9.48196e+57
          1433.32630	         8.41090e+57
          1434.13260	         8.78517e+57
          1434.93890	         8.89940e+57
          1435.74520	         9.19574e+57
          1436.55150	         9.46362e+57
          1437.35780	         9.48776e+57
          1438.16410	         9.98440e+57
          1438.97040	         8.06284e+57
          1439.77670	         7.83592e+57
          1440.58300	         9.06545e+57
          1441.38930	         9.46505e+57
          1442.19560	         9.55538e+57
          1443.00190	         1.04863e+58
          1443.80820	         1.09556e+58
          1444.61450	         1.00245e+58
          1445.42080	         8.73587e+57
          1446.22710	         1.03966e+58
          1447.03340	         1.05757e+58
          1447.83970	         1.10476e+58
          1448.64600	         1.22489e+58
          1449.45230	         1.11961e+58
          1450.25860	         9.26913e+57
          1451.06490	         8.07522e+57
          1451.87120	         7.90502e+57
          1452.67750	         7.25170e+57
          1453.48380	         8.82231e+57
          1454.29010	         8.45454e+57
          1455.09640	         7.69493e+57
          1455.90270	         9.28723e+57
          1456.70900	         9.93026e+57
          1457.51530	         1.09296e+58
          1458.32160	         1.17970e+58
          1459.12790	         1.19523e+58
          1459.93420	         1.01276e+58
          1460.74050	         8.36273e+57
          1461.54680	         9.37652e+57
          1462.35310	         8.91921e+57
          1463.15940	         1.00448e+58
          1463.96570	         1.13567e+58
          1464.77200	         1.25893e+58
          1465.57830	         1.26757e+58
          1466.38460	         9.99051e+57
          1467.19090	         8.83371e+57
          1467.99720	         9.55415e+57
          1468.80350	         1.01803e+58
          1469.60980	         1.04976e+58
          1470.41610	         1.08268e+58
          1471.22240	         9.80671e+57
          1472.02870	         9.61772e+57
          1472.83500	         8.92162e+57
          1473.64130	         9.49208e+57
          1474.44760	         9.91666e+57
          1475.25390	         9.09308e+57
          1476.06020	         8.58935e+57
          1476.86650	         8.60716e+57
          1477.67280	         8.24921e+57
          1478.47910	         7.56992e+57
          1479.28540	         7.32226e+57
          1480.09170	         8.51873e+57
          1480.89800	         9.40021e+57
          1481.70430	         9.34510e+57
          1482.51060	         8.35040e+57
          1483.31690	         8.57090e+57
          1484.12320	         8.27872e+57
          1484.92950	         6.93909e+57
          1485.73580	         7.20791e+57
          1486.54210	         8.17073e+57
          1487.34840	         8.59375e+57
          1488.15470	         8.54309e+57
          1488.96100	         8.97510e+57
          1489.76730	         9.15595e+57
