#sample_296_stacked_spectrum_rest_UV-bands_median_H-alpha_noDC.txt
#median Lum: 1.72752e+42
#Rest-frame wavelength (A) | Luminosity (erg/s/A)
#
          1110.00000	         0.00000e+00
          1110.80630	         3.53313e+59
          1111.61260	         1.56187e+59
          1112.41890	         1.36500e+59
          1113.22520	        -2.79315e+59
          1114.03150	        -1.80339e+59
          1114.83780	        -1.18881e+58
          1115.64410	         1.11607e+59
          1116.45040	         2.24709e+59
          1117.25670	         8.97303e+58
          1118.06300	         2.17051e+59
          1118.86930	        -1.17454e+59
          1119.67560	         1.04401e+59
          1120.48190	         4.80595e+57
          1121.28820	        -2.21742e+59
          1122.09450	        -5.47521e+57
          1122.90080	        -4.40216e+58
          1123.70710	         8.04788e+58
          1124.51340	         1.06381e+59
          1125.31970	         9.56279e+58
          1126.12600	         4.82988e+58
          1126.93230	        -6.05815e+58
          1127.73860	        -8.06194e+58
          1128.54490	        -5.80725e+56
          1129.35120	         4.10901e+58
          1130.15750	        -3.49391e+58
          1130.96380	        -1.65070e+58
          1131.77010	         5.09128e+58
          1132.57640	         2.41169e+58
          1133.38270	        -4.93075e+57
          1134.18900	         5.16797e+58
          1134.99530	         2.77541e+58
          1135.80160	         3.82131e+58
          1136.60790	         7.01736e+57
          1137.41420	        -1.16163e+57
          1138.22050	         1.15832e+58
          1139.02680	         3.22368e+58
          1139.83310	         1.77237e+58
          1140.63940	         3.70892e+57
          1141.44570	        -1.77471e+58
          1142.25200	         6.21688e+57
          1143.05830	         1.96570e+58
          1143.86460	         2.43745e+58
          1144.67090	         3.98704e+58
          1145.47720	         2.75969e+58
          1146.28350	         5.53934e+57
          1147.08980	        -3.28370e+57
          1147.89610	         3.52113e+57
          1148.70240	         2.77708e+58
          1149.50870	         2.15626e+58
          1150.31500	         3.30556e+57
          1151.12130	        -5.51143e+57
          1151.92760	         2.73693e+57
          1152.73390	         4.48020e+57
          1153.54020	         1.13671e+58
          1154.34650	         1.66488e+58
          1155.15280	         1.55652e+58
          1155.95910	        -8.93628e+56
          1156.76540	         1.86331e+57
          1157.57170	         5.26134e+57
          1158.37800	        -7.48349e+57
          1159.18430	         4.79822e+56
          1159.99060	         1.23466e+58
          1160.79690	         7.88820e+57
          1161.60320	         2.74979e+58
          1162.40950	         1.24555e+58
          1163.21580	         2.12778e+58
          1164.02210	         1.55106e+58
          1164.82840	         5.31326e+57
          1165.63470	         1.72650e+58
          1166.44100	         3.16029e+58
          1167.24730	         2.15656e+58
          1168.05360	         9.12690e+57
          1168.85990	         7.13602e+57
          1169.66620	         9.42926e+57
          1170.47250	         8.82287e+57
          1171.27880	         3.97857e+57
          1172.08510	         1.03354e+58
          1172.89140	         5.07931e+57
          1173.69770	         3.73356e+57
          1174.50400	         6.86839e+57
          1175.31030	         9.31959e+57
          1176.11660	         8.35196e+57
          1176.92290	         1.13067e+58
          1177.72920	         1.23226e+58
          1178.53550	         1.14272e+58
          1179.34180	         1.28435e+58
          1180.14810	         1.01078e+58
          1180.95440	         1.43266e+58
          1181.76070	         1.10435e+58
          1182.56700	         8.67270e+57
          1183.37330	         8.78188e+57
          1184.17960	         1.50114e+58
          1184.98590	         1.43591e+58
          1185.79220	         7.43009e+57
          1186.59850	         8.88379e+57
          1187.40480	         7.36482e+57
          1188.21110	         1.24371e+58
          1189.01740	         1.43559e+58
          1189.82370	         1.04526e+58
          1190.63000	         1.21414e+58
          1191.43630	         1.41249e+58
          1192.24260	         1.21266e+58
          1193.04890	         9.44448e+57
          1193.85520	         9.76566e+57
          1194.66150	         9.08678e+57
          1195.46780	         1.61058e+58
          1196.27410	         1.42268e+58
          1197.08040	         1.21055e+58
          1197.88670	         1.16794e+58
          1198.69300	         1.37026e+58
          1199.49930	         1.40498e+58
          1200.30560	         8.55367e+57
          1201.11190	         8.99324e+57
          1201.91820	         8.26060e+57
          1202.72450	         6.83295e+57
          1203.53080	         1.44705e+58
          1204.33710	         7.88214e+57
          1205.14340	         8.44531e+57
          1205.94970	         7.30124e+57
          1206.75600	         4.86692e+57
          1207.56230	         6.59034e+57
          1208.36860	         9.87841e+57
          1209.17490	         4.33113e+57
          1209.98120	         6.09960e+57
          1210.78750	         1.03771e+58
          1211.59380	         1.35935e+58
          1212.40010	         1.80553e+58
          1213.20640	         1.93001e+58
          1214.01270	         2.04669e+58
          1214.81900	         2.48994e+58
          1215.62530	         4.63137e+58
          1216.43160	         9.56301e+58
          1217.23790	         1.57242e+59
          1218.04420	         1.20428e+59
          1218.85050	         8.81611e+58
          1219.65680	         5.83076e+58
          1220.46310	         3.44895e+58
          1221.26940	         2.14985e+58
          1222.07570	         1.26125e+58
          1222.88200	         1.08870e+58
          1223.68830	         9.09883e+57
          1224.49460	         5.28719e+57
          1225.30090	         5.99727e+57
          1226.10720	         5.47857e+57
          1226.91350	         5.59410e+57
          1227.71980	         8.71810e+57
          1228.52610	         1.10281e+58
          1229.33240	         7.21869e+57
          1230.13870	         1.12661e+58
          1230.94500	         9.22469e+57
          1231.75130	         7.38542e+57
          1232.55760	         6.82893e+57
          1233.36390	         7.84830e+57
          1234.17020	         9.56066e+57
          1234.97650	         9.77304e+57
          1235.78280	         7.86760e+57
          1236.58910	         8.47316e+57
          1237.39540	         1.39928e+58
          1238.20170	         1.20311e+58
          1239.00800	         8.34042e+57
          1239.81430	         1.18957e+58
          1240.62060	         1.11231e+58
          1241.42690	         9.71037e+57
          1242.23320	         1.16785e+58
          1243.03950	         7.18822e+57
          1243.84580	         9.32511e+57
          1244.65210	         1.17059e+58
          1245.45840	         9.12372e+57
          1246.26470	         9.07188e+57
          1247.07100	         1.09083e+58
          1247.87730	         5.84291e+57
          1248.68360	         5.23565e+57
          1249.48990	         1.02377e+58
          1250.29620	         1.02397e+58
          1251.10250	         1.20952e+58
          1251.90880	         9.66349e+57
          1252.71510	         7.91170e+57
          1253.52140	         7.82626e+57
          1254.32770	         8.57290e+57
          1255.13400	         1.20054e+58
          1255.94030	         9.29587e+57
          1256.74660	         8.02879e+57
          1257.55290	         9.31160e+57
          1258.35920	         8.19914e+57
          1259.16550	         4.79178e+57
          1259.97180	         6.27368e+57
          1260.77810	         1.15190e+58
          1261.58440	         1.30929e+58
          1262.39070	         9.52470e+57
          1263.19700	         8.40590e+57
          1264.00330	         8.18884e+57
          1264.80960	         8.94638e+57
          1265.61590	         1.00579e+58
          1266.42220	         1.15994e+58
          1267.22850	         1.18133e+58
          1268.03480	         1.31641e+58
          1268.84110	         1.44864e+58
          1269.64740	         1.47350e+58
          1270.45370	         1.50577e+58
          1271.26000	         1.21503e+58
          1272.06630	         1.07990e+58
          1272.87260	         9.75224e+57
          1273.67890	         1.22190e+58
          1274.48520	         1.28574e+58
          1275.29150	         1.36926e+58
          1276.09780	         1.27624e+58
          1276.90410	         1.47872e+58
          1277.71040	         1.37335e+58
          1278.51670	         1.22731e+58
          1279.32300	         1.38326e+58
          1280.12930	         1.33718e+58
          1280.93560	         1.23615e+58
          1281.74190	         1.15464e+58
          1282.54820	         1.26757e+58
          1283.35450	         1.05611e+58
          1284.16080	         9.97736e+57
          1284.96710	         1.40354e+58
          1285.77340	         1.14567e+58
          1286.57970	         9.78734e+57
          1287.38600	         1.46685e+58
          1288.19230	         1.80892e+58
          1288.99860	         1.62771e+58
          1289.80490	         1.20775e+58
          1290.61120	         1.35170e+58
          1291.41750	         1.39706e+58
          1292.22380	         1.15752e+58
          1293.03010	         1.04068e+58
          1293.83640	         1.20250e+58
          1294.64270	         1.13797e+58
          1295.44900	         9.23202e+57
          1296.25530	         8.21982e+57
          1297.06160	         8.91164e+57
          1297.86790	         9.76569e+57
          1298.67420	         9.10104e+57
          1299.48050	         1.05560e+58
          1300.28680	         1.10495e+58
          1301.09310	         6.29584e+57
          1301.89940	         3.24166e+57
          1302.70570	         7.48857e+57
          1303.51200	         9.69512e+57
          1304.31830	         1.13455e+58
          1305.12460	         1.00489e+58
          1305.93090	         1.06447e+58
          1306.73720	         1.24482e+58
          1307.54350	         1.31148e+58
          1308.34980	         1.44276e+58
          1309.15610	         1.60869e+58
          1309.96240	         1.41043e+58
          1310.76870	         1.26490e+58
          1311.57500	         1.37897e+58
          1312.38130	         1.14488e+58
          1313.18760	         1.37447e+58
          1313.99390	         1.57501e+58
          1314.80020	         1.70628e+58
          1315.60650	         1.72481e+58
          1316.41280	         1.35491e+58
          1317.21910	         1.23710e+58
          1318.02540	         1.26669e+58
          1318.83170	         1.31474e+58
          1319.63800	         9.88657e+57
          1320.44430	         9.82877e+57
          1321.25060	         1.14798e+58
          1322.05690	         1.10280e+58
          1322.86320	         1.10810e+58
          1323.66950	         1.00781e+58
          1324.47580	         9.77390e+57
          1325.28210	         1.08822e+58
          1326.08840	         1.13693e+58
          1326.89470	         1.21928e+58
          1327.70100	         1.14268e+58
          1328.50730	         8.16008e+57
          1329.31360	         9.14623e+57
          1330.11990	         1.04690e+58
          1330.92620	         9.94767e+57
          1331.73250	         1.17660e+58
          1332.53880	         1.12516e+58
          1333.34510	         9.83568e+57
          1334.15140	         9.99635e+57
          1334.95770	         8.97170e+57
          1335.76400	         9.87913e+57
          1336.57030	         1.20185e+58
          1337.37660	         1.02304e+58
          1338.18290	         9.84986e+57
          1338.98920	         1.12431e+58
          1339.79550	         1.16629e+58
          1340.60180	         1.20209e+58
          1341.40810	         1.24549e+58
          1342.21440	         1.18236e+58
          1343.02070	         1.13868e+58
          1343.82700	         1.34795e+58
          1344.63330	         1.42364e+58
          1345.43960	         1.57444e+58
          1346.24590	         1.42602e+58
          1347.05220	         1.19881e+58
          1347.85850	         8.53737e+57
          1348.66480	         9.45386e+57
          1349.47110	         1.14329e+58
          1350.27740	         1.01022e+58
          1351.08370	         1.15335e+58
          1351.89000	         1.25466e+58
          1352.69630	         1.18979e+58
          1353.50260	         1.11016e+58
          1354.30890	         1.14657e+58
          1355.11520	         1.23310e+58
          1355.92150	         1.11155e+58
          1356.72780	         1.04176e+58
          1357.53410	         1.00403e+58
          1358.34040	         1.12783e+58
          1359.14670	         1.12282e+58
          1359.95300	         1.06571e+58
          1360.75930	         1.16051e+58
          1361.56560	         1.10867e+58
          1362.37190	         1.14859e+58
          1363.17820	         1.22853e+58
          1363.98450	         1.27867e+58
          1364.79080	         1.27571e+58
          1365.59710	         1.38004e+58
          1366.40340	         1.38789e+58
          1367.20970	         1.10367e+58
          1368.01600	         9.55830e+57
          1368.82230	         8.95820e+57
          1369.62860	         1.00583e+58
          1370.43490	         9.07767e+57
          1371.24120	         8.34215e+57
          1372.04750	         7.65236e+57
          1372.85380	         9.20425e+57
          1373.66010	         1.15618e+58
          1374.46640	         1.20634e+58
          1375.27270	         1.11049e+58
          1376.07900	         9.92794e+57
          1376.88530	         1.00575e+58
          1377.69160	         9.99160e+57
          1378.49790	         8.91565e+57
          1379.30420	         8.65940e+57
          1380.11050	         9.94277e+57
          1380.91680	         8.30375e+57
          1381.72310	         7.76617e+57
          1382.52940	         8.49124e+57
          1383.33570	         7.63784e+57
          1384.14200	         8.44644e+57
          1384.94830	         1.03459e+58
          1385.75460	         1.16096e+58
          1386.56090	         1.18679e+58
          1387.36720	         9.62549e+57
          1388.17350	         1.11259e+58
          1388.97980	         1.13380e+58
          1389.78610	         9.79859e+57
          1390.59240	         8.94385e+57
          1391.39870	         6.09740e+57
          1392.20500	         6.21146e+57
          1393.01130	         6.57154e+57
          1393.81760	         6.52322e+57
          1394.62390	         6.14234e+57
          1395.43020	         5.87452e+57
          1396.23650	         6.86754e+57
          1397.04280	         8.22253e+57
          1397.84910	         9.12253e+57
          1398.65540	         8.94930e+57
          1399.46170	         1.01697e+58
          1400.26800	         8.46189e+57
          1401.07430	         6.89088e+57
          1401.88060	         7.58308e+57
          1402.68690	         9.13969e+57
          1403.49320	         8.92776e+57
          1404.29950	         7.85534e+57
          1405.10580	         9.88265e+57
          1405.91210	         1.10247e+58
          1406.71840	         1.13068e+58
          1407.52470	         1.05203e+58
          1408.33100	         9.48887e+57
          1409.13730	         1.17687e+58
          1409.94360	         1.23010e+58
          1410.74990	         1.15406e+58
          1411.55620	         9.89199e+57
          1412.36250	         8.93821e+57
          1413.16880	         8.01703e+57
          1413.97510	         7.70338e+57
          1414.78140	         8.86381e+57
          1415.58770	         1.16277e+58
          1416.39400	         1.18145e+58
          1417.20030	         1.08074e+58
          1418.00660	         9.93284e+57
          1418.81290	         1.05456e+58
          1419.61920	         1.07237e+58
          1420.42550	         1.24836e+58
          1421.23180	         1.34442e+58
          1422.03810	         1.19544e+58
          1422.84440	         1.08838e+58
          1423.65070	         1.22873e+58
          1424.45700	         1.16224e+58
          1425.26330	         9.41950e+57
          1426.06960	         8.50912e+57
          1426.87590	         9.67513e+57
          1427.68220	         1.07074e+58
          1428.48850	         1.14227e+58
          1429.29480	         1.10619e+58
          1430.10110	         1.04126e+58
          1430.90740	         9.18894e+57
          1431.71370	         9.09018e+57
          1432.52000	         8.25435e+57
          1433.32630	         6.78380e+57
          1434.13260	         7.63577e+57
          1434.93890	         8.67218e+57
          1435.74520	         9.05370e+57
          1436.55150	         9.87888e+57
          1437.35780	         8.71784e+57
          1438.16410	         9.52698e+57
          1438.97040	         9.79099e+57
          1439.77670	         9.14303e+57
          1440.58300	         9.26311e+57
          1441.38930	         9.35210e+57
          1442.19560	         9.73774e+57
          1443.00190	         9.58271e+57
          1443.80820	         1.09046e+58
          1444.61450	         1.06035e+58
          1445.42080	         8.71399e+57
          1446.22710	         1.02429e+58
          1447.03340	         1.08006e+58
          1447.83970	         1.05562e+58
          1448.64600	         1.07410e+58
          1449.45230	         1.00675e+58
          1450.25860	         9.40910e+57
          1451.06490	         8.37111e+57
          1451.87120	         7.18319e+57
          1452.67750	         7.22068e+57
          1453.48380	         8.80154e+57
          1454.29010	         8.14705e+57
          1455.09640	         8.30209e+57
          1455.90270	         8.94775e+57
          1456.70900	         8.10715e+57
          1457.51530	         9.12284e+57
          1458.32160	         1.29891e+58
          1459.12790	         1.26824e+58
          1459.93420	         9.73039e+57
          1460.74050	         8.86953e+57
          1461.54680	         9.14374e+57
          1462.35310	         9.26482e+57
          1463.15940	         9.92253e+57
          1463.96570	         9.52728e+57
          1464.77200	         1.12184e+58
          1465.57830	         1.09536e+58
          1466.38460	         9.01867e+57
          1467.19090	         8.08683e+57
          1467.99720	         8.09010e+57
          1468.80350	         8.95793e+57
          1469.60980	         9.78976e+57
          1470.41610	         1.15279e+58
          1471.22240	         9.51489e+57
          1472.02870	         8.99118e+57
          1472.83500	         9.32225e+57
          1473.64130	         8.23830e+57
          1474.44760	         8.60648e+57
          1475.25390	         8.58869e+57
          1476.06020	         8.42834e+57
          1476.86650	         9.00616e+57
          1477.67280	         8.36058e+57
          1478.47910	         7.37757e+57
          1479.28540	         6.88155e+57
          1480.09170	         7.63023e+57
          1480.89800	         8.78095e+57
          1481.70430	         8.75631e+57
          1482.51060	         7.57202e+57
          1483.31690	         6.25190e+57
          1484.12320	         6.86558e+57
          1484.92950	         8.11269e+57
          1485.73580	         8.76012e+57
          1486.54210	         8.77442e+57
          1487.34840	         8.91635e+57
          1488.15470	         9.13115e+57
          1488.96100	         8.23946e+57
          1489.76730	         1.00587e+58
