#sample_182_stacked_spectrum_rest_UV-bands_median_H-alpha_noDC.txt
#median Lum: 1.70804e+42
#Rest-frame wavelength (A) | Luminosity (erg/s/A)
#
          1110.00000	         0.00000e+00
          1110.80630	         1.09376e+59
          1111.61260	         4.49151e+59
          1112.41890	         1.93311e+58
          1113.22520	        -1.42259e+59
          1114.03150	        -9.16485e+58
          1114.83780	         2.33777e+59
          1115.64410	         1.62478e+59
          1116.45040	         1.40771e+59
          1117.25670	         5.75794e+58
          1118.06300	         3.53488e+59
          1118.86930	         4.12983e+58
          1119.67560	         6.17055e+58
          1120.48190	        -3.06171e+58
          1121.28820	        -1.69352e+59
          1122.09450	        -2.40547e+58
          1122.90080	        -3.22817e+58
          1123.70710	         6.26599e+58
          1124.51340	         1.09020e+58
          1125.31970	        -2.75928e+58
          1126.12600	         1.89544e+58
          1126.93230	        -3.02041e+58
          1127.73860	        -3.44171e+58
          1128.54490	         8.82855e+57
          1129.35120	        -1.97855e+58
          1130.15750	         3.88928e+57
          1130.96380	        -2.73056e+58
          1131.77010	         6.28414e+58
          1132.57640	         1.55265e+58
          1133.38270	         6.18022e+58
          1134.18900	         1.91961e+58
          1134.99530	         2.08218e+58
          1135.80160	         1.71268e+58
          1136.60790	         2.45227e+58
          1137.41420	         4.12176e+57
          1138.22050	         3.57710e+58
          1139.02680	         1.78285e+58
          1139.83310	         2.13728e+58
          1140.63940	         1.48192e+58
          1141.44570	        -1.61841e+58
          1142.25200	        -1.79445e+57
          1143.05830	         3.39321e+58
          1143.86460	         3.76090e+58
          1144.67090	         3.07868e+58
          1145.47720	         2.51171e+58
          1146.28350	         1.28055e+58
          1147.08980	         2.30393e+58
          1147.89610	         2.86089e+58
          1148.70240	         3.57744e+58
          1149.50870	         3.34112e+58
          1150.31500	         2.33036e+58
          1151.12130	         2.71932e+57
          1151.92760	         1.15478e+58
          1152.73390	         8.12065e+57
          1153.54020	        -1.58730e+57
          1154.34650	         3.03840e+58
          1155.15280	         2.51783e+58
          1155.95910	         9.78388e+57
          1156.76540	        -1.04873e+57
          1157.57170	         1.29286e+57
          1158.37800	        -4.14365e+57
          1159.18430	         2.16713e+57
          1159.99060	         4.40822e+57
          1160.79690	         3.77935e+57
          1161.60320	         7.69979e+57
          1162.40950	         1.80579e+58
          1163.21580	         2.62500e+58
          1164.02210	         1.50045e+58
          1164.82840	         1.04751e+58
          1165.63470	         2.98379e+58
          1166.44100	         3.65837e+58
          1167.24730	         1.93054e+58
          1168.05360	         7.03881e+57
          1168.85990	        -1.55691e+56
          1169.66620	         6.30387e+57
          1170.47250	         1.29093e+58
          1171.27880	         7.25009e+57
          1172.08510	         1.60965e+58
          1172.89140	         1.45713e+58
          1173.69770	         4.78775e+57
          1174.50400	         1.07530e+58
          1175.31030	         1.52501e+58
          1176.11660	         1.72967e+58
          1176.92290	         1.15526e+58
          1177.72920	         1.18353e+58
          1178.53550	         5.66234e+57
          1179.34180	         3.28332e+57
          1180.14810	         2.61625e+56
          1180.95440	         3.16255e+57
          1181.76070	         7.92825e+57
          1182.56700	         5.38189e+57
          1183.37330	         8.30991e+57
          1184.17960	         1.36739e+58
          1184.98590	         1.27690e+58
          1185.79220	         1.36488e+58
          1186.59850	         1.29200e+58
          1187.40480	         9.98861e+57
          1188.21110	         1.89141e+58
          1189.01740	         1.16613e+58
          1189.82370	         1.18740e+58
          1190.63000	         1.80623e+58
          1191.43630	         1.85857e+58
          1192.24260	         8.79993e+57
          1193.04890	         1.24271e+58
          1193.85520	         9.37419e+57
          1194.66150	         2.82237e+57
          1195.46780	         1.21296e+58
          1196.27410	         1.63917e+58
          1197.08040	         1.20644e+58
          1197.88670	         1.30085e+58
          1198.69300	         1.39854e+58
          1199.49930	         1.76864e+58
          1200.30560	         1.41036e+58
          1201.11190	         1.09824e+58
          1201.91820	         7.56588e+57
          1202.72450	         6.17497e+57
          1203.53080	         1.19486e+58
          1204.33710	         9.90667e+57
          1205.14340	         4.17524e+57
          1205.94970	         6.79019e+57
          1206.75600	         6.67347e+57
          1207.56230	         4.45355e+57
          1208.36860	         7.44813e+57
          1209.17490	         8.18419e+57
          1209.98120	         6.59862e+57
          1210.78750	         8.62871e+57
          1211.59380	         1.14078e+58
          1212.40010	         1.62264e+58
          1213.20640	         2.02412e+58
          1214.01270	         2.00447e+58
          1214.81900	         2.21329e+58
          1215.62530	         4.24133e+58
          1216.43160	         8.90675e+58
          1217.23790	         1.50666e+59
          1218.04420	         1.14509e+59
          1218.85050	         9.07126e+58
          1219.65680	         6.27194e+58
          1220.46310	         3.61453e+58
          1221.26940	         2.44694e+58
          1222.07570	         1.59044e+58
          1222.88200	         9.94055e+57
          1223.68830	         7.30921e+57
          1224.49460	         6.13770e+57
          1225.30090	         6.81747e+57
          1226.10720	         7.65429e+57
          1226.91350	         8.92030e+57
          1227.71980	         8.47162e+57
          1228.52610	         1.14858e+58
          1229.33240	         1.02691e+58
          1230.13870	         7.48884e+57
          1230.94500	         1.05144e+58
          1231.75130	         7.42175e+57
          1232.55760	         8.20963e+57
          1233.36390	         7.14960e+57
          1234.17020	         6.94208e+57
          1234.97650	         7.92831e+57
          1235.78280	         9.42498e+57
          1236.58910	         9.29673e+57
          1237.39540	         9.25018e+57
          1238.20170	         9.50903e+57
          1239.00800	         1.00210e+58
          1239.81430	         1.21329e+58
          1240.62060	         1.21181e+58
          1241.42690	         1.19438e+58
          1242.23320	         1.03401e+58
          1243.03950	         5.77177e+57
          1243.84580	         6.27985e+57
          1244.65210	         8.68574e+57
          1245.45840	         9.83690e+57
          1246.26470	         1.05066e+58
          1247.07100	         9.63832e+57
          1247.87730	         7.68757e+57
          1248.68360	         4.17840e+57
          1249.48990	         6.49462e+57
          1250.29620	         9.85208e+57
          1251.10250	         7.38163e+57
          1251.90880	         5.13130e+57
          1252.71510	         7.67553e+57
          1253.52140	         7.05777e+57
          1254.32770	         1.11395e+58
          1255.13400	         1.41950e+58
          1255.94030	         1.32387e+58
          1256.74660	         1.15114e+58
          1257.55290	         1.05420e+58
          1258.35920	         7.39717e+57
          1259.16550	         4.99640e+57
          1259.97180	         5.23801e+57
          1260.77810	         1.02091e+58
          1261.58440	         1.20468e+58
          1262.39070	         8.05941e+57
          1263.19700	         6.70260e+57
          1264.00330	         9.28187e+57
          1264.80960	         1.18053e+58
          1265.61590	         1.31042e+58
          1266.42220	         1.19932e+58
          1267.22850	         1.14203e+58
          1268.03480	         1.38296e+58
          1268.84110	         1.62003e+58
          1269.64740	         1.42526e+58
          1270.45370	         1.40265e+58
          1271.26000	         1.31233e+58
          1272.06630	         1.16527e+58
          1272.87260	         1.15751e+58
          1273.67890	         1.15941e+58
          1274.48520	         1.41744e+58
          1275.29150	         1.34248e+58
          1276.09780	         1.16421e+58
          1276.90410	         1.77076e+58
          1277.71040	         1.59924e+58
          1278.51670	         1.04059e+58
          1279.32300	         1.03301e+58
          1280.12930	         1.21138e+58
          1280.93560	         9.75615e+57
          1281.74190	         1.02477e+58
          1282.54820	         1.24516e+58
          1283.35450	         1.10546e+58
          1284.16080	         1.08796e+58
          1284.96710	         1.32965e+58
          1285.77340	         1.22658e+58
          1286.57970	         1.13616e+58
          1287.38600	         1.44593e+58
          1288.19230	         1.56113e+58
          1288.99860	         1.44896e+58
          1289.80490	         1.04349e+58
          1290.61120	         1.13162e+58
          1291.41750	         1.36633e+58
          1292.22380	         1.12486e+58
          1293.03010	         1.13348e+58
          1293.83640	         1.18867e+58
          1294.64270	         8.64602e+57
          1295.44900	         5.17892e+57
          1296.25530	         6.65598e+57
          1297.06160	         1.05439e+58
          1297.86790	         1.29263e+58
          1298.67420	         9.10132e+57
          1299.48050	         7.92797e+57
          1300.28680	         9.55908e+57
          1301.09310	         7.22925e+57
          1301.89940	         3.22879e+57
          1302.70570	         6.05095e+57
          1303.51200	         7.76483e+57
          1304.31830	         8.56920e+57
          1305.12460	         1.03733e+58
          1305.93090	         1.20245e+58
          1306.73720	         1.30435e+58
          1307.54350	         1.34534e+58
          1308.34980	         1.31438e+58
          1309.15610	         1.50383e+58
          1309.96240	         1.51909e+58
          1310.76870	         1.12279e+58
          1311.57500	         9.19201e+57
          1312.38130	         8.91662e+57
          1313.18760	         1.27998e+58
          1313.99390	         1.60724e+58
          1314.80020	         1.62588e+58
          1315.60650	         1.63540e+58
          1316.41280	         1.46112e+58
          1317.21910	         1.19329e+58
          1318.02540	         1.12663e+58
          1318.83170	         1.28996e+58
          1319.63800	         1.15709e+58
          1320.44430	         1.08270e+58
          1321.25060	         1.16544e+58
          1322.05690	         1.23026e+58
          1322.86320	         1.13302e+58
          1323.66950	         1.06011e+58
          1324.47580	         8.95130e+57
          1325.28210	         9.54644e+57
          1326.08840	         1.10817e+58
          1326.89470	         1.31903e+58
          1327.70100	         1.17962e+58
          1328.50730	         8.29808e+57
          1329.31360	         8.94161e+57
          1330.11990	         1.07823e+58
          1330.92620	         1.00837e+58
          1331.73250	         1.02066e+58
          1332.53880	         9.66358e+57
          1333.34510	         8.19406e+57
          1334.15140	         7.95805e+57
          1334.95770	         8.70427e+57
          1335.76400	         1.04172e+58
          1336.57030	         1.05880e+58
          1337.37660	         9.79641e+57
          1338.18290	         1.01799e+58
          1338.98920	         1.17379e+58
          1339.79550	         1.08913e+58
          1340.60180	         1.05678e+58
          1341.40810	         1.09241e+58
          1342.21440	         1.15720e+58
          1343.02070	         1.22135e+58
          1343.82700	         1.31074e+58
          1344.63330	         1.25920e+58
          1345.43960	         1.17370e+58
          1346.24590	         1.18183e+58
          1347.05220	         1.27549e+58
          1347.85850	         1.12764e+58
          1348.66480	         1.24084e+58
          1349.47110	         1.32572e+58
          1350.27740	         1.16881e+58
          1351.08370	         1.13648e+58
          1351.89000	         1.12002e+58
          1352.69630	         1.08375e+58
          1353.50260	         9.97946e+57
          1354.30890	         1.00935e+58
          1355.11520	         1.05637e+58
          1355.92150	         1.04742e+58
          1356.72780	         9.08902e+57
          1357.53410	         9.69458e+57
          1358.34040	         1.00036e+58
          1359.14670	         1.00952e+58
          1359.95300	         1.04733e+58
          1360.75930	         1.11411e+58
          1361.56560	         1.07291e+58
          1362.37190	         1.15822e+58
          1363.17820	         1.17444e+58
          1363.98450	         1.15771e+58
          1364.79080	         1.18660e+58
          1365.59710	         1.37199e+58
          1366.40340	         1.36329e+58
          1367.20970	         1.02240e+58
          1368.01600	         8.07902e+57
          1368.82230	         9.86394e+57
          1369.62860	         1.07714e+58
          1370.43490	         8.43220e+57
          1371.24120	         9.13248e+57
          1372.04750	         8.96308e+57
          1372.85380	         1.04594e+58
          1373.66010	         1.15942e+58
          1374.46640	         1.08312e+58
          1375.27270	         1.03173e+58
          1376.07900	         8.80529e+57
          1376.88530	         9.03291e+57
          1377.69160	         8.73765e+57
          1378.49790	         8.41691e+57
          1379.30420	         7.51825e+57
          1380.11050	         7.33962e+57
          1380.91680	         7.03910e+57
          1381.72310	         7.24346e+57
          1382.52940	         8.53425e+57
          1383.33570	         8.14111e+57
          1384.14200	         8.61681e+57
          1384.94830	         1.04409e+58
          1385.75460	         9.03108e+57
          1386.56090	         8.01996e+57
          1387.36720	         9.08088e+57
          1388.17350	         1.15444e+58
          1388.97980	         1.10897e+58
          1389.78610	         7.78873e+57
          1390.59240	         7.15586e+57
          1391.39870	         6.99228e+57
          1392.20500	         7.61060e+57
          1393.01130	         6.83773e+57
          1393.81760	         6.83448e+57
          1394.62390	         7.91092e+57
          1395.43020	         6.81260e+57
          1396.23650	         6.13243e+57
          1397.04280	         7.10580e+57
          1397.84910	         7.55490e+57
          1398.65540	         8.04084e+57
          1399.46170	         1.00700e+58
          1400.26800	         9.04563e+57
          1401.07430	         7.25239e+57
          1401.88060	         7.06237e+57
          1402.68690	         9.41461e+57
          1403.49320	         9.63260e+57
          1404.29950	         9.20042e+57
          1405.10580	         9.89308e+57
          1405.91210	         1.06807e+58
          1406.71840	         9.99065e+57
          1407.52470	         9.86459e+57
          1408.33100	         1.05766e+58
          1409.13730	         1.18474e+58
          1409.94360	         1.29900e+58
          1410.74990	         1.24458e+58
          1411.55620	         1.05673e+58
          1412.36250	         1.03529e+58
          1413.16880	         1.09627e+58
          1413.97510	         8.12754e+57
          1414.78140	         8.10519e+57
          1415.58770	         1.08528e+58
          1416.39400	         1.07294e+58
          1417.20030	         9.93667e+57
          1418.00660	         9.55492e+57
          1418.81290	         1.06841e+58
          1419.61920	         1.01372e+58
          1420.42550	         1.18127e+58
          1421.23180	         1.40776e+58
          1422.03810	         1.11697e+58
          1422.84440	         1.09294e+58
          1423.65070	         1.24996e+58
          1424.45700	         1.16022e+58
          1425.26330	         8.90750e+57
          1426.06960	         7.71539e+57
          1426.87590	         8.65900e+57
          1427.68220	         9.09873e+57
          1428.48850	         1.01248e+58
          1429.29480	         9.49635e+57
          1430.10110	         9.57483e+57
          1430.90740	         8.49448e+57
          1431.71370	         9.45662e+57
          1432.52000	         8.85020e+57
          1433.32630	         7.34782e+57
          1434.13260	         7.76298e+57
          1434.93890	         8.89953e+57
          1435.74520	         8.61123e+57
          1436.55150	         9.16313e+57
          1437.35780	         8.56701e+57
          1438.16410	         8.23167e+57
          1438.97040	         8.79023e+57
          1439.77670	         8.56683e+57
          1440.58300	         9.05746e+57
          1441.38930	         9.71677e+57
          1442.19560	         9.75062e+57
          1443.00190	         9.53175e+57
          1443.80820	         1.05263e+58
          1444.61450	         9.83119e+57
          1445.42080	         8.96866e+57
          1446.22710	         9.80230e+57
          1447.03340	         9.90863e+57
          1447.83970	         9.94935e+57
          1448.64600	         1.00500e+58
          1449.45230	         1.09857e+58
          1450.25860	         1.19687e+58
          1451.06490	         1.07262e+58
          1451.87120	         7.77873e+57
          1452.67750	         8.21707e+57
          1453.48380	         1.02937e+58
          1454.29010	         8.85260e+57
          1455.09640	         6.84322e+57
          1455.90270	         7.85890e+57
          1456.70900	         8.30393e+57
          1457.51530	         9.58772e+57
          1458.32160	         1.22092e+58
          1459.12790	         1.28638e+58
          1459.93420	         1.16446e+58
          1460.74050	         8.54981e+57
          1461.54680	         7.62168e+57
          1462.35310	         7.32941e+57
          1463.15940	         9.00259e+57
          1463.96570	         1.07207e+58
          1464.77200	         1.14716e+58
          1465.57830	         1.10049e+58
          1466.38460	         9.26509e+57
          1467.19090	         8.58640e+57
          1467.99720	         8.92185e+57
          1468.80350	         9.16053e+57
          1469.60980	         1.00641e+58
          1470.41610	         1.01600e+58
          1471.22240	         9.90252e+57
          1472.02870	         1.00323e+58
          1472.83500	         1.00143e+58
          1473.64130	         9.89684e+57
          1474.44760	         1.00918e+58
          1475.25390	         9.22994e+57
          1476.06020	         8.60964e+57
          1476.86650	         7.61337e+57
          1477.67280	         7.60097e+57
          1478.47910	         7.50796e+57
          1479.28540	         7.96768e+57
          1480.09170	         8.76936e+57
          1480.89800	         8.26998e+57
          1481.70430	         7.96156e+57
          1482.51060	         8.08958e+57
          1483.31690	         7.32168e+57
          1484.12320	         6.70793e+57
          1484.92950	         6.86861e+57
          1485.73580	         7.64714e+57
          1486.54210	         8.28025e+57
          1487.34840	         8.85769e+57
          1488.15470	         8.82547e+57
          1488.96100	         8.46130e+57
          1489.76730	         7.80085e+57
