#sample_112_stacked_spectrum_rest_UV-bands_median_H-alpha_noDC.txt
#median Lum: 1.69302e+42
#Rest-frame wavelength (A) | Luminosity (erg/s/A)
#
          1110.00000	         0.00000e+00
          1110.80630	         1.19516e+59
          1111.61260	         7.93372e+57
          1112.41890	        -7.67326e+58
          1113.22520	        -3.77822e+58
          1114.03150	        -2.31866e+59
          1114.83780	         1.80162e+59
          1115.64410	         3.30263e+59
          1116.45040	         1.56992e+59
          1117.25670	        -2.08307e+58
          1118.06300	         1.46232e+59
          1118.86930	        -4.62982e+58
          1119.67560	         4.53240e+58
          1120.48190	         2.39815e+58
          1121.28820	        -2.10965e+58
          1122.09450	         5.98516e+58
          1122.90080	         5.56816e+58
          1123.70710	         4.88111e+58
          1124.51340	         2.55591e+58
          1125.31970	        -9.80909e+58
          1126.12600	        -7.41843e+58
          1126.93230	        -5.12545e+58
          1127.73860	        -4.34925e+58
          1128.54490	        -4.29892e+57
          1129.35120	        -2.20283e+58
          1130.15750	        -4.20179e+58
          1130.96380	        -3.57839e+58
          1131.77010	         4.10484e+58
          1132.57640	         6.76805e+58
          1133.38270	         4.40303e+58
          1134.18900	         1.32791e+58
          1134.99530	         1.55897e+58
          1135.80160	         1.79542e+58
          1136.60790	         2.41046e+58
          1137.41420	        -1.29534e+58
          1138.22050	         2.87634e+58
          1139.02680	         4.87909e+58
          1139.83310	         3.70379e+58
          1140.63940	         3.06833e+58
          1141.44570	        -6.24669e+57
          1142.25200	         5.10044e+56
          1143.05830	         2.83686e+58
          1143.86460	         2.19524e+58
          1144.67090	         1.25720e+58
          1145.47720	         1.56035e+58
          1146.28350	         9.94004e+57
          1147.08980	         6.94160e+57
          1147.89610	         1.32506e+58
          1148.70240	         2.52408e+58
          1149.50870	         3.36157e+58
          1150.31500	         2.90880e+58
          1151.12130	         7.42045e+57
          1151.92760	         3.72317e+57
          1152.73390	         8.31302e+57
          1153.54020	         8.99705e+57
          1154.34650	         1.87441e+58
          1155.15280	         2.22982e+58
          1155.95910	         1.04864e+58
          1156.76540	         3.82077e+57
          1157.57170	        -1.02709e+58
          1158.37800	        -2.43417e+57
          1159.18430	         3.04899e+57
          1159.99060	         8.52302e+57
          1160.79690	        -9.85339e+56
          1161.60320	         6.06085e+56
          1162.40950	         7.98679e+57
          1163.21580	         2.47775e+58
          1164.02210	         1.61296e+58
          1164.82840	         1.25723e+58
          1165.63470	         2.46157e+58
          1166.44100	         3.58414e+58
          1167.24730	         2.10896e+58
          1168.05360	         7.66620e+57
          1168.85990	         8.69088e+57
          1169.66620	         1.75096e+58
          1170.47250	         1.68142e+58
          1171.27880	        -3.70842e+56
          1172.08510	        -1.83209e+57
          1172.89140	         6.39029e+57
          1173.69770	         2.98421e+57
          1174.50400	         1.11265e+58
          1175.31030	         1.91509e+58
          1176.11660	         1.83012e+58
          1176.92290	         1.73585e+58
          1177.72920	         1.41121e+58
          1178.53550	         4.14184e+57
          1179.34180	        -9.49469e+56
          1180.14810	         4.37986e+57
          1180.95440	         7.70793e+57
          1181.76070	         2.90463e+57
          1182.56700	         6.42743e+57
          1183.37330	         1.11976e+58
          1184.17960	         2.01158e+58
          1184.98590	         1.33667e+58
          1185.79220	         6.34928e+57
          1186.59850	         1.20902e+58
          1187.40480	         1.30515e+58
          1188.21110	         1.54669e+58
          1189.01740	         7.89998e+57
          1189.82370	         1.08170e+58
          1190.63000	         1.59720e+58
          1191.43630	         1.86847e+58
          1192.24260	         1.27285e+58
          1193.04890	         9.40575e+57
          1193.85520	         6.96139e+57
          1194.66150	         5.91142e+57
          1195.46780	         1.12028e+58
          1196.27410	         1.45831e+58
          1197.08040	         1.15303e+58
          1197.88670	         1.32771e+58
          1198.69300	         1.80580e+58
          1199.49930	         1.55466e+58
          1200.30560	         9.17265e+57
          1201.11190	         1.51782e+58
          1201.91820	         1.28192e+58
          1202.72450	         7.18644e+57
          1203.53080	         1.63185e+58
          1204.33710	         9.79288e+57
          1205.14340	         5.38370e+57
          1205.94970	         4.49448e+57
          1206.75600	         5.92549e+57
          1207.56230	         5.64962e+57
          1208.36860	         9.49690e+57
          1209.17490	         4.36134e+57
          1209.98120	         6.78572e+57
          1210.78750	         5.07964e+57
          1211.59380	         8.89066e+57
          1212.40010	         1.86064e+58
          1213.20640	         1.93042e+58
          1214.01270	         1.88080e+58
          1214.81900	         2.19064e+58
          1215.62530	         4.11060e+58
          1216.43160	         9.31412e+58
          1217.23790	         1.52197e+59
          1218.04420	         1.12351e+59
          1218.85050	         8.55188e+58
          1219.65680	         6.03880e+58
          1220.46310	         3.77360e+58
          1221.26940	         2.05411e+58
          1222.07570	         1.32679e+58
          1222.88200	         1.35803e+58
          1223.68830	         1.06557e+58
          1224.49460	         7.74189e+57
          1225.30090	         6.68765e+57
          1226.10720	         5.12765e+57
          1226.91350	         6.65310e+57
          1227.71980	         1.02497e+58
          1228.52610	         1.17429e+58
          1229.33240	         8.07261e+57
          1230.13870	         9.11898e+57
          1230.94500	         1.07128e+58
          1231.75130	         5.34308e+57
          1232.55760	         5.62766e+57
          1233.36390	         6.88061e+57
          1234.17020	         8.73449e+57
          1234.97650	         9.57370e+57
          1235.78280	         5.63698e+57
          1236.58910	         9.84123e+57
          1237.39540	         1.18521e+58
          1238.20170	         9.09482e+57
          1239.00800	         1.36354e+58
          1239.81430	         1.38780e+58
          1240.62060	         9.44128e+57
          1241.42690	         1.06847e+58
          1242.23320	         1.26375e+58
          1243.03950	         7.02140e+57
          1243.84580	         6.71946e+57
          1244.65210	         1.14283e+58
          1245.45840	         1.18559e+58
          1246.26470	         1.06516e+58
          1247.07100	         8.11284e+57
          1247.87730	         7.61347e+57
          1248.68360	         4.03959e+57
          1249.48990	         1.20956e+58
          1250.29620	         1.04443e+58
          1251.10250	         7.42010e+57
          1251.90880	         4.98877e+57
          1252.71510	         5.40495e+57
          1253.52140	         1.02123e+58
          1254.32770	         1.06016e+58
          1255.13400	         1.18372e+58
          1255.94030	         1.24035e+58
          1256.74660	         1.04501e+58
          1257.55290	         8.83491e+57
          1258.35920	         7.69705e+57
          1259.16550	         4.37254e+57
          1259.97180	         5.93084e+57
          1260.77810	         1.00285e+58
          1261.58440	         1.09136e+58
          1262.39070	         8.79394e+57
          1263.19700	         9.62955e+57
          1264.00330	         1.12836e+58
          1264.80960	         1.25559e+58
          1265.61590	         1.23977e+58
          1266.42220	         1.32490e+58
          1267.22850	         1.15029e+58
          1268.03480	         1.35608e+58
          1268.84110	         1.54791e+58
          1269.64740	         1.22522e+58
          1270.45370	         1.10911e+58
          1271.26000	         1.10027e+58
          1272.06630	         1.22910e+58
          1272.87260	         1.37794e+58
          1273.67890	         1.39559e+58
          1274.48520	         1.05735e+58
          1275.29150	         1.01892e+58
          1276.09780	         8.54381e+57
          1276.90410	         1.11966e+58
          1277.71040	         1.30384e+58
          1278.51670	         1.35104e+58
          1279.32300	         1.45786e+58
          1280.12930	         1.30938e+58
          1280.93560	         8.88336e+57
          1281.74190	         1.10666e+58
          1282.54820	         1.39248e+58
          1283.35450	         1.05024e+58
          1284.16080	         1.03972e+58
          1284.96710	         1.43902e+58
          1285.77340	         1.36774e+58
          1286.57970	         1.12459e+58
          1287.38600	         1.55646e+58
          1288.19230	         1.77354e+58
          1288.99860	         1.36587e+58
          1289.80490	         1.03167e+58
          1290.61120	         1.38032e+58
          1291.41750	         1.47528e+58
          1292.22380	         1.13028e+58
          1293.03010	         1.12864e+58
          1293.83640	         1.24984e+58
          1294.64270	         1.06347e+58
          1295.44900	         6.25117e+57
          1296.25530	         7.24459e+57
          1297.06160	         9.37365e+57
          1297.86790	         9.76652e+57
          1298.67420	         9.95228e+57
          1299.48050	         1.10434e+58
          1300.28680	         1.07908e+58
          1301.09310	         7.78416e+57
          1301.89940	         5.32173e+57
          1302.70570	         7.32392e+57
          1303.51200	         9.06247e+57
          1304.31830	         1.06337e+58
          1305.12460	         1.06336e+58
          1305.93090	         1.15967e+58
          1306.73720	         1.30787e+58
          1307.54350	         1.45429e+58
          1308.34980	         1.52488e+58
          1309.15610	         1.48609e+58
          1309.96240	         1.46204e+58
          1310.76870	         1.48316e+58
          1311.57500	         1.21574e+58
          1312.38130	         1.17248e+58
          1313.18760	         1.49323e+58
          1313.99390	         1.62302e+58
          1314.80020	         1.58580e+58
          1315.60650	         1.77023e+58
          1316.41280	         1.41613e+58
          1317.21910	         1.10727e+58
          1318.02540	         1.22812e+58
          1318.83170	         1.40177e+58
          1319.63800	         1.29989e+58
          1320.44430	         1.14427e+58
          1321.25060	         1.20890e+58
          1322.05690	         1.24409e+58
          1322.86320	         1.18684e+58
          1323.66950	         1.10393e+58
          1324.47580	         1.09556e+58
          1325.28210	         1.07193e+58
          1326.08840	         1.18673e+58
          1326.89470	         1.20534e+58
          1327.70100	         1.10128e+58
          1328.50730	         9.96432e+57
          1329.31360	         1.08812e+58
          1330.11990	         1.07456e+58
          1330.92620	         9.78217e+57
          1331.73250	         1.15631e+58
          1332.53880	         1.03275e+58
          1333.34510	         8.07457e+57
          1334.15140	         8.50534e+57
          1334.95770	         9.34278e+57
          1335.76400	         1.02699e+58
          1336.57030	         1.13335e+58
          1337.37660	         1.09239e+58
          1338.18290	         9.51054e+57
          1338.98920	         1.14738e+58
          1339.79550	         1.14093e+58
          1340.60180	         1.00970e+58
          1341.40810	         1.26429e+58
          1342.21440	         1.19558e+58
          1343.02070	         1.14769e+58
          1343.82700	         1.47900e+58
          1344.63330	         1.35040e+58
          1345.43960	         1.20216e+58
          1346.24590	         1.31335e+58
          1347.05220	         1.39748e+58
          1347.85850	         1.05493e+58
          1348.66480	         1.05642e+58
          1349.47110	         1.19518e+58
          1350.27740	         1.17150e+58
          1351.08370	         1.03190e+58
          1351.89000	         1.01594e+58
          1352.69630	         1.17490e+58
          1353.50260	         1.27455e+58
          1354.30890	         1.29575e+58
          1355.11520	         1.24015e+58
          1355.92150	         1.05804e+58
          1356.72780	         1.03132e+58
          1357.53410	         1.03488e+58
          1358.34040	         1.06548e+58
          1359.14670	         9.99639e+57
          1359.95300	         1.08325e+58
          1360.75930	         1.20842e+58
          1361.56560	         1.26286e+58
          1362.37190	         1.19891e+58
          1363.17820	         1.02047e+58
          1363.98450	         1.08287e+58
          1364.79080	         1.32748e+58
          1365.59710	         1.40112e+58
          1366.40340	         1.20868e+58
          1367.20970	         1.03564e+58
          1368.01600	         1.13353e+58
          1368.82230	         1.05634e+58
          1369.62860	         1.11069e+58
          1370.43490	         8.81184e+57
          1371.24120	         8.51438e+57
          1372.04750	         8.45746e+57
          1372.85380	         1.00215e+58
          1373.66010	         9.99823e+57
          1374.46640	         9.90569e+57
          1375.27270	         1.04299e+58
          1376.07900	         9.20555e+57
          1376.88530	         7.41513e+57
          1377.69160	         7.77469e+57
          1378.49790	         8.00669e+57
          1379.30420	         8.89344e+57
          1380.11050	         9.69556e+57
          1380.91680	         7.84032e+57
          1381.72310	         7.28559e+57
          1382.52940	         8.19129e+57
          1383.33570	         8.65356e+57
          1384.14200	         8.98647e+57
          1384.94830	         9.93301e+57
          1385.75460	         1.03313e+58
          1386.56090	         1.04524e+58
          1387.36720	         1.04741e+58
          1388.17350	         1.13473e+58
          1388.97980	         1.17501e+58
          1389.78610	         9.98766e+57
          1390.59240	         9.25610e+57
          1391.39870	         8.42395e+57
          1392.20500	         8.22651e+57
          1393.01130	         8.44418e+57
          1393.81760	         6.95646e+57
          1394.62390	         7.32890e+57
          1395.43020	         6.03974e+57
          1396.23650	         7.14498e+57
          1397.04280	         8.57999e+57
          1397.84910	         9.01046e+57
          1398.65540	         9.60067e+57
          1399.46170	         9.96958e+57
          1400.26800	         9.31906e+57
          1401.07430	         7.95755e+57
          1401.88060	         9.09446e+57
          1402.68690	         1.04622e+58
          1403.49320	         1.05970e+58
          1404.29950	         9.27932e+57
          1405.10580	         1.01527e+58
          1405.91210	         1.05989e+58
          1406.71840	         9.67471e+57
          1407.52470	         1.02038e+58
          1408.33100	         1.11047e+58
          1409.13730	         1.20664e+58
          1409.94360	         1.22539e+58
          1410.74990	         1.22433e+58
          1411.55620	         1.03287e+58
          1412.36250	         9.16773e+57
          1413.16880	         9.24169e+57
          1413.97510	         9.39372e+57
          1414.78140	         9.85191e+57
          1415.58770	         1.05445e+58
          1416.39400	         1.12257e+58
          1417.20030	         1.19180e+58
          1418.00660	         1.00978e+58
          1418.81290	         1.13728e+58
          1419.61920	         1.24887e+58
          1420.42550	         1.14724e+58
          1421.23180	         1.32746e+58
          1422.03810	         1.35352e+58
          1422.84440	         1.23226e+58
          1423.65070	         1.33776e+58
          1424.45700	         1.16215e+58
          1425.26330	         8.94132e+57
          1426.06960	         8.85241e+57
          1426.87590	         9.44655e+57
          1427.68220	         1.02032e+58
          1428.48850	         1.08702e+58
          1429.29480	         1.07901e+58
          1430.10110	         9.78895e+57
          1430.90740	         8.45067e+57
          1431.71370	         8.31391e+57
          1432.52000	         8.72686e+57
          1433.32630	         7.71604e+57
          1434.13260	         7.68409e+57
          1434.93890	         7.71215e+57
          1435.74520	         8.76308e+57
          1436.55150	         9.22128e+57
          1437.35780	         8.64867e+57
          1438.16410	         8.94823e+57
          1438.97040	         8.51916e+57
          1439.77670	         8.52918e+57
          1440.58300	         9.89804e+57
          1441.38930	         1.01646e+58
          1442.19560	         9.99430e+57
          1443.00190	         9.31043e+57
          1443.80820	         1.10689e+58
          1444.61450	         1.03839e+58
          1445.42080	         9.38468e+57
          1446.22710	         1.09708e+58
          1447.03340	         1.05224e+58
          1447.83970	         1.04243e+58
          1448.64600	         9.08911e+57
          1449.45230	         9.16528e+57
          1450.25860	         1.07590e+58
          1451.06490	         9.23120e+57
          1451.87120	         7.61635e+57
          1452.67750	         6.72532e+57
          1453.48380	         7.87553e+57
          1454.29010	         8.22526e+57
          1455.09640	         7.17818e+57
          1455.90270	         7.56480e+57
          1456.70900	         8.62238e+57
          1457.51530	         1.05277e+58
          1458.32160	         1.21030e+58
          1459.12790	         1.23595e+58
          1459.93420	         1.05700e+58
          1460.74050	         8.27815e+57
          1461.54680	         8.59890e+57
          1462.35310	         8.39721e+57
          1463.15940	         1.02495e+58
          1463.96570	         1.15174e+58
          1464.77200	         1.16597e+58
          1465.57830	         9.78241e+57
          1466.38460	         7.57325e+57
          1467.19090	         8.45493e+57
          1467.99720	         9.13633e+57
          1468.80350	         9.93677e+57
          1469.60980	         1.03411e+58
          1470.41610	         1.04836e+58
          1471.22240	         9.18997e+57
          1472.02870	         9.51867e+57
          1472.83500	         9.86613e+57
          1473.64130	         1.01561e+58
          1474.44760	         9.94633e+57
          1475.25390	         8.98246e+57
          1476.06020	         9.39980e+57
          1476.86650	         9.92128e+57
          1477.67280	         9.77754e+57
          1478.47910	         7.82286e+57
          1479.28540	         7.24732e+57
          1480.09170	         8.88515e+57
          1480.89800	         9.32518e+57
          1481.70430	         9.43940e+57
          1482.51060	         7.50769e+57
          1483.31690	         7.00367e+57
          1484.12320	         7.68859e+57
          1484.92950	         8.36038e+57
          1485.73580	         7.51403e+57
          1486.54210	         7.79918e+57
          1487.34840	         7.98999e+57
          1488.15470	         8.33691e+57
          1488.96100	         8.31937e+57
          1489.76730	         8.20073e+57
