#sample_234_stacked_spectrum_rest_UV-bands_median_H-alpha_noDC.txt
#median Lum: 1.73892e+42
#Rest-frame wavelength (A) | Luminosity (erg/s/A)
#
          1110.00000	         0.00000e+00
          1110.80630	        -6.51688e+59
          1111.61260	        -4.38677e+58
          1112.41890	         1.21625e+59
          1113.22520	        -1.70200e+59
          1114.03150	        -9.41425e+58
          1114.83780	         2.14897e+59
          1115.64410	         1.16079e+59
          1116.45040	         1.01228e+59
          1117.25670	         4.31839e+58
          1118.06300	        -8.67167e+57
          1118.86930	         9.51589e+58
          1119.67560	         9.81584e+58
          1120.48190	        -1.32857e+58
          1121.28820	        -1.01366e+59
          1122.09450	        -5.49975e+58
          1122.90080	         7.14245e+57
          1123.70710	         8.91571e+58
          1124.51340	         3.52443e+58
          1125.31970	         4.69430e+58
          1126.12600	         4.24388e+58
          1126.93230	        -4.31818e+58
          1127.73860	        -7.20170e+58
          1128.54490	         1.58220e+58
          1129.35120	         6.19991e+58
          1130.15750	         9.31236e+57
          1130.96380	         2.73024e+58
          1131.77010	         9.29936e+58
          1132.57640	         1.16184e+58
          1133.38270	         2.43041e+58
          1134.18900	         3.35039e+58
          1134.99530	         2.64245e+58
          1135.80160	         2.62575e+58
          1136.60790	         8.94730e+57
          1137.41420	        -1.17164e+58
          1138.22050	         5.27548e+58
          1139.02680	         3.93946e+58
          1139.83310	         2.84824e+58
          1140.63940	         2.84465e+58
          1141.44570	        -1.46969e+58
          1142.25200	        -1.94542e+58
          1143.05830	         1.63760e+58
          1143.86460	         3.69885e+58
          1144.67090	         1.37481e+58
          1145.47720	         1.46994e+58
          1146.28350	         7.35058e+57
          1147.08980	         1.79208e+58
          1147.89610	         1.93804e+58
          1148.70240	         2.23148e+58
          1149.50870	         3.15574e+58
          1150.31500	         8.11730e+57
          1151.12130	         3.53368e+57
          1151.92760	         9.88918e+57
          1152.73390	         6.15949e+57
          1153.54020	         1.53021e+58
          1154.34650	         2.06705e+58
          1155.15280	         1.94296e+58
          1155.95910	         8.16607e+57
          1156.76540	         9.10506e+57
          1157.57170	        -2.19967e+57
          1158.37800	        -1.18349e+57
          1159.18430	        -5.48624e+57
          1159.99060	         7.46581e+57
          1160.79690	        -1.84741e+57
          1161.60320	         8.01070e+57
          1162.40950	         7.59882e+57
          1163.21580	         2.05927e+58
          1164.02210	         8.78086e+57
          1164.82840	         1.12145e+58
          1165.63470	         2.17840e+58
          1166.44100	         3.03395e+58
          1167.24730	         1.63586e+58
          1168.05360	         7.58506e+56
          1168.85990	         6.96633e+57
          1169.66620	         4.38049e+57
          1170.47250	         6.36968e+57
          1171.27880	         7.69205e+57
          1172.08510	         7.60579e+57
          1172.89140	         8.95590e+57
          1173.69770	         9.04336e+57
          1174.50400	         8.68480e+57
          1175.31030	         1.43070e+58
          1176.11660	         1.81228e+58
          1176.92290	         1.66192e+58
          1177.72920	         1.64928e+58
          1178.53550	         9.68508e+57
          1179.34180	         6.65576e+57
          1180.14810	         6.43761e+57
          1180.95440	         8.76209e+57
          1181.76070	         7.61099e+57
          1182.56700	         1.22427e+58
          1183.37330	         8.15319e+57
          1184.17960	         7.86928e+57
          1184.98590	         9.22077e+57
          1185.79220	         5.79168e+57
          1186.59850	         9.31108e+57
          1187.40480	         8.86595e+57
          1188.21110	         1.68807e+58
          1189.01740	         1.48291e+58
          1189.82370	         1.17232e+58
          1190.63000	         1.13001e+58
          1191.43630	         1.43369e+58
          1192.24260	         1.49850e+58
          1193.04890	         1.91290e+58
          1193.85520	         1.19881e+58
          1194.66150	         3.66989e+57
          1195.46780	         1.27803e+58
          1196.27410	         1.23618e+58
          1197.08040	         1.05891e+58
          1197.88670	         1.35891e+58
          1198.69300	         1.62828e+58
          1199.49930	         1.40999e+58
          1200.30560	         1.14993e+58
          1201.11190	         1.09856e+58
          1201.91820	         9.05884e+57
          1202.72450	         6.99623e+57
          1203.53080	         1.47118e+58
          1204.33710	         1.01599e+58
          1205.14340	         6.03346e+57
          1205.94970	         5.33987e+57
          1206.75600	         6.54345e+57
          1207.56230	         4.88248e+57
          1208.36860	         5.85865e+57
          1209.17490	         6.92546e+57
          1209.98120	         7.51636e+57
          1210.78750	         6.81802e+57
          1211.59380	         1.18922e+58
          1212.40010	         1.57322e+58
          1213.20640	         1.99028e+58
          1214.01270	         1.92079e+58
          1214.81900	         2.34906e+58
          1215.62530	         4.47990e+58
          1216.43160	         9.26168e+58
          1217.23790	         1.53172e+59
          1218.04420	         1.13330e+59
          1218.85050	         8.78208e+58
          1219.65680	         5.74335e+58
          1220.46310	         3.36394e+58
          1221.26940	         2.38794e+58
          1222.07570	         1.42000e+58
          1222.88200	         1.50030e+58
          1223.68830	         1.32814e+58
          1224.49460	         8.78904e+57
          1225.30090	         7.40208e+57
          1226.10720	         7.86423e+57
          1226.91350	         6.45170e+57
          1227.71980	         1.01746e+58
          1228.52610	         1.34695e+58
          1229.33240	         9.55619e+57
          1230.13870	         7.84795e+57
          1230.94500	         5.04782e+57
          1231.75130	         6.60811e+57
          1232.55760	         8.27138e+57
          1233.36390	         1.12531e+58
          1234.17020	         8.67032e+57
          1234.97650	         6.39591e+57
          1235.78280	         7.72596e+57
          1236.58910	         8.44935e+57
          1237.39540	         8.47148e+57
          1238.20170	         6.97250e+57
          1239.00800	         1.20849e+58
          1239.81430	         1.54619e+58
          1240.62060	         1.04629e+58
          1241.42690	         8.06036e+57
          1242.23320	         8.43249e+57
          1243.03950	         7.41760e+57
          1243.84580	         8.07097e+57
          1244.65210	         1.08800e+58
          1245.45840	         9.80055e+57
          1246.26470	         9.83648e+57
          1247.07100	         6.87126e+57
          1247.87730	         4.01109e+57
          1248.68360	         5.61578e+57
          1249.48990	         6.60978e+57
          1250.29620	         1.17451e+58
          1251.10250	         1.17584e+58
          1251.90880	         5.02713e+57
          1252.71510	         6.67965e+57
          1253.52140	         5.92371e+57
          1254.32770	         8.08712e+57
          1255.13400	         1.19853e+58
          1255.94030	         1.23809e+58
          1256.74660	         9.82014e+57
          1257.55290	         9.82077e+57
          1258.35920	         7.34981e+57
          1259.16550	         4.91027e+57
          1259.97180	         5.34738e+57
          1260.77810	         9.24907e+57
          1261.58440	         1.29357e+58
          1262.39070	         1.02004e+58
          1263.19700	         7.38434e+57
          1264.00330	         8.78036e+57
          1264.80960	         8.46455e+57
          1265.61590	         1.22112e+58
          1266.42220	         1.32848e+58
          1267.22850	         1.02955e+58
          1268.03480	         1.37584e+58
          1268.84110	         1.45543e+58
          1269.64740	         1.43780e+58
          1270.45370	         1.55987e+58
          1271.26000	         1.14518e+58
          1272.06630	         1.13117e+58
          1272.87260	         1.12903e+58
          1273.67890	         1.21938e+58
          1274.48520	         1.30262e+58
          1275.29150	         1.18061e+58
          1276.09780	         9.08535e+57
          1276.90410	         1.26222e+58
          1277.71040	         1.48219e+58
          1278.51670	         1.35697e+58
          1279.32300	         1.34119e+58
          1280.12930	         1.05929e+58
          1280.93560	         1.09822e+58
          1281.74190	         1.24536e+58
          1282.54820	         1.09933e+58
          1283.35450	         9.21283e+57
          1284.16080	         1.12078e+58
          1284.96710	         1.41457e+58
          1285.77340	         1.29654e+58
          1286.57970	         1.33913e+58
          1287.38600	         1.53030e+58
          1288.19230	         1.45767e+58
          1288.99860	         1.55441e+58
          1289.80490	         1.48152e+58
          1290.61120	         1.37213e+58
          1291.41750	         1.38635e+58
          1292.22380	         1.13396e+58
          1293.03010	         9.70449e+57
          1293.83640	         1.05282e+58
          1294.64270	         9.93267e+57
          1295.44900	         7.91246e+57
          1296.25530	         6.85533e+57
          1297.06160	         9.49808e+57
          1297.86790	         9.21274e+57
          1298.67420	         9.85072e+57
          1299.48050	         1.00230e+58
          1300.28680	         1.15638e+58
          1301.09310	         7.95204e+57
          1301.89940	         3.40979e+57
          1302.70570	         5.12736e+57
          1303.51200	         6.93168e+57
          1304.31830	         8.84593e+57
          1305.12460	         1.13527e+58
          1305.93090	         1.23193e+58
          1306.73720	         1.24020e+58
          1307.54350	         1.52862e+58
          1308.34980	         1.61919e+58
          1309.15610	         1.53527e+58
          1309.96240	         1.32283e+58
          1310.76870	         1.15751e+58
          1311.57500	         1.18798e+58
          1312.38130	         1.11116e+58
          1313.18760	         1.43331e+58
          1313.99390	         1.63205e+58
          1314.80020	         1.78281e+58
          1315.60650	         1.58097e+58
          1316.41280	         1.34193e+58
          1317.21910	         1.15023e+58
          1318.02540	         1.17887e+58
          1318.83170	         1.28518e+58
          1319.63800	         1.20002e+58
          1320.44430	         1.18371e+58
          1321.25060	         1.31658e+58
          1322.05690	         1.37126e+58
          1322.86320	         1.16729e+58
          1323.66950	         9.83689e+57
          1324.47580	         7.82463e+57
          1325.28210	         8.64868e+57
          1326.08840	         1.16493e+58
          1326.89470	         1.38993e+58
          1327.70100	         1.00110e+58
          1328.50730	         7.65098e+57
          1329.31360	         9.97062e+57
          1330.11990	         1.03462e+58
          1330.92620	         1.07961e+58
          1331.73250	         1.12403e+58
          1332.53880	         1.10635e+58
          1333.34510	         9.83944e+57
          1334.15140	         8.82667e+57
          1334.95770	         9.38546e+57
          1335.76400	         1.04792e+58
          1336.57030	         1.00832e+58
          1337.37660	         9.99025e+57
          1338.18290	         1.02418e+58
          1338.98920	         1.13246e+58
          1339.79550	         1.27269e+58
          1340.60180	         1.30029e+58
          1341.40810	         1.32052e+58
          1342.21440	         1.33239e+58
          1343.02070	         1.24753e+58
          1343.82700	         1.32576e+58
          1344.63330	         1.29325e+58
          1345.43960	         1.17632e+58
          1346.24590	         1.06631e+58
          1347.05220	         1.29812e+58
          1347.85850	         1.14631e+58
          1348.66480	         1.12334e+58
          1349.47110	         1.24851e+58
          1350.27740	         1.10656e+58
          1351.08370	         1.06539e+58
          1351.89000	         1.18728e+58
          1352.69630	         1.26810e+58
          1353.50260	         1.05795e+58
          1354.30890	         1.16356e+58
          1355.11520	         1.24044e+58
          1355.92150	         1.03656e+58
          1356.72780	         1.04761e+58
          1357.53410	         9.89965e+57
          1358.34040	         1.05651e+58
          1359.14670	         1.06239e+58
          1359.95300	         1.09277e+58
          1360.75930	         1.11434e+58
          1361.56560	         1.15104e+58
          1362.37190	         1.24822e+58
          1363.17820	         1.18340e+58
          1363.98450	         1.29333e+58
          1364.79080	         1.28827e+58
          1365.59710	         1.30462e+58
          1366.40340	         1.22589e+58
          1367.20970	         1.03832e+58
          1368.01600	         9.23023e+57
          1368.82230	         9.81213e+57
          1369.62860	         1.03801e+58
          1370.43490	         8.40600e+57
          1371.24120	         8.48516e+57
          1372.04750	         9.86058e+57
          1372.85380	         1.01835e+58
          1373.66010	         9.54627e+57
          1374.46640	         9.78313e+57
          1375.27270	         1.17222e+58
          1376.07900	         1.02643e+58
          1376.88530	         8.55263e+57
          1377.69160	         7.68519e+57
          1378.49790	         6.78542e+57
          1379.30420	         7.84200e+57
          1380.11050	         9.07633e+57
          1380.91680	         8.07491e+57
          1381.72310	         7.50605e+57
          1382.52940	         8.60749e+57
          1383.33570	         8.85970e+57
          1384.14200	         9.69063e+57
          1384.94830	         1.13018e+58
          1385.75460	         1.18384e+58
          1386.56090	         1.25918e+58
          1387.36720	         1.20243e+58
          1388.17350	         1.26560e+58
          1388.97980	         9.83844e+57
          1389.78610	         7.29629e+57
          1390.59240	         7.75645e+57
          1391.39870	         7.46709e+57
          1392.20500	         9.20614e+57
          1393.01130	         9.31949e+57
          1393.81760	         7.73301e+57
          1394.62390	         6.94270e+57
          1395.43020	         4.89809e+57
          1396.23650	         5.66582e+57
          1397.04280	         6.74858e+57
          1397.84910	         8.25877e+57
          1398.65540	         8.01242e+57
          1399.46170	         8.25647e+57
          1400.26800	         8.07245e+57
          1401.07430	         6.96604e+57
          1401.88060	         7.97827e+57
          1402.68690	         9.51634e+57
          1403.49320	         9.78993e+57
          1404.29950	         9.08586e+57
          1405.10580	         1.05586e+58
          1405.91210	         1.07109e+58
          1406.71840	         9.78910e+57
          1407.52470	         9.74834e+57
          1408.33100	         9.58476e+57
          1409.13730	         1.04716e+58
          1409.94360	         1.10087e+58
          1410.74990	         1.07659e+58
          1411.55620	         9.90307e+57
          1412.36250	         9.61888e+57
          1413.16880	         8.96786e+57
          1413.97510	         8.11503e+57
          1414.78140	         8.46369e+57
          1415.58770	         9.76890e+57
          1416.39400	         1.06563e+58
          1417.20030	         1.12537e+58
          1418.00660	         9.12025e+57
          1418.81290	         9.57292e+57
          1419.61920	         1.04112e+58
          1420.42550	         1.23829e+58
          1421.23180	         1.50014e+58
          1422.03810	         1.21609e+58
          1422.84440	         9.62490e+57
          1423.65070	         1.15575e+58
          1424.45700	         1.12098e+58
          1425.26330	         9.01819e+57
          1426.06960	         8.78954e+57
          1426.87590	         9.33293e+57
          1427.68220	         9.73467e+57
          1428.48850	         1.03704e+58
          1429.29480	         1.06546e+58
          1430.10110	         1.05895e+58
          1430.90740	         9.22928e+57
          1431.71370	         9.15591e+57
          1432.52000	         9.05583e+57
          1433.32630	         8.12472e+57
          1434.13260	         8.55099e+57
          1434.93890	         8.57517e+57
          1435.74520	         8.62094e+57
          1436.55150	         9.51831e+57
          1437.35780	         9.19668e+57
          1438.16410	         9.07602e+57
          1438.97040	         9.37706e+57
          1439.77670	         9.21614e+57
          1440.58300	         9.03616e+57
          1441.38930	         9.54761e+57
          1442.19560	         9.57356e+57
          1443.00190	         9.69323e+57
          1443.80820	         1.02422e+58
          1444.61450	         9.22800e+57
          1445.42080	         8.43913e+57
          1446.22710	         9.89520e+57
          1447.03340	         1.00690e+58
          1447.83970	         1.07553e+58
          1448.64600	         1.10732e+58
          1449.45230	         1.18197e+58
          1450.25860	         1.08136e+58
          1451.06490	         7.01038e+57
          1451.87120	         6.20366e+57
          1452.67750	         7.60511e+57
          1453.48380	         8.81687e+57
          1454.29010	         7.94329e+57
          1455.09640	         8.58463e+57
          1455.90270	         9.65103e+57
          1456.70900	         1.02940e+58
          1457.51530	         1.06931e+58
          1458.32160	         1.15817e+58
          1459.12790	         1.09985e+58
          1459.93420	         9.88126e+57
          1460.74050	         8.85197e+57
          1461.54680	         8.15411e+57
          1462.35310	         7.87684e+57
          1463.15940	         9.87702e+57
          1463.96570	         1.20915e+58
          1464.77200	         1.16371e+58
          1465.57830	         1.10275e+58
          1466.38460	         9.77613e+57
          1467.19090	         9.08316e+57
          1467.99720	         9.08492e+57
          1468.80350	         8.93926e+57
          1469.60980	         9.85874e+57
          1470.41610	         1.10025e+58
          1471.22240	         8.99229e+57
          1472.02870	         8.46129e+57
          1472.83500	         9.82053e+57
          1473.64130	         1.00814e+58
          1474.44760	         9.50873e+57
          1475.25390	         8.69367e+57
          1476.06020	         7.69614e+57
          1476.86650	         7.86803e+57
          1477.67280	         7.03155e+57
          1478.47910	         6.26126e+57
          1479.28540	         6.94745e+57
          1480.09170	         8.39413e+57
          1480.89800	         8.96891e+57
          1481.70430	         8.55346e+57
          1482.51060	         8.86452e+57
          1483.31690	         8.09946e+57
          1484.12320	         9.20073e+57
          1484.92950	         8.01129e+57
          1485.73580	         7.84522e+57
          1486.54210	         9.27991e+57
          1487.34840	         8.53025e+57
          1488.15470	         8.60749e+57
          1488.96100	         8.60462e+57
          1489.76730	         9.14461e+57
