#sample_375_stacked_spectrum_rest_UV-bands_median_H-alpha_noDC.txt
#median Lum: 1.70091e+42
#Rest-frame wavelength (A) | Luminosity (erg/s/A)
#
          1110.00000	         0.00000e+00
          1110.80630	         2.24328e+59
          1111.61260	         3.28074e+59
          1112.41890	         4.10103e+58
          1113.22520	        -2.00817e+59
          1114.03150	        -2.18193e+59
          1114.83780	         3.48273e+58
          1115.64410	         2.36137e+59
          1116.45040	         8.78947e+58
          1117.25670	         5.03777e+57
          1118.06300	         7.55156e+58
          1118.86930	        -4.08885e+58
          1119.67560	         2.63126e+58
          1120.48190	        -8.97253e+57
          1121.28820	        -9.58025e+58
          1122.09450	         6.12875e+58
          1122.90080	         5.75241e+58
          1123.70710	         9.26115e+58
          1124.51340	         9.46008e+58
          1125.31970	         5.99680e+58
          1126.12600	         8.58600e+58
          1126.93230	        -4.01123e+57
          1127.73860	        -4.80406e+58
          1128.54490	         3.49923e+56
          1129.35120	         1.56011e+58
          1130.15750	        -6.13504e+57
          1130.96380	        -1.61667e+58
          1131.77010	         5.21283e+58
          1132.57640	         4.72431e+58
          1133.38270	         3.88268e+58
          1134.18900	         6.57584e+56
          1134.99530	        -1.68995e+58
          1135.80160	        -2.86959e+57
          1136.60790	         2.95189e+58
          1137.41420	         3.55062e+57
          1138.22050	         3.34326e+58
          1139.02680	         3.14940e+58
          1139.83310	         1.47534e+58
          1140.63940	         9.76601e+57
          1141.44570	         1.38533e+57
          1142.25200	        -1.93910e+57
          1143.05830	         1.62494e+58
          1143.86460	         7.86477e+57
          1144.67090	         8.96166e+57
          1145.47720	         1.31352e+58
          1146.28350	        -9.86523e+56
          1147.08980	         2.16899e+58
          1147.89610	         2.03959e+58
          1148.70240	         1.81450e+58
          1149.50870	         3.34584e+58
          1150.31500	         1.53329e+58
          1151.12130	         1.21128e+58
          1151.92760	         9.83170e+56
          1152.73390	        -4.61875e+57
          1153.54020	         4.51458e+57
          1154.34650	         2.25347e+58
          1155.15280	         1.97335e+58
          1155.95910	         1.54528e+58
          1156.76540	         9.06269e+57
          1157.57170	         2.96307e+57
          1158.37800	         8.31404e+57
          1159.18430	        -2.33260e+57
          1159.99060	         5.25801e+57
          1160.79690	         9.19373e+57
          1161.60320	         4.61672e+57
          1162.40950	         1.20210e+58
          1163.21580	         1.13698e+58
          1164.02210	         1.10036e+58
          1164.82840	         1.84197e+58
          1165.63470	         2.28588e+58
          1166.44100	         2.74646e+58
          1167.24730	         1.74238e+58
          1168.05360	         6.78505e+57
          1168.85990	         3.09146e+57
          1169.66620	         8.70598e+57
          1170.47250	         1.18930e+58
          1171.27880	         9.38918e+57
          1172.08510	         1.61284e+58
          1172.89140	         1.72942e+58
          1173.69770	         4.85995e+57
          1174.50400	         1.19578e+58
          1175.31030	         1.90105e+58
          1176.11660	         1.55082e+58
          1176.92290	         1.86453e+58
          1177.72920	         1.26234e+58
          1178.53550	         2.04246e+57
          1179.34180	         7.25233e+55
          1180.14810	         9.22017e+57
          1180.95440	         1.37683e+58
          1181.76070	         7.92223e+57
          1182.56700	         5.38746e+57
          1183.37330	         5.49315e+57
          1184.17960	         1.20632e+58
          1184.98590	         1.53031e+58
          1185.79220	         9.51089e+57
          1186.59850	         8.31450e+57
          1187.40480	         9.66902e+57
          1188.21110	         1.29304e+58
          1189.01740	         9.46097e+57
          1189.82370	         6.90268e+57
          1190.63000	         1.15189e+58
          1191.43630	         1.34403e+58
          1192.24260	         6.87912e+57
          1193.04890	         1.09932e+58
          1193.85520	         1.34941e+58
          1194.66150	         4.23962e+57
          1195.46780	         9.67354e+57
          1196.27410	         1.08937e+58
          1197.08040	         7.39016e+57
          1197.88670	         1.00993e+58
          1198.69300	         1.25724e+58
          1199.49930	         1.45647e+58
          1200.30560	         9.01413e+57
          1201.11190	         6.07899e+57
          1201.91820	         7.72962e+57
          1202.72450	         9.67005e+57
          1203.53080	         1.53065e+58
          1204.33710	         1.11597e+58
          1205.14340	         3.47040e+57
          1205.94970	         7.98970e+57
          1206.75600	         9.58379e+57
          1207.56230	         7.13226e+57
          1208.36860	         8.89696e+57
          1209.17490	         4.48671e+57
          1209.98120	         7.01702e+57
          1210.78750	         8.81404e+57
          1211.59380	         9.13083e+57
          1212.40010	         1.84938e+58
          1213.20640	         2.00108e+58
          1214.01270	         2.00513e+58
          1214.81900	         2.64105e+58
          1215.62530	         4.34184e+58
          1216.43160	         8.60126e+58
          1217.23790	         1.48084e+59
          1218.04420	         1.15205e+59
          1218.85050	         8.63737e+58
          1219.65680	         5.37158e+58
          1220.46310	         3.32276e+58
          1221.26940	         2.49271e+58
          1222.07570	         1.24334e+58
          1222.88200	         1.16865e+58
          1223.68830	         1.19569e+58
          1224.49460	         7.67482e+57
          1225.30090	         6.55793e+57
          1226.10720	         8.63890e+57
          1226.91350	         8.66383e+57
          1227.71980	         1.13560e+58
          1228.52610	         1.03112e+58
          1229.33240	         7.53801e+57
          1230.13870	         7.11464e+57
          1230.94500	         9.11138e+57
          1231.75130	         8.80298e+57
          1232.55760	         8.27539e+57
          1233.36390	         8.22342e+57
          1234.17020	         9.18762e+57
          1234.97650	         7.90948e+57
          1235.78280	         7.02202e+57
          1236.58910	         8.72594e+57
          1237.39540	         9.61228e+57
          1238.20170	         1.00449e+58
          1239.00800	         1.25258e+58
          1239.81430	         1.21405e+58
          1240.62060	         1.02340e+58
          1241.42690	         1.00956e+58
          1242.23320	         1.32259e+58
          1243.03950	         9.66634e+57
          1243.84580	         7.39470e+57
          1244.65210	         7.46107e+57
          1245.45840	         9.25095e+57
          1246.26470	         1.00369e+58
          1247.07100	         9.69594e+57
          1247.87730	         8.85151e+57
          1248.68360	         4.56292e+57
          1249.48990	         7.91208e+57
          1250.29620	         1.19328e+58
          1251.10250	         9.74887e+57
          1251.90880	         3.62326e+57
          1252.71510	         4.55736e+57
          1253.52140	         8.03262e+57
          1254.32770	         1.03458e+58
          1255.13400	         1.42490e+58
          1255.94030	         1.30781e+58
          1256.74660	         1.06247e+58
          1257.55290	         1.09965e+58
          1258.35920	         7.11922e+57
          1259.16550	         4.82941e+57
          1259.97180	         4.05389e+57
          1260.77810	         8.01483e+57
          1261.58440	         1.08886e+58
          1262.39070	         6.07231e+57
          1263.19700	         7.77151e+57
          1264.00330	         1.03069e+58
          1264.80960	         1.11293e+58
          1265.61590	         1.19659e+58
          1266.42220	         1.15780e+58
          1267.22850	         1.13062e+58
          1268.03480	         1.32682e+58
          1268.84110	         1.49413e+58
          1269.64740	         1.30350e+58
          1270.45370	         1.54451e+58
          1271.26000	         1.39227e+58
          1272.06630	         1.23034e+58
          1272.87260	         1.44320e+58
          1273.67890	         1.12705e+58
          1274.48520	         9.96624e+57
          1275.29150	         1.28533e+58
          1276.09780	         1.07990e+58
          1276.90410	         1.40442e+58
          1277.71040	         1.49680e+58
          1278.51670	         1.43978e+58
          1279.32300	         1.50284e+58
          1280.12930	         1.37998e+58
          1280.93560	         9.40573e+57
          1281.74190	         9.21339e+57
          1282.54820	         1.07911e+58
          1283.35450	         1.12871e+58
          1284.16080	         1.04362e+58
          1284.96710	         1.45668e+58
          1285.77340	         1.45281e+58
          1286.57970	         9.93142e+57
          1287.38600	         1.38552e+58
          1288.19230	         1.91678e+58
          1288.99860	         1.63076e+58
          1289.80490	         9.98392e+57
          1290.61120	         1.15266e+58
          1291.41750	         1.40022e+58
          1292.22380	         1.24732e+58
          1293.03010	         1.22416e+58
          1293.83640	         1.28702e+58
          1294.64270	         9.86412e+57
          1295.44900	         6.11794e+57
          1296.25530	         6.19719e+57
          1297.06160	         8.97228e+57
          1297.86790	         9.62381e+57
          1298.67420	         8.87996e+57
          1299.48050	         1.01607e+58
          1300.28680	         1.07177e+58
          1301.09310	         7.82760e+57
          1301.89940	         3.42445e+57
          1302.70570	         4.28115e+57
          1303.51200	         5.83953e+57
          1304.31830	         8.39166e+57
          1305.12460	         9.76579e+57
          1305.93090	         1.11220e+58
          1306.73720	         1.33552e+58
          1307.54350	         1.42034e+58
          1308.34980	         1.41408e+58
          1309.15610	         1.57182e+58
          1309.96240	         1.42767e+58
          1310.76870	         1.29694e+58
          1311.57500	         1.33867e+58
          1312.38130	         1.27553e+58
          1313.18760	         1.01991e+58
          1313.99390	         1.10359e+58
          1314.80020	         1.53259e+58
          1315.60650	         1.64823e+58
          1316.41280	         1.45619e+58
          1317.21910	         1.19945e+58
          1318.02540	         1.38228e+58
          1318.83170	         1.41502e+58
          1319.63800	         1.26014e+58
          1320.44430	         9.88496e+57
          1321.25060	         1.06799e+58
          1322.05690	         1.29296e+58
          1322.86320	         1.26033e+58
          1323.66950	         1.16001e+58
          1324.47580	         1.11947e+58
          1325.28210	         1.04181e+58
          1326.08840	         1.13586e+58
          1326.89470	         1.24622e+58
          1327.70100	         1.22226e+58
          1328.50730	         8.81744e+57
          1329.31360	         7.79940e+57
          1330.11990	         9.73453e+57
          1330.92620	         1.03766e+58
          1331.73250	         1.19964e+58
          1332.53880	         1.15012e+58
          1333.34510	         8.61832e+57
          1334.15140	         8.63113e+57
          1334.95770	         9.12439e+57
          1335.76400	         1.14527e+58
          1336.57030	         1.12581e+58
          1337.37660	         9.64518e+57
          1338.18290	         1.06683e+58
          1338.98920	         1.13825e+58
          1339.79550	         1.04118e+58
          1340.60180	         1.20064e+58
          1341.40810	         1.37106e+58
          1342.21440	         1.11060e+58
          1343.02070	         1.22731e+58
          1343.82700	         1.61638e+58
          1344.63330	         1.39625e+58
          1345.43960	         1.50390e+58
          1346.24590	         1.24345e+58
          1347.05220	         1.01556e+58
          1347.85850	         1.03540e+58
          1348.66480	         1.08137e+58
          1349.47110	         1.24440e+58
          1350.27740	         1.19963e+58
          1351.08370	         1.17251e+58
          1351.89000	         1.12276e+58
          1352.69630	         1.09107e+58
          1353.50260	         1.12761e+58
          1354.30890	         1.11123e+58
          1355.11520	         1.20289e+58
          1355.92150	         1.06037e+58
          1356.72780	         9.65305e+57
          1357.53410	         1.14199e+58
          1358.34040	         1.26251e+58
          1359.14670	         1.07862e+58
          1359.95300	         1.06681e+58
          1360.75930	         1.21342e+58
          1361.56560	         1.21233e+58
          1362.37190	         1.11350e+58
          1363.17820	         1.05559e+58
          1363.98450	         1.16310e+58
          1364.79080	         1.20718e+58
          1365.59710	         1.30022e+58
          1366.40340	         1.25383e+58
          1367.20970	         1.24164e+58
          1368.01600	         1.15097e+58
          1368.82230	         9.85357e+57
          1369.62860	         1.02248e+58
          1370.43490	         1.02300e+58
          1371.24120	         9.45468e+57
          1372.04750	         9.21532e+57
          1372.85380	         1.14067e+58
          1373.66010	         1.18325e+58
          1374.46640	         1.07984e+58
          1375.27270	         9.14771e+57
          1376.07900	         7.97557e+57
          1376.88530	         9.00454e+57
          1377.69160	         9.34356e+57
          1378.49790	         7.84044e+57
          1379.30420	         8.50744e+57
          1380.11050	         1.00037e+58
          1380.91680	         8.96787e+57
          1381.72310	         8.66373e+57
          1382.52940	         1.01539e+58
          1383.33570	         9.57163e+57
          1384.14200	         9.42882e+57
          1384.94830	         9.72394e+57
          1385.75460	         1.01475e+58
          1386.56090	         1.21764e+58
          1387.36720	         1.13436e+58
          1388.17350	         1.21145e+58
          1388.97980	         1.18788e+58
          1389.78610	         1.00336e+58
          1390.59240	         8.31152e+57
          1391.39870	         7.97060e+57
          1392.20500	         8.73102e+57
          1393.01130	         9.49413e+57
          1393.81760	         8.42113e+57
          1394.62390	         5.75390e+57
          1395.43020	         5.59327e+57
          1396.23650	         7.27374e+57
          1397.04280	         8.85686e+57
          1397.84910	         9.19905e+57
          1398.65540	         8.21259e+57
          1399.46170	         8.96953e+57
          1400.26800	         7.97870e+57
          1401.07430	         7.32668e+57
          1401.88060	         7.69930e+57
          1402.68690	         9.34392e+57
          1403.49320	         1.01254e+58
          1404.29950	         9.75669e+57
          1405.10580	         1.12796e+58
          1405.91210	         1.09830e+58
          1406.71840	         1.05418e+58
          1407.52470	         1.03569e+58
          1408.33100	         9.39899e+57
          1409.13730	         1.04308e+58
          1409.94360	         1.26849e+58
          1410.74990	         1.26227e+58
          1411.55620	         9.77280e+57
          1412.36250	         8.60114e+57
          1413.16880	         9.00460e+57
          1413.97510	         8.55625e+57
          1414.78140	         8.36036e+57
          1415.58770	         1.03279e+58
          1416.39400	         1.17183e+58
          1417.20030	         1.17034e+58
          1418.00660	         1.01778e+58
          1418.81290	         1.08212e+58
          1419.61920	         1.15757e+58
          1420.42550	         1.35141e+58
          1421.23180	         1.33328e+58
          1422.03810	         1.15837e+58
          1422.84440	         1.06250e+58
          1423.65070	         1.18895e+58
          1424.45700	         1.12914e+58
          1425.26330	         9.16152e+57
          1426.06960	         9.11184e+57
          1426.87590	         1.06187e+58
          1427.68220	         1.04270e+58
          1428.48850	         1.04251e+58
          1429.29480	         1.02387e+58
          1430.10110	         1.00446e+58
          1430.90740	         9.39610e+57
          1431.71370	         9.11549e+57
          1432.52000	         9.01050e+57
          1433.32630	         8.18867e+57
          1434.13260	         7.62818e+57
          1434.93890	         7.23445e+57
          1435.74520	         8.75539e+57
          1436.55150	         1.00753e+58
          1437.35780	         9.43607e+57
          1438.16410	         9.62068e+57
          1438.97040	         8.43739e+57
          1439.77670	         8.41820e+57
          1440.58300	         9.61569e+57
          1441.38930	         9.39255e+57
          1442.19560	         8.64836e+57
          1443.00190	         8.27123e+57
          1443.80820	         9.80222e+57
          1444.61450	         1.00362e+58
          1445.42080	         1.00909e+58
          1446.22710	         1.13848e+58
          1447.03340	         1.01180e+58
          1447.83970	         1.08945e+58
          1448.64600	         1.08656e+58
          1449.45230	         9.78445e+57
          1450.25860	         1.07162e+58
          1451.06490	         9.19464e+57
          1451.87120	         8.26292e+57
          1452.67750	         8.39348e+57
          1453.48380	         8.95162e+57
          1454.29010	         7.86425e+57
          1455.09640	         7.49323e+57
          1455.90270	         9.29787e+57
          1456.70900	         1.04957e+58
          1457.51530	         1.09086e+58
          1458.32160	         1.22748e+58
          1459.12790	         1.09187e+58
          1459.93420	         8.90249e+57
          1460.74050	         9.08182e+57
          1461.54680	         8.21097e+57
          1462.35310	         7.00188e+57
          1463.15940	         8.11089e+57
          1463.96570	         1.15791e+58
          1464.77200	         1.24868e+58
          1465.57830	         1.05775e+58
          1466.38460	         8.66328e+57
          1467.19090	         8.26062e+57
          1467.99720	         9.01976e+57
          1468.80350	         9.80063e+57
          1469.60980	         9.46834e+57
          1470.41610	         9.69109e+57
          1471.22240	         8.08706e+57
          1472.02870	         8.33317e+57
          1472.83500	         9.53836e+57
          1473.64130	         9.77168e+57
          1474.44760	         9.08929e+57
          1475.25390	         8.93502e+57
          1476.06020	         9.64438e+57
          1476.86650	         8.70788e+57
          1477.67280	         7.64686e+57
          1478.47910	         7.35302e+57
          1479.28540	         6.37866e+57
          1480.09170	         7.55674e+57
          1480.89800	         8.68535e+57
          1481.70430	         8.64700e+57
          1482.51060	         7.97261e+57
          1483.31690	         6.75385e+57
          1484.12320	         7.41088e+57
          1484.92950	         7.36181e+57
          1485.73580	         7.78233e+57
          1486.54210	         8.32424e+57
          1487.34840	         9.34703e+57
          1488.15470	         9.11355e+57
          1488.96100	         9.32391e+57
          1489.76730	         8.93374e+57
