#sample_8_stacked_spectrum_rest_UV-bands_median_H-alpha_noDC.txt
#median Lum: 1.66785e+42
#Rest-frame wavelength (A) | Luminosity (erg/s/A)
#
          1110.00000	         0.00000e+00
          1110.80630	         2.40164e+59
          1111.61260	        -4.35952e+59
          1112.41890	        -1.97986e+58
          1113.22520	         1.28563e+59
          1114.03150	        -1.64568e+59
          1114.83780	         2.31400e+58
          1115.64410	         4.56767e+58
          1116.45040	         2.09437e+59
          1117.25670	         1.02587e+59
          1118.06300	         1.68217e+58
          1118.86930	        -1.08761e+58
          1119.67560	         5.81143e+58
          1120.48190	        -4.57423e+58
          1121.28820	        -7.50404e+58
          1122.09450	         8.18604e+58
          1122.90080	         6.80185e+58
          1123.70710	        -2.58852e+58
          1124.51340	         4.23998e+58
          1125.31970	         3.26372e+58
          1126.12600	         9.71090e+57
          1126.93230	        -3.71890e+58
          1127.73860	        -2.62840e+58
          1128.54490	        -1.52262e+58
          1129.35120	         2.68700e+58
          1130.15750	         1.81352e+58
          1130.96380	        -4.52642e+57
          1131.77010	         4.66809e+58
          1132.57640	         5.49155e+58
          1133.38270	         6.95170e+58
          1134.18900	         3.37007e+58
          1134.99530	         4.46525e+58
          1135.80160	         1.91774e+58
          1136.60790	         2.66033e+58
          1137.41420	         1.24400e+58
          1138.22050	         2.73570e+58
          1139.02680	         9.54885e+57
          1139.83310	        -1.96711e+57
          1140.63940	         2.83915e+58
          1141.44570	         2.13670e+57
          1142.25200	        -1.05779e+58
          1143.05830	         2.07869e+58
          1143.86460	         5.00352e+58
          1144.67090	         2.15126e+58
          1145.47720	         1.10164e+58
          1146.28350	         2.63483e+58
          1147.08980	         1.83144e+58
          1147.89610	         1.42987e+58
          1148.70240	         3.06872e+58
          1149.50870	         2.31742e+58
          1150.31500	         1.26611e+58
          1151.12130	        -4.65892e+57
          1151.92760	         1.92968e+57
          1152.73390	         2.69526e+57
          1153.54020	        -4.12383e+57
          1154.34650	         1.53935e+58
          1155.15280	         2.19341e+58
          1155.95910	         6.79131e+57
          1156.76540	         8.20639e+57
          1157.57170	         9.16682e+56
          1158.37800	        -8.37460e+57
          1159.18430	        -4.63991e+57
          1159.99060	         6.71691e+57
          1160.79690	         8.11368e+57
          1161.60320	         2.04781e+58
          1162.40950	         9.49718e+57
          1163.21580	         1.40791e+58
          1164.02210	         9.53778e+57
          1164.82840	         1.34448e+58
          1165.63470	         2.75569e+58
          1166.44100	         3.56789e+58
          1167.24730	         2.42815e+58
          1168.05360	         8.69691e+57
          1168.85990	         7.54995e+57
          1169.66620	         9.94700e+57
          1170.47250	         1.82280e+58
          1171.27880	         1.47117e+58
          1172.08510	         1.21090e+58
          1172.89140	         7.58253e+57
          1173.69770	         7.76261e+57
          1174.50400	         1.28501e+58
          1175.31030	         1.72518e+58
          1176.11660	         1.40778e+58
          1176.92290	         1.44053e+58
          1177.72920	         1.09839e+58
          1178.53550	         4.82399e+57
          1179.34180	         3.77945e+57
          1180.14810	         1.06680e+58
          1180.95440	         1.36321e+58
          1181.76070	         4.93249e+57
          1182.56700	         6.58814e+57
          1183.37330	         9.29559e+57
          1184.17960	         1.27896e+58
          1184.98590	         9.12792e+57
          1185.79220	         5.49499e+57
          1186.59850	         1.22523e+58
          1187.40480	         1.26973e+58
          1188.21110	         1.57281e+58
          1189.01740	         1.03063e+58
          1189.82370	         1.28256e+58
          1190.63000	         1.40565e+58
          1191.43630	         1.28659e+58
          1192.24260	         1.20251e+58
          1193.04890	         1.15094e+58
          1193.85520	         1.20948e+58
          1194.66150	         5.56872e+57
          1195.46780	         1.10207e+58
          1196.27410	         1.54196e+58
          1197.08040	         1.30010e+58
          1197.88670	         1.81006e+58
          1198.69300	         1.47126e+58
          1199.49930	         1.62259e+58
          1200.30560	         1.19690e+58
          1201.11190	         1.31396e+58
          1201.91820	         1.40492e+58
          1202.72450	         4.97556e+57
          1203.53080	         1.46228e+58
          1204.33710	         7.82106e+57
          1205.14340	         6.50071e+57
          1205.94970	         6.11905e+57
          1206.75600	         5.56952e+57
          1207.56230	         4.45311e+57
          1208.36860	         8.01652e+57
          1209.17490	         3.44297e+57
          1209.98120	         5.94716e+57
          1210.78750	         8.39358e+57
          1211.59380	         1.00834e+58
          1212.40010	         1.58841e+58
          1213.20640	         1.96892e+58
          1214.01270	         1.96262e+58
          1214.81900	         2.59349e+58
          1215.62530	         4.55323e+58
          1216.43160	         9.31825e+58
          1217.23790	         1.51425e+59
          1218.04420	         1.14353e+59
          1218.85050	         8.87319e+58
          1219.65680	         5.72708e+58
          1220.46310	         3.21064e+58
          1221.26940	         1.98995e+58
          1222.07570	         1.11859e+58
          1222.88200	         1.07434e+58
          1223.68830	         1.04862e+58
          1224.49460	         8.06379e+57
          1225.30090	         5.09073e+57
          1226.10720	         6.20235e+57
          1226.91350	         6.41637e+57
          1227.71980	         8.74022e+57
          1228.52610	         1.21623e+58
          1229.33240	         9.67809e+57
          1230.13870	         7.38689e+57
          1230.94500	         7.19166e+57
          1231.75130	         9.43441e+57
          1232.55760	         1.05861e+58
          1233.36390	         1.03732e+58
          1234.17020	         9.29608e+57
          1234.97650	         9.59598e+57
          1235.78280	         8.93362e+57
          1236.58910	         9.65935e+57
          1237.39540	         1.06207e+58
          1238.20170	         8.94842e+57
          1239.00800	         1.31842e+58
          1239.81430	         1.53941e+58
          1240.62060	         1.18293e+58
          1241.42690	         1.05445e+58
          1242.23320	         1.11701e+58
          1243.03950	         8.42941e+57
          1243.84580	         8.88771e+57
          1244.65210	         9.23642e+57
          1245.45840	         9.95932e+57
          1246.26470	         8.17513e+57
          1247.07100	         5.66664e+57
          1247.87730	         5.14905e+57
          1248.68360	         7.42207e+57
          1249.48990	         1.05317e+58
          1250.29620	         8.34836e+57
          1251.10250	         7.72470e+57
          1251.90880	         4.38191e+57
          1252.71510	         6.27645e+57
          1253.52140	         7.10690e+57
          1254.32770	         8.76403e+57
          1255.13400	         1.18818e+58
          1255.94030	         1.18849e+58
          1256.74660	         1.10372e+58
          1257.55290	         1.19551e+58
          1258.35920	         8.36042e+57
          1259.16550	         6.94490e+57
          1259.97180	         6.53955e+57
          1260.77810	         8.98237e+57
          1261.58440	         1.23944e+58
          1262.39070	         7.65691e+57
          1263.19700	         7.33832e+57
          1264.00330	         8.96368e+57
          1264.80960	         8.94112e+57
          1265.61590	         9.96662e+57
          1266.42220	         1.13110e+58
          1267.22850	         1.03666e+58
          1268.03480	         1.26051e+58
          1268.84110	         1.33394e+58
          1269.64740	         1.32918e+58
          1270.45370	         1.49575e+58
          1271.26000	         1.57845e+58
          1272.06630	         1.51209e+58
          1272.87260	         1.44548e+58
          1273.67890	         1.45680e+58
          1274.48520	         1.37150e+58
          1275.29150	         1.45933e+58
          1276.09780	         1.31177e+58
          1276.90410	         1.54242e+58
          1277.71040	         1.37304e+58
          1278.51670	         1.05261e+58
          1279.32300	         1.31902e+58
          1280.12930	         1.22628e+58
          1280.93560	         9.42015e+57
          1281.74190	         1.16221e+58
          1282.54820	         1.35752e+58
          1283.35450	         1.24979e+58
          1284.16080	         1.35648e+58
          1284.96710	         1.43622e+58
          1285.77340	         1.16465e+58
          1286.57970	         1.01244e+58
          1287.38600	         1.38754e+58
          1288.19230	         1.70549e+58
          1288.99860	         1.46112e+58
          1289.80490	         1.06894e+58
          1290.61120	         1.21771e+58
          1291.41750	         1.38650e+58
          1292.22380	         1.25436e+58
          1293.03010	         8.89324e+57
          1293.83640	         1.05968e+58
          1294.64270	         1.05291e+58
          1295.44900	         6.87486e+57
          1296.25530	         8.06874e+57
          1297.06160	         1.06647e+58
          1297.86790	         9.15111e+57
          1298.67420	         7.82862e+57
          1299.48050	         1.18513e+58
          1300.28680	         1.13396e+58
          1301.09310	         7.66349e+57
          1301.89940	         4.57764e+57
          1302.70570	         7.03126e+57
          1303.51200	         8.55212e+57
          1304.31830	         9.39716e+57
          1305.12460	         1.01705e+58
          1305.93090	         1.13615e+58
          1306.73720	         1.12733e+58
          1307.54350	         1.19084e+58
          1308.34980	         1.30137e+58
          1309.15610	         1.59385e+58
          1309.96240	         1.81109e+58
          1310.76870	         1.58325e+58
          1311.57500	         1.12371e+58
          1312.38130	         8.92689e+57
          1313.18760	         1.30136e+58
          1313.99390	         1.65875e+58
          1314.80020	         1.58915e+58
          1315.60650	         1.30508e+58
          1316.41280	         1.06852e+58
          1317.21910	         1.05058e+58
          1318.02540	         1.15664e+58
          1318.83170	         1.30520e+58
          1319.63800	         1.38194e+58
          1320.44430	         1.08469e+58
          1321.25060	         1.08728e+58
          1322.05690	         1.23281e+58
          1322.86320	         1.14532e+58
          1323.66950	         1.03136e+58
          1324.47580	         9.80074e+57
          1325.28210	         9.38614e+57
          1326.08840	         1.09236e+58
          1326.89470	         1.22941e+58
          1327.70100	         9.93302e+57
          1328.50730	         8.78170e+57
          1329.31360	         1.05750e+58
          1330.11990	         9.61314e+57
          1330.92620	         9.44258e+57
          1331.73250	         1.05785e+58
          1332.53880	         9.62372e+57
          1333.34510	         8.73103e+57
          1334.15140	         9.24638e+57
          1334.95770	         9.17333e+57
          1335.76400	         1.06145e+58
          1336.57030	         1.22238e+58
          1337.37660	         1.19370e+58
          1338.18290	         1.19443e+58
          1338.98920	         1.18561e+58
          1339.79550	         1.16991e+58
          1340.60180	         1.28336e+58
          1341.40810	         1.40519e+58
          1342.21440	         1.31760e+58
          1343.02070	         1.21534e+58
          1343.82700	         1.20230e+58
          1344.63330	         1.20000e+58
          1345.43960	         1.20079e+58
          1346.24590	         1.03899e+58
          1347.05220	         1.15433e+58
          1347.85850	         9.71699e+57
          1348.66480	         1.18176e+58
          1349.47110	         1.23586e+58
          1350.27740	         1.13770e+58
          1351.08370	         1.15329e+58
          1351.89000	         1.07197e+58
          1352.69630	         1.08958e+58
          1353.50260	         1.09187e+58
          1354.30890	         1.11774e+58
          1355.11520	         1.20357e+58
          1355.92150	         1.09240e+58
          1356.72780	         9.93791e+57
          1357.53410	         1.05655e+58
          1358.34040	         1.26078e+58
          1359.14670	         1.24032e+58
          1359.95300	         1.25375e+58
          1360.75930	         1.14498e+58
          1361.56560	         1.01807e+58
          1362.37190	         1.13501e+58
          1363.17820	         1.10050e+58
          1363.98450	         1.14387e+58
          1364.79080	         1.14941e+58
          1365.59710	         1.31534e+58
          1366.40340	         1.27390e+58
          1367.20970	         9.88560e+57
          1368.01600	         9.53519e+57
          1368.82230	         1.02799e+58
          1369.62860	         1.09557e+58
          1370.43490	         1.15475e+58
          1371.24120	         9.95589e+57
          1372.04750	         7.07113e+57
          1372.85380	         1.01579e+58
          1373.66010	         1.16640e+58
          1374.46640	         1.10067e+58
          1375.27270	         1.16255e+58
          1376.07900	         1.02470e+58
          1376.88530	         9.47464e+57
          1377.69160	         8.94639e+57
          1378.49790	         7.86102e+57
          1379.30420	         8.07659e+57
          1380.11050	         9.73957e+57
          1380.91680	         8.98156e+57
          1381.72310	         8.07973e+57
          1382.52940	         8.46225e+57
          1383.33570	         8.62919e+57
          1384.14200	         9.51394e+57
          1384.94830	         9.88065e+57
          1385.75460	         1.07884e+58
          1386.56090	         1.20415e+58
          1387.36720	         1.15087e+58
          1388.17350	         1.34909e+58
          1388.97980	         1.06068e+58
          1389.78610	         1.01473e+58
          1390.59240	         9.92823e+57
          1391.39870	         6.27401e+57
          1392.20500	         7.56651e+57
          1393.01130	         8.94006e+57
          1393.81760	         7.59227e+57
          1394.62390	         7.00857e+57
          1395.43020	         6.65365e+57
          1396.23650	         7.44639e+57
          1397.04280	         7.20217e+57
          1397.84910	         8.15863e+57
          1398.65540	         8.30573e+57
          1399.46170	         9.24366e+57
          1400.26800	         9.14654e+57
          1401.07430	         6.81189e+57
          1401.88060	         7.75184e+57
          1402.68690	         1.00118e+58
          1403.49320	         1.00744e+58
          1404.29950	         1.00370e+58
          1405.10580	         1.02076e+58
          1405.91210	         1.10823e+58
          1406.71840	         1.10137e+58
          1407.52470	         1.08141e+58
          1408.33100	         1.06927e+58
          1409.13730	         1.28961e+58
          1409.94360	         1.19965e+58
          1410.74990	         1.13950e+58
          1411.55620	         1.15029e+58
          1412.36250	         1.06542e+58
          1413.16880	         8.93086e+57
          1413.97510	         6.86609e+57
          1414.78140	         7.59481e+57
          1415.58770	         1.00910e+58
          1416.39400	         1.08564e+58
          1417.20030	         1.04808e+58
          1418.00660	         8.69221e+57
          1418.81290	         1.00699e+58
          1419.61920	         1.19506e+58
          1420.42550	         1.23001e+58
          1421.23180	         1.24437e+58
          1422.03810	         1.14905e+58
          1422.84440	         1.04029e+58
          1423.65070	         1.25049e+58
          1424.45700	         1.14436e+58
          1425.26330	         9.12847e+57
          1426.06960	         8.40792e+57
          1426.87590	         1.01591e+58
          1427.68220	         1.02184e+58
          1428.48850	         1.04865e+58
          1429.29480	         1.12243e+58
          1430.10110	         1.03021e+58
          1430.90740	         9.10385e+57
          1431.71370	         8.85933e+57
          1432.52000	         1.00922e+58
          1433.32630	         9.20395e+57
          1434.13260	         7.17546e+57
          1434.93890	         7.35475e+57
          1435.74520	         8.18224e+57
          1436.55150	         8.18083e+57
          1437.35780	         8.23330e+57
          1438.16410	         8.89677e+57
          1438.97040	         8.64097e+57
          1439.77670	         8.35834e+57
          1440.58300	         8.48526e+57
          1441.38930	         9.43426e+57
          1442.19560	         9.41224e+57
          1443.00190	         8.58966e+57
          1443.80820	         9.95445e+57
          1444.61450	         9.76457e+57
          1445.42080	         9.40886e+57
          1446.22710	         9.98711e+57
          1447.03340	         9.41162e+57
          1447.83970	         9.84555e+57
          1448.64600	         9.57080e+57
          1449.45230	         1.02127e+58
          1450.25860	         1.02619e+58
          1451.06490	         8.54278e+57
          1451.87120	         6.67069e+57
          1452.67750	         7.13461e+57
          1453.48380	         8.42289e+57
          1454.29010	         7.44727e+57
          1455.09640	         6.84821e+57
          1455.90270	         7.67707e+57
          1456.70900	         9.37501e+57
          1457.51530	         1.09783e+58
          1458.32160	         1.32282e+58
          1459.12790	         1.27683e+58
          1459.93420	         9.96089e+57
          1460.74050	         7.31587e+57
          1461.54680	         7.58501e+57
          1462.35310	         6.80866e+57
          1463.15940	         8.71870e+57
          1463.96570	         1.12425e+58
          1464.77200	         1.14521e+58
          1465.57830	         9.94820e+57
          1466.38460	         9.52782e+57
          1467.19090	         9.16250e+57
          1467.99720	         8.62059e+57
          1468.80350	         8.41776e+57
          1469.60980	         9.69046e+57
          1470.41610	         9.98124e+57
          1471.22240	         8.65102e+57
          1472.02870	         8.11503e+57
          1472.83500	         8.35383e+57
          1473.64130	         9.06561e+57
          1474.44760	         8.83464e+57
          1475.25390	         9.25826e+57
          1476.06020	         9.81504e+57
          1476.86650	         9.54080e+57
          1477.67280	         8.66470e+57
          1478.47910	         6.86396e+57
          1479.28540	         6.72238e+57
          1480.09170	         8.77575e+57
          1480.89800	         9.33503e+57
          1481.70430	         8.82100e+57
          1482.51060	         8.11403e+57
          1483.31690	         7.37846e+57
          1484.12320	         7.00011e+57
          1484.92950	         7.10365e+57
          1485.73580	         7.52363e+57
          1486.54210	         8.41642e+57
          1487.34840	         8.97185e+57
          1488.15470	         8.32602e+57
          1488.96100	         8.73891e+57
          1489.76730	         1.01887e+58
