#sample_380_stacked_spectrum_rest_UV-bands_median_H-alpha_noDC.txt
#median Lum: 1.67727e+42
#Rest-frame wavelength (A) | Luminosity (erg/s/A)
#
          1110.00000	         0.00000e+00
          1110.80630	        -1.67573e+59
          1111.61260	         4.26294e+58
          1112.41890	        -1.64300e+59
          1113.22520	        -2.26792e+59
          1114.03150	        -2.38458e+59
          1114.83780	         5.19155e+58
          1115.64410	         1.62817e+59
          1116.45040	         1.37798e+59
          1117.25670	         1.38853e+59
          1118.06300	         1.30285e+59
          1118.86930	        -5.98822e+57
          1119.67560	         1.09868e+59
          1120.48190	         1.00005e+59
          1121.28820	        -4.37960e+58
          1122.09450	        -7.10172e+58
          1122.90080	        -6.52616e+58
          1123.70710	         3.43825e+58
          1124.51340	         8.59803e+58
          1125.31970	        -3.06543e+58
          1126.12600	        -3.01874e+58
          1126.93230	        -4.72426e+58
          1127.73860	        -6.80410e+58
          1128.54490	        -1.88275e+58
          1129.35120	        -8.76517e+57
          1130.15750	        -3.28545e+58
          1130.96380	        -3.82964e+58
          1131.77010	         3.18884e+58
          1132.57640	         6.03112e+58
          1133.38270	         6.48542e+58
          1134.18900	         3.43193e+58
          1134.99530	         1.58631e+58
          1135.80160	         1.61902e+58
          1136.60790	         1.78359e+58
          1137.41420	        -1.32482e+58
          1138.22050	         3.56162e+58
          1139.02680	         1.41475e+58
          1139.83310	         2.25855e+58
          1140.63940	         2.12343e+58
          1141.44570	        -1.99078e+58
          1142.25200	        -3.19006e+57
          1143.05830	         1.16635e+58
          1143.86460	         2.65783e+58
          1144.67090	         2.55783e+58
          1145.47720	         1.78936e+58
          1146.28350	         2.44842e+58
          1147.08980	         2.30147e+58
          1147.89610	         1.33816e+58
          1148.70240	         6.47770e+57
          1149.50870	         2.14455e+58
          1150.31500	         2.35371e+58
          1151.12130	         1.01150e+58
          1151.92760	         1.75870e+56
          1152.73390	         7.12419e+57
          1153.54020	         4.61220e+57
          1154.34650	         1.87968e+58
          1155.15280	         2.48396e+58
          1155.95910	         1.10410e+58
          1156.76540	         7.68464e+57
          1157.57170	        -5.67803e+57
          1158.37800	        -9.64204e+57
          1159.18430	        -5.64540e+57
          1159.99060	         3.40082e+57
          1160.79690	         8.78826e+57
          1161.60320	         1.90563e+58
          1162.40950	         2.04505e+58
          1163.21580	         2.17727e+58
          1164.02210	         1.53402e+58
          1164.82840	         1.53544e+58
          1165.63470	         2.27167e+58
          1166.44100	         2.87620e+58
          1167.24730	         2.08314e+58
          1168.05360	         6.59046e+57
          1168.85990	         4.41765e+57
          1169.66620	        -5.18691e+56
          1170.47250	         2.68996e+57
          1171.27880	         6.98492e+57
          1172.08510	         1.23532e+58
          1172.89140	         3.63442e+57
          1173.69770	         6.05608e+57
          1174.50400	         5.50194e+57
          1175.31030	         1.14693e+58
          1176.11660	         1.97939e+58
          1176.92290	         1.90208e+58
          1177.72920	         1.39296e+58
          1178.53550	         1.07529e+58
          1179.34180	         3.98735e+57
          1180.14810	         2.07816e+57
          1180.95440	         9.31325e+57
          1181.76070	         1.14838e+58
          1182.56700	         7.91054e+57
          1183.37330	         7.00337e+57
          1184.17960	         1.29509e+58
          1184.98590	         1.03942e+58
          1185.79220	         4.94734e+57
          1186.59850	         1.51165e+58
          1187.40480	         1.15754e+58
          1188.21110	         1.00953e+58
          1189.01740	         1.25885e+58
          1189.82370	         1.11650e+58
          1190.63000	         1.00295e+58
          1191.43630	         1.30932e+58
          1192.24260	         1.25775e+58
          1193.04890	         9.99985e+57
          1193.85520	         9.20314e+57
          1194.66150	         5.90772e+57
          1195.46780	         8.60484e+57
          1196.27410	         8.60187e+57
          1197.08040	         6.40998e+57
          1197.88670	         1.23879e+58
          1198.69300	         1.14528e+58
          1199.49930	         1.19918e+58
          1200.30560	         1.27246e+58
          1201.11190	         1.16798e+58
          1201.91820	         9.28211e+57
          1202.72450	         4.99494e+57
          1203.53080	         1.39334e+58
          1204.33710	         7.13717e+57
          1205.14340	         5.41327e+57
          1205.94970	         8.31080e+57
          1206.75600	         5.96427e+57
          1207.56230	         4.26411e+57
          1208.36860	         8.73470e+57
          1209.17490	         3.53962e+57
          1209.98120	         6.68854e+57
          1210.78750	         4.61638e+57
          1211.59380	         1.24407e+58
          1212.40010	         1.79415e+58
          1213.20640	         1.90891e+58
          1214.01270	         1.87248e+58
          1214.81900	         2.57905e+58
          1215.62530	         4.49773e+58
          1216.43160	         8.91351e+58
          1217.23790	         1.51345e+59
          1218.04420	         1.16556e+59
          1218.85050	         8.87695e+58
          1219.65680	         5.70183e+58
          1220.46310	         3.30086e+58
          1221.26940	         2.62217e+58
          1222.07570	         1.49856e+58
          1222.88200	         1.13104e+58
          1223.68830	         8.49197e+57
          1224.49460	         7.05440e+57
          1225.30090	         8.05653e+57
          1226.10720	         7.86780e+57
          1226.91350	         6.90621e+57
          1227.71980	         1.06503e+58
          1228.52610	         1.49472e+58
          1229.33240	         7.83754e+57
          1230.13870	         7.22463e+57
          1230.94500	         6.90325e+57
          1231.75130	         4.83611e+57
          1232.55760	         6.76994e+57
          1233.36390	         1.02657e+58
          1234.17020	         9.75142e+57
          1234.97650	         6.89546e+57
          1235.78280	         8.37532e+57
          1236.58910	         1.01047e+58
          1237.39540	         1.04460e+58
          1238.20170	         1.04706e+58
          1239.00800	         9.69219e+57
          1239.81430	         1.17953e+58
          1240.62060	         1.21776e+58
          1241.42690	         1.01168e+58
          1242.23320	         9.40913e+57
          1243.03950	         6.46239e+57
          1243.84580	         9.18474e+57
          1244.65210	         1.14845e+58
          1245.45840	         1.21490e+58
          1246.26470	         1.22965e+58
          1247.07100	         9.48775e+57
          1247.87730	         5.58281e+57
          1248.68360	         3.67162e+57
          1249.48990	         8.55563e+57
          1250.29620	         8.71558e+57
          1251.10250	         6.05074e+57
          1251.90880	         4.42352e+57
          1252.71510	         2.74805e+57
          1253.52140	         5.07043e+57
          1254.32770	         1.17763e+58
          1255.13400	         1.41855e+58
          1255.94030	         1.17206e+58
          1256.74660	         1.14122e+58
          1257.55290	         1.20789e+58
          1258.35920	         6.87506e+57
          1259.16550	         3.66732e+57
          1259.97180	         4.74313e+57
          1260.77810	         8.04842e+57
          1261.58440	         1.01513e+58
          1262.39070	         9.22030e+57
          1263.19700	         7.87932e+57
          1264.00330	         8.19931e+57
          1264.80960	         1.06749e+58
          1265.61590	         1.28358e+58
          1266.42220	         1.11210e+58
          1267.22850	         1.10720e+58
          1268.03480	         1.29536e+58
          1268.84110	         1.26131e+58
          1269.64740	         1.13393e+58
          1270.45370	         1.36130e+58
          1271.26000	         1.05219e+58
          1272.06630	         1.05935e+58
          1272.87260	         1.28200e+58
          1273.67890	         1.27862e+58
          1274.48520	         1.36206e+58
          1275.29150	         1.31858e+58
          1276.09780	         1.05131e+58
          1276.90410	         1.26991e+58
          1277.71040	         1.24735e+58
          1278.51670	         1.14328e+58
          1279.32300	         1.12175e+58
          1280.12930	         1.19507e+58
          1280.93560	         1.17742e+58
          1281.74190	         1.11520e+58
          1282.54820	         1.06507e+58
          1283.35450	         1.18032e+58
          1284.16080	         1.34641e+58
          1284.96710	         1.53091e+58
          1285.77340	         1.43768e+58
          1286.57970	         1.12672e+58
          1287.38600	         1.39650e+58
          1288.19230	         1.72007e+58
          1288.99860	         1.54149e+58
          1289.80490	         1.08003e+58
          1290.61120	         1.17475e+58
          1291.41750	         1.23168e+58
          1292.22380	         1.02624e+58
          1293.03010	         9.97628e+57
          1293.83640	         1.04494e+58
          1294.64270	         9.77779e+57
          1295.44900	         7.33064e+57
          1296.25530	         8.21958e+57
          1297.06160	         1.09215e+58
          1297.86790	         9.77252e+57
          1298.67420	         9.58979e+57
          1299.48050	         1.07083e+58
          1300.28680	         1.14338e+58
          1301.09310	         9.33712e+57
          1301.89940	         4.43392e+57
          1302.70570	         6.69177e+57
          1303.51200	         8.68769e+57
          1304.31830	         9.86040e+57
          1305.12460	         1.09791e+58
          1305.93090	         1.09153e+58
          1306.73720	         1.30480e+58
          1307.54350	         1.34540e+58
          1308.34980	         1.39329e+58
          1309.15610	         1.62728e+58
          1309.96240	         1.65148e+58
          1310.76870	         1.56987e+58
          1311.57500	         1.28918e+58
          1312.38130	         1.16146e+58
          1313.18760	         1.29216e+58
          1313.99390	         1.63976e+58
          1314.80020	         1.72992e+58
          1315.60650	         1.46843e+58
          1316.41280	         1.26348e+58
          1317.21910	         9.99578e+57
          1318.02540	         1.05866e+58
          1318.83170	         1.11096e+58
          1319.63800	         1.18970e+58
          1320.44430	         1.19125e+58
          1321.25060	         1.33649e+58
          1322.05690	         1.27842e+58
          1322.86320	         1.22117e+58
          1323.66950	         1.12544e+58
          1324.47580	         9.51734e+57
          1325.28210	         1.00271e+58
          1326.08840	         1.16375e+58
          1326.89470	         1.18683e+58
          1327.70100	         1.04205e+58
          1328.50730	         9.25475e+57
          1329.31360	         9.36754e+57
          1330.11990	         9.04749e+57
          1330.92620	         9.55974e+57
          1331.73250	         1.12365e+58
          1332.53880	         1.13243e+58
          1333.34510	         8.54036e+57
          1334.15140	         8.56758e+57
          1334.95770	         8.61319e+57
          1335.76400	         9.95396e+57
          1336.57030	         1.13031e+58
          1337.37660	         1.03661e+58
          1338.18290	         1.01179e+58
          1338.98920	         1.14250e+58
          1339.79550	         1.16554e+58
          1340.60180	         1.28971e+58
          1341.40810	         1.28856e+58
          1342.21440	         1.16637e+58
          1343.02070	         1.22154e+58
          1343.82700	         1.43138e+58
          1344.63330	         1.30139e+58
          1345.43960	         1.24843e+58
          1346.24590	         1.30933e+58
          1347.05220	         1.29591e+58
          1347.85850	         1.10473e+58
          1348.66480	         9.97603e+57
          1349.47110	         1.10725e+58
          1350.27740	         1.04359e+58
          1351.08370	         1.00616e+58
          1351.89000	         1.08301e+58
          1352.69630	         1.11344e+58
          1353.50260	         1.17798e+58
          1354.30890	         1.32392e+58
          1355.11520	         1.25911e+58
          1355.92150	         1.15413e+58
          1356.72780	         1.05185e+58
          1357.53410	         9.29607e+57
          1358.34040	         9.69781e+57
          1359.14670	         9.44125e+57
          1359.95300	         1.03577e+58
          1360.75930	         1.14086e+58
          1361.56560	         1.05122e+58
          1362.37190	         1.16960e+58
          1363.17820	         1.17077e+58
          1363.98450	         1.15144e+58
          1364.79080	         1.34006e+58
          1365.59710	         1.38251e+58
          1366.40340	         1.29595e+58
          1367.20970	         1.03915e+58
          1368.01600	         1.10581e+58
          1368.82230	         9.97799e+57
          1369.62860	         9.55462e+57
          1370.43490	         7.85054e+57
          1371.24120	         9.73022e+57
          1372.04750	         9.00158e+57
          1372.85380	         9.28738e+57
          1373.66010	         1.11390e+58
          1374.46640	         1.13594e+58
          1375.27270	         1.07873e+58
          1376.07900	         8.34162e+57
          1376.88530	         8.22488e+57
          1377.69160	         9.31055e+57
          1378.49790	         7.33092e+57
          1379.30420	         6.48964e+57
          1380.11050	         7.66129e+57
          1380.91680	         6.96982e+57
          1381.72310	         7.56489e+57
          1382.52940	         8.58844e+57
          1383.33570	         8.36630e+57
          1384.14200	         9.04049e+57
          1384.94830	         1.02792e+58
          1385.75460	         9.57162e+57
          1386.56090	         1.01225e+58
          1387.36720	         1.15137e+58
          1388.17350	         1.38657e+58
          1388.97980	         1.12499e+58
          1389.78610	         9.00173e+57
          1390.59240	         8.20583e+57
          1391.39870	         7.47584e+57
          1392.20500	         7.78473e+57
          1393.01130	         6.45104e+57
          1393.81760	         6.42936e+57
          1394.62390	         7.20573e+57
          1395.43020	         6.66699e+57
          1396.23650	         7.41772e+57
          1397.04280	         7.40393e+57
          1397.84910	         8.12215e+57
          1398.65540	         9.33174e+57
          1399.46170	         1.10375e+58
          1400.26800	         9.66188e+57
          1401.07430	         7.88681e+57
          1401.88060	         8.72196e+57
          1402.68690	         9.45086e+57
          1403.49320	         8.44655e+57
          1404.29950	         8.66218e+57
          1405.10580	         1.14124e+58
          1405.91210	         1.22954e+58
          1406.71840	         1.12115e+58
          1407.52470	         1.10209e+58
          1408.33100	         1.05085e+58
          1409.13730	         1.04744e+58
          1409.94360	         1.16124e+58
          1410.74990	         1.08871e+58
          1411.55620	         8.88665e+57
          1412.36250	         9.45144e+57
          1413.16880	         8.60715e+57
          1413.97510	         7.95518e+57
          1414.78140	         8.09885e+57
          1415.58770	         9.50245e+57
          1416.39400	         1.22240e+58
          1417.20030	         1.28446e+58
          1418.00660	         1.14579e+58
          1418.81290	         1.09129e+58
          1419.61920	         1.10947e+58
          1420.42550	         1.22803e+58
          1421.23180	         1.28199e+58
          1422.03810	         1.23356e+58
          1422.84440	         1.05381e+58
          1423.65070	         1.15486e+58
          1424.45700	         1.11445e+58
          1425.26330	         9.62118e+57
          1426.06960	         9.92319e+57
          1426.87590	         9.63948e+57
          1427.68220	         9.56251e+57
          1428.48850	         1.16696e+58
          1429.29480	         1.21660e+58
          1430.10110	         9.99239e+57
          1430.90740	         7.61578e+57
          1431.71370	         7.34619e+57
          1432.52000	         8.91947e+57
          1433.32630	         8.15139e+57
          1434.13260	         8.05343e+57
          1434.93890	         8.67120e+57
          1435.74520	         9.06939e+57
          1436.55150	         9.78116e+57
          1437.35780	         8.94100e+57
          1438.16410	         9.06617e+57
          1438.97040	         9.18921e+57
          1439.77670	         9.48183e+57
          1440.58300	         9.13441e+57
          1441.38930	         8.80026e+57
          1442.19560	         8.89419e+57
          1443.00190	         9.61344e+57
          1443.80820	         1.14871e+58
          1444.61450	         1.01618e+58
          1445.42080	         8.35453e+57
          1446.22710	         1.01878e+58
          1447.03340	         1.06751e+58
          1447.83970	         1.04773e+58
          1448.64600	         1.04678e+58
          1449.45230	         1.08187e+58
          1450.25860	         1.11531e+58
          1451.06490	         8.67047e+57
          1451.87120	         7.57292e+57
          1452.67750	         7.67421e+57
          1453.48380	         9.17019e+57
          1454.29010	         8.12919e+57
          1455.09640	         7.47470e+57
          1455.90270	         8.39323e+57
          1456.70900	         8.90418e+57
          1457.51530	         1.07736e+58
          1458.32160	         1.22372e+58
          1459.12790	         1.05018e+58
          1459.93420	         1.01545e+58
          1460.74050	         9.80153e+57
          1461.54680	         8.31382e+57
          1462.35310	         7.54227e+57
          1463.15940	         9.56276e+57
          1463.96570	         1.06927e+58
          1464.77200	         1.23704e+58
          1465.57830	         1.06678e+58
          1466.38460	         8.39571e+57
          1467.19090	         8.29380e+57
          1467.99720	         9.12488e+57
          1468.80350	         9.37064e+57
          1469.60980	         1.09515e+58
          1470.41610	         1.20025e+58
          1471.22240	         8.37627e+57
          1472.02870	         8.57566e+57
          1472.83500	         1.01779e+58
          1473.64130	         8.85429e+57
          1474.44760	         8.79501e+57
          1475.25390	         9.05722e+57
          1476.06020	         8.74063e+57
          1476.86650	         8.44915e+57
          1477.67280	         8.39416e+57
          1478.47910	         7.24045e+57
          1479.28540	         7.45442e+57
          1480.09170	         8.11473e+57
          1480.89800	         7.61997e+57
          1481.70430	         8.59497e+57
          1482.51060	         8.57735e+57
          1483.31690	         7.62162e+57
          1484.12320	         7.44939e+57
          1484.92950	         7.12299e+57
          1485.73580	         7.75727e+57
          1486.54210	         9.17194e+57
          1487.34840	         7.27322e+57
          1488.15470	         7.57716e+57
          1488.96100	         8.38870e+57
          1489.76730	         8.41802e+57
