#sample_163_stacked_spectrum_rest_UV-bands_median_H-alpha_noDC.txt
#median Lum: 1.67925e+42
#Rest-frame wavelength (A) | Luminosity (erg/s/A)
#
          1110.00000	         0.00000e+00
          1110.80630	         2.01644e+58
          1111.61260	         3.19754e+59
          1112.41890	         2.31347e+59
          1113.22520	        -1.27439e+59
          1114.03150	        -1.27901e+59
          1114.83780	         1.98637e+59
          1115.64410	         1.46328e+59
          1116.45040	        -8.17650e+58
          1117.25670	         2.05538e+58
          1118.06300	        -4.69727e+58
          1118.86930	        -2.81350e+58
          1119.67560	         1.26639e+59
          1120.48190	        -1.61981e+58
          1121.28820	        -1.79293e+59
          1122.09450	        -2.96244e+58
          1122.90080	        -1.99093e+58
          1123.70710	         5.73249e+58
          1124.51340	         7.76491e+58
          1125.31970	         2.68989e+58
          1126.12600	         3.30402e+58
          1126.93230	        -4.23146e+58
          1127.73860	        -9.05742e+58
          1128.54490	         2.46711e+58
          1129.35120	         3.02456e+58
          1130.15750	        -8.65652e+57
          1130.96380	        -1.39045e+57
          1131.77010	         2.75042e+58
          1132.57640	         3.14491e+58
          1133.38270	         3.13813e+58
          1134.18900	         1.54565e+58
          1134.99530	         4.33142e+57
          1135.80160	         3.21320e+58
          1136.60790	         4.04963e+58
          1137.41420	         1.93786e+58
          1138.22050	         5.68024e+58
          1139.02680	         2.47702e+58
          1139.83310	         1.59992e+57
          1140.63940	         2.63032e+58
          1141.44570	        -2.48652e+57
          1142.25200	        -8.49063e+57
          1143.05830	         1.28404e+58
          1143.86460	         2.35810e+58
          1144.67090	         2.49298e+58
          1145.47720	         1.13730e+58
          1146.28350	         2.52545e+58
          1147.08980	         1.72506e+58
          1147.89610	         1.11665e+58
          1148.70240	         2.50857e+58
          1149.50870	         3.09742e+58
          1150.31500	         1.37436e+58
          1151.12130	         9.59795e+57
          1151.92760	         7.39290e+57
          1152.73390	         9.81170e+57
          1153.54020	         2.67969e+57
          1154.34650	         1.77111e+58
          1155.15280	         2.25864e+58
          1155.95910	         1.45782e+58
          1156.76540	         6.25055e+57
          1157.57170	        -3.59709e+57
          1158.37800	         1.77907e+57
          1159.18430	        -2.55976e+57
          1159.99060	         8.51545e+57
          1160.79690	        -3.90774e+57
          1161.60320	         6.78746e+57
          1162.40950	         1.75922e+58
          1163.21580	         1.52903e+58
          1164.02210	         1.00471e+58
          1164.82840	         5.21469e+57
          1165.63470	         1.96662e+58
          1166.44100	         2.34891e+58
          1167.24730	         1.58427e+58
          1168.05360	         4.27799e+57
          1168.85990	         8.19056e+57
          1169.66620	         5.86887e+57
          1170.47250	         1.90004e+58
          1171.27880	         9.62294e+57
          1172.08510	         1.33886e+58
          1172.89140	         9.08969e+57
          1173.69770	         9.64108e+57
          1174.50400	         1.76497e+58
          1175.31030	         1.95561e+58
          1176.11660	         1.33956e+58
          1176.92290	         1.28447e+58
          1177.72920	         1.65743e+58
          1178.53550	         7.95820e+57
          1179.34180	        -4.51792e+56
          1180.14810	         6.22015e+57
          1180.95440	         1.05754e+58
          1181.76070	         6.78318e+57
          1182.56700	         7.81195e+57
          1183.37330	         9.11448e+57
          1184.17960	         1.33573e+58
          1184.98590	         9.20002e+57
          1185.79220	         4.58754e+57
          1186.59850	         1.43560e+58
          1187.40480	         1.63875e+58
          1188.21110	         1.80328e+58
          1189.01740	         1.16729e+58
          1189.82370	         1.41949e+58
          1190.63000	         1.23787e+58
          1191.43630	         1.30989e+58
          1192.24260	         1.06842e+58
          1193.04890	         1.11131e+58
          1193.85520	         1.10908e+58
          1194.66150	         6.17350e+57
          1195.46780	         1.02416e+58
          1196.27410	         1.33833e+58
          1197.08040	         7.31130e+57
          1197.88670	         1.06299e+58
          1198.69300	         1.48668e+58
          1199.49930	         1.34418e+58
          1200.30560	         1.05905e+58
          1201.11190	         8.78109e+57
          1201.91820	         9.07309e+57
          1202.72450	         8.77623e+57
          1203.53080	         9.45738e+57
          1204.33710	         1.06163e+58
          1205.14340	         1.06757e+58
          1205.94970	         8.07691e+57
          1206.75600	         4.81116e+57
          1207.56230	         5.47020e+57
          1208.36860	         8.13701e+57
          1209.17490	         3.35011e+57
          1209.98120	         7.73597e+57
          1210.78750	         7.31380e+57
          1211.59380	         1.48986e+58
          1212.40010	         2.00234e+58
          1213.20640	         2.13409e+58
          1214.01270	         2.03500e+58
          1214.81900	         2.45449e+58
          1215.62530	         4.34544e+58
          1216.43160	         9.15699e+58
          1217.23790	         1.49569e+59
          1218.04420	         1.12286e+59
          1218.85050	         8.44688e+58
          1219.65680	         5.53880e+58
          1220.46310	         3.26295e+58
          1221.26940	         2.06416e+58
          1222.07570	         1.11687e+58
          1222.88200	         8.41533e+57
          1223.68830	         9.59357e+57
          1224.49460	         9.44843e+57
          1225.30090	         5.82426e+57
          1226.10720	         5.59316e+57
          1226.91350	         7.67216e+57
          1227.71980	         1.01682e+58
          1228.52610	         1.07010e+58
          1229.33240	         7.47405e+57
          1230.13870	         9.91243e+57
          1230.94500	         1.11890e+58
          1231.75130	         6.39800e+57
          1232.55760	         1.14000e+58
          1233.36390	         9.69999e+57
          1234.17020	         6.06572e+57
          1234.97650	         5.49757e+57
          1235.78280	         7.66410e+57
          1236.58910	         7.37371e+57
          1237.39540	         1.08941e+58
          1238.20170	         1.08023e+58
          1239.00800	         1.16009e+58
          1239.81430	         1.49762e+58
          1240.62060	         1.28184e+58
          1241.42690	         1.16598e+58
          1242.23320	         1.25997e+58
          1243.03950	         9.61475e+57
          1243.84580	         1.07058e+58
          1244.65210	         1.11984e+58
          1245.45840	         1.03182e+58
          1246.26470	         7.74097e+57
          1247.07100	         7.24066e+57
          1247.87730	         8.20798e+57
          1248.68360	         4.03048e+57
          1249.48990	         1.06461e+58
          1250.29620	         1.40654e+58
          1251.10250	         9.51805e+57
          1251.90880	         5.18221e+57
          1252.71510	         7.15889e+57
          1253.52140	         8.02621e+57
          1254.32770	         1.01474e+58
          1255.13400	         1.13591e+58
          1255.94030	         9.85875e+57
          1256.74660	         1.15770e+58
          1257.55290	         1.14708e+58
          1258.35920	         7.43890e+57
          1259.16550	         4.12048e+57
          1259.97180	         4.38293e+57
          1260.77810	         7.60518e+57
          1261.58440	         9.55209e+57
          1262.39070	         6.38583e+57
          1263.19700	         6.25973e+57
          1264.00330	         1.07280e+58
          1264.80960	         1.28064e+58
          1265.61590	         1.22315e+58
          1266.42220	         1.09010e+58
          1267.22850	         1.28700e+58
          1268.03480	         1.53442e+58
          1268.84110	         1.57910e+58
          1269.64740	         1.50218e+58
          1270.45370	         1.51947e+58
          1271.26000	         1.36202e+58
          1272.06630	         1.26105e+58
          1272.87260	         1.11027e+58
          1273.67890	         1.24725e+58
          1274.48520	         1.27373e+58
          1275.29150	         1.27561e+58
          1276.09780	         1.31200e+58
          1276.90410	         1.40751e+58
          1277.71040	         1.27862e+58
          1278.51670	         1.31502e+58
          1279.32300	         1.43215e+58
          1280.12930	         1.21997e+58
          1280.93560	         1.04639e+58
          1281.74190	         1.06852e+58
          1282.54820	         1.05458e+58
          1283.35450	         1.03577e+58
          1284.16080	         1.05063e+58
          1284.96710	         1.23269e+58
          1285.77340	         1.11289e+58
          1286.57970	         1.28329e+58
          1287.38600	         1.46337e+58
          1288.19230	         1.70970e+58
          1288.99860	         1.52936e+58
          1289.80490	         1.00736e+58
          1290.61120	         1.16167e+58
          1291.41750	         1.40923e+58
          1292.22380	         1.14076e+58
          1293.03010	         1.09206e+58
          1293.83640	         1.18419e+58
          1294.64270	         8.79977e+57
          1295.44900	         5.05175e+57
          1296.25530	         4.98006e+57
          1297.06160	         9.19737e+57
          1297.86790	         1.08245e+58
          1298.67420	         9.03026e+57
          1299.48050	         8.20458e+57
          1300.28680	         8.09410e+57
          1301.09310	         7.58033e+57
          1301.89940	         3.71616e+57
          1302.70570	         6.16197e+57
          1303.51200	         7.28856e+57
          1304.31830	         8.26418e+57
          1305.12460	         1.00407e+58
          1305.93090	         1.06892e+58
          1306.73720	         1.24151e+58
          1307.54350	         1.39880e+58
          1308.34980	         1.44185e+58
          1309.15610	         1.53439e+58
          1309.96240	         1.36854e+58
          1310.76870	         1.15623e+58
          1311.57500	         1.11332e+58
          1312.38130	         1.36295e+58
          1313.18760	         1.52699e+58
          1313.99390	         1.64210e+58
          1314.80020	         1.44825e+58
          1315.60650	         1.23907e+58
          1316.41280	         1.12616e+58
          1317.21910	         1.17864e+58
          1318.02540	         1.28472e+58
          1318.83170	         1.18518e+58
          1319.63800	         1.12110e+58
          1320.44430	         1.06861e+58
          1321.25060	         1.10154e+58
          1322.05690	         1.19274e+58
          1322.86320	         1.23972e+58
          1323.66950	         1.21283e+58
          1324.47580	         9.66505e+57
          1325.28210	         1.01232e+58
          1326.08840	         1.06281e+58
          1326.89470	         1.02897e+58
          1327.70100	         8.56385e+57
          1328.50730	         7.56033e+57
          1329.31360	         9.42792e+57
          1330.11990	         9.29862e+57
          1330.92620	         9.20793e+57
          1331.73250	         1.05910e+58
          1332.53880	         9.73839e+57
          1333.34510	         8.38914e+57
          1334.15140	         8.28289e+57
          1334.95770	         8.96354e+57
          1335.76400	         9.93605e+57
          1336.57030	         9.36881e+57
          1337.37660	         9.12410e+57
          1338.18290	         9.31341e+57
          1338.98920	         9.55910e+57
          1339.79550	         1.06633e+58
          1340.60180	         1.16224e+58
          1341.40810	         1.24724e+58
          1342.21440	         1.07673e+58
          1343.02070	         1.07088e+58
          1343.82700	         1.27517e+58
          1344.63330	         1.15080e+58
          1345.43960	         1.22460e+58
          1346.24590	         1.22097e+58
          1347.05220	         1.16530e+58
          1347.85850	         9.61062e+57
          1348.66480	         9.85671e+57
          1349.47110	         1.20921e+58
          1350.27740	         1.16613e+58
          1351.08370	         1.01011e+58
          1351.89000	         1.14433e+58
          1352.69630	         1.21849e+58
          1353.50260	         1.05929e+58
          1354.30890	         1.09601e+58
          1355.11520	         1.17458e+58
          1355.92150	         1.15330e+58
          1356.72780	         9.98289e+57
          1357.53410	         1.06188e+58
          1358.34040	         1.11224e+58
          1359.14670	         1.01928e+58
          1359.95300	         1.01746e+58
          1360.75930	         9.92466e+57
          1361.56560	         1.00585e+58
          1362.37190	         1.14497e+58
          1363.17820	         1.11173e+58
          1363.98450	         1.21273e+58
          1364.79080	         1.22655e+58
          1365.59710	         1.21668e+58
          1366.40340	         1.14430e+58
          1367.20970	         1.06404e+58
          1368.01600	         1.10810e+58
          1368.82230	         9.77819e+57
          1369.62860	         9.18370e+57
          1370.43490	         8.07232e+57
          1371.24120	         7.36258e+57
          1372.04750	         7.48147e+57
          1372.85380	         1.02518e+58
          1373.66010	         1.16009e+58
          1374.46640	         1.01571e+58
          1375.27270	         9.47258e+57
          1376.07900	         9.31899e+57
          1376.88530	         9.41109e+57
          1377.69160	         9.78954e+57
          1378.49790	         8.77469e+57
          1379.30420	         9.29931e+57
          1380.11050	         1.01135e+58
          1380.91680	         8.07736e+57
          1381.72310	         6.96674e+57
          1382.52940	         7.68129e+57
          1383.33570	         7.94944e+57
          1384.14200	         8.48595e+57
          1384.94830	         1.10504e+58
          1385.75460	         1.08993e+58
          1386.56090	         1.06832e+58
          1387.36720	         1.12639e+58
          1388.17350	         1.24625e+58
          1388.97980	         1.06943e+58
          1389.78610	         7.79947e+57
          1390.59240	         7.91590e+57
          1391.39870	         7.93572e+57
          1392.20500	         7.97677e+57
          1393.01130	         8.11145e+57
          1393.81760	         5.77942e+57
          1394.62390	         5.96856e+57
          1395.43020	         6.74289e+57
          1396.23650	         6.47648e+57
          1397.04280	         6.68014e+57
          1397.84910	         8.83081e+57
          1398.65540	         8.11781e+57
          1399.46170	         9.19163e+57
          1400.26800	         8.13528e+57
          1401.07430	         6.85479e+57
          1401.88060	         7.09509e+57
          1402.68690	         7.89249e+57
          1403.49320	         8.88313e+57
          1404.29950	         8.78721e+57
          1405.10580	         9.23072e+57
          1405.91210	         1.07701e+58
          1406.71840	         1.01163e+58
          1407.52470	         8.43729e+57
          1408.33100	         8.71836e+57
          1409.13730	         1.02551e+58
          1409.94360	         1.10996e+58
          1410.74990	         1.05613e+58
          1411.55620	         9.51428e+57
          1412.36250	         1.06176e+58
          1413.16880	         1.05748e+58
          1413.97510	         9.29569e+57
          1414.78140	         8.88060e+57
          1415.58770	         1.06950e+58
          1416.39400	         1.14306e+58
          1417.20030	         1.00024e+58
          1418.00660	         9.19233e+57
          1418.81290	         1.07613e+58
          1419.61920	         1.18056e+58
          1420.42550	         1.16506e+58
          1421.23180	         1.42455e+58
          1422.03810	         1.42270e+58
          1422.84440	         1.10516e+58
          1423.65070	         1.18633e+58
          1424.45700	         1.20681e+58
          1425.26330	         8.33211e+57
          1426.06960	         8.27310e+57
          1426.87590	         9.76806e+57
          1427.68220	         8.88861e+57
          1428.48850	         1.04103e+58
          1429.29480	         1.08113e+58
          1430.10110	         1.03417e+58
          1430.90740	         7.94442e+57
          1431.71370	         7.49181e+57
          1432.52000	         8.20566e+57
          1433.32630	         7.48231e+57
          1434.13260	         7.34446e+57
          1434.93890	         6.94466e+57
          1435.74520	         7.95716e+57
          1436.55150	         9.89979e+57
          1437.35780	         9.02057e+57
          1438.16410	         7.87596e+57
          1438.97040	         8.35940e+57
          1439.77670	         8.97436e+57
          1440.58300	         8.81191e+57
          1441.38930	         9.35895e+57
          1442.19560	         9.77940e+57
          1443.00190	         9.93904e+57
          1443.80820	         1.05371e+58
          1444.61450	         9.79869e+57
          1445.42080	         8.42582e+57
          1446.22710	         8.91905e+57
          1447.03340	         9.95782e+57
          1447.83970	         1.10297e+58
          1448.64600	         1.11902e+58
          1449.45230	         1.03086e+58
          1450.25860	         1.01763e+58
          1451.06490	         8.48004e+57
          1451.87120	         6.53737e+57
          1452.67750	         7.09829e+57
          1453.48380	         8.50906e+57
          1454.29010	         7.79154e+57
          1455.09640	         6.69417e+57
          1455.90270	         7.42844e+57
          1456.70900	         8.47333e+57
          1457.51530	         1.02565e+58
          1458.32160	         1.09380e+58
          1459.12790	         1.15212e+58
          1459.93420	         1.11174e+58
          1460.74050	         8.64491e+57
          1461.54680	         8.76055e+57
          1462.35310	         7.85505e+57
          1463.15940	         8.15240e+57
          1463.96570	         9.98489e+57
          1464.77200	         1.13788e+58
          1465.57830	         1.07491e+58
          1466.38460	         9.19233e+57
          1467.19090	         8.53042e+57
          1467.99720	         8.23199e+57
          1468.80350	         9.51103e+57
          1469.60980	         1.03040e+58
          1470.41610	         1.10043e+58
          1471.22240	         9.84333e+57
          1472.02870	         9.31044e+57
          1472.83500	         9.12208e+57
          1473.64130	         8.77487e+57
          1474.44760	         9.48135e+57
          1475.25390	         9.65489e+57
          1476.06020	         8.39678e+57
          1476.86650	         9.16584e+57
          1477.67280	         8.32070e+57
          1478.47910	         7.19558e+57
          1479.28540	         7.78407e+57
          1480.09170	         8.44528e+57
          1480.89800	         8.85089e+57
          1481.70430	         8.69244e+57
          1482.51060	         8.17475e+57
          1483.31690	         8.14875e+57
          1484.12320	         7.45941e+57
          1484.92950	         7.13615e+57
          1485.73580	         8.73822e+57
          1486.54210	         9.34553e+57
          1487.34840	         8.51725e+57
          1488.15470	         7.44811e+57
          1488.96100	         8.19893e+57
          1489.76730	         9.35947e+57
