#sample_453_stacked_spectrum_rest_UV-bands_median_H-alpha_noDC.txt
#median Lum: 1.69679e+42
#Rest-frame wavelength (A) | Luminosity (erg/s/A)
#
          1110.00000	         0.00000e+00
          1110.80630	         3.71217e+59
          1111.61260	         1.73022e+59
          1112.41890	         2.66934e+57
          1113.22520	         2.70454e+59
          1114.03150	         1.10595e+59
          1114.83780	         2.64333e+59
          1115.64410	        -5.35833e+58
          1116.45040	        -2.35852e+59
          1117.25670	         1.08149e+59
          1118.06300	         2.60230e+59
          1118.86930	         9.05077e+58
          1119.67560	         1.36383e+59
          1120.48190	         5.96592e+58
          1121.28820	        -8.28268e+58
          1122.09450	         4.28820e+58
          1122.90080	         4.90464e+58
          1123.70710	         1.48310e+59
          1124.51340	         7.90685e+58
          1125.31970	         3.87232e+58
          1126.12600	         2.17585e+58
          1126.93230	        -5.82118e+58
          1127.73860	        -7.39278e+58
          1128.54490	         2.53285e+58
          1129.35120	         1.72319e+58
          1130.15750	        -1.82644e+56
          1130.96380	        -1.05356e+58
          1131.77010	         1.24497e+58
          1132.57640	         1.18758e+58
          1133.38270	         2.34769e+58
          1134.18900	         1.27151e+58
          1134.99530	        -1.75867e+58
          1135.80160	         1.63185e+58
          1136.60790	         1.58068e+58
          1137.41420	         4.84088e+57
          1138.22050	         4.55974e+58
          1139.02680	         3.74378e+58
          1139.83310	         3.74577e+58
          1140.63940	         2.91205e+58
          1141.44570	         7.96156e+57
          1142.25200	        -1.85009e+58
          1143.05830	         1.11916e+58
          1143.86460	         2.43249e+58
          1144.67090	         3.21393e+58
          1145.47720	         2.15384e+58
          1146.28350	         1.18054e+58
          1147.08980	         1.35078e+58
          1147.89610	         1.88462e+58
          1148.70240	         1.27851e+58
          1149.50870	         2.68506e+58
          1150.31500	         1.54216e+58
          1151.12130	         1.20147e+58
          1151.92760	         2.06066e+58
          1152.73390	         3.29119e+57
          1153.54020	        -1.97392e+57
          1154.34650	         1.86047e+58
          1155.15280	         1.20003e+58
          1155.95910	         1.03453e+58
          1156.76540	         4.63073e+57
          1157.57170	        -3.21788e+57
          1158.37800	        -4.43090e+57
          1159.18430	         4.51712e+57
          1159.99060	         8.97976e+56
          1160.79690	        -3.50216e+56
          1161.60320	         1.43591e+58
          1162.40950	         6.58707e+57
          1163.21580	         1.59647e+58
          1164.02210	         1.44620e+58
          1164.82840	         1.30425e+58
          1165.63470	         9.57853e+57
          1166.44100	         2.49165e+58
          1167.24730	         2.13837e+58
          1168.05360	         1.67416e+58
          1168.85990	         3.82442e+57
          1169.66620	         6.34674e+57
          1170.47250	         1.37508e+58
          1171.27880	         9.84934e+57
          1172.08510	         1.39700e+58
          1172.89140	         8.75841e+57
          1173.69770	         1.10829e+58
          1174.50400	         1.11446e+58
          1175.31030	         1.49503e+58
          1176.11660	         1.84114e+58
          1176.92290	         1.42260e+58
          1177.72920	         1.20181e+58
          1178.53550	         4.08207e+57
          1179.34180	        -2.16695e+56
          1180.14810	         5.86076e+57
          1180.95440	         7.07037e+57
          1181.76070	         5.29605e+57
          1182.56700	         7.14175e+57
          1183.37330	         5.66429e+57
          1184.17960	         1.03130e+58
          1184.98590	         1.47259e+58
          1185.79220	         1.47935e+58
          1186.59850	         1.70656e+58
          1187.40480	         1.42569e+58
          1188.21110	         1.49743e+58
          1189.01740	         7.54540e+57
          1189.82370	         6.27114e+57
          1190.63000	         1.16339e+58
          1191.43630	         1.40124e+58
          1192.24260	         1.45337e+58
          1193.04890	         1.33800e+58
          1193.85520	         1.41735e+58
          1194.66150	         5.88162e+57
          1195.46780	         1.00425e+58
          1196.27410	         1.42242e+58
          1197.08040	         8.66897e+57
          1197.88670	         1.29700e+58
          1198.69300	         1.39128e+58
          1199.49930	         1.33819e+58
          1200.30560	         1.19622e+58
          1201.11190	         1.12080e+58
          1201.91820	         9.64428e+57
          1202.72450	         9.70125e+57
          1203.53080	         1.28968e+58
          1204.33710	         7.45663e+57
          1205.14340	         5.67567e+57
          1205.94970	         5.77749e+57
          1206.75600	         5.47230e+57
          1207.56230	         6.28997e+57
          1208.36860	         7.46940e+57
          1209.17490	         3.62341e+57
          1209.98120	         8.62973e+57
          1210.78750	         5.93340e+57
          1211.59380	         1.13634e+58
          1212.40010	         1.76207e+58
          1213.20640	         2.22256e+58
          1214.01270	         1.96619e+58
          1214.81900	         2.33482e+58
          1215.62530	         4.49168e+58
          1216.43160	         9.10336e+58
          1217.23790	         1.47452e+59
          1218.04420	         1.12965e+59
          1218.85050	         8.66072e+58
          1219.65680	         5.99442e+58
          1220.46310	         3.87461e+58
          1221.26940	         2.80912e+58
          1222.07570	         1.65591e+58
          1222.88200	         1.62582e+58
          1223.68830	         1.38772e+58
          1224.49460	         8.03767e+57
          1225.30090	         5.32721e+57
          1226.10720	         4.96613e+57
          1226.91350	         6.30507e+57
          1227.71980	         1.03329e+58
          1228.52610	         1.14850e+58
          1229.33240	         8.63451e+57
          1230.13870	         8.49377e+57
          1230.94500	         1.09893e+58
          1231.75130	         6.04882e+57
          1232.55760	         9.31073e+57
          1233.36390	         1.05449e+58
          1234.17020	         1.03217e+58
          1234.97650	         9.47956e+57
          1235.78280	         6.46013e+57
          1236.58910	         9.16587e+57
          1237.39540	         1.18070e+58
          1238.20170	         1.11850e+58
          1239.00800	         1.17555e+58
          1239.81430	         1.20616e+58
          1240.62060	         1.00397e+58
          1241.42690	         1.13707e+58
          1242.23320	         1.28597e+58
          1243.03950	         8.34396e+57
          1243.84580	         8.10106e+57
          1244.65210	         1.09050e+58
          1245.45840	         1.14850e+58
          1246.26470	         1.13216e+58
          1247.07100	         9.74499e+57
          1247.87730	         7.08058e+57
          1248.68360	         5.01440e+57
          1249.48990	         9.22616e+57
          1250.29620	         1.21547e+58
          1251.10250	         7.25478e+57
          1251.90880	         2.99292e+57
          1252.71510	         4.43410e+57
          1253.52140	         6.53950e+57
          1254.32770	         8.70256e+57
          1255.13400	         1.31035e+58
          1255.94030	         1.25325e+58
          1256.74660	         1.05053e+58
          1257.55290	         1.01568e+58
          1258.35920	         8.72363e+57
          1259.16550	         6.25120e+57
          1259.97180	         6.02459e+57
          1260.77810	         9.75324e+57
          1261.58440	         1.14099e+58
          1262.39070	         8.38848e+57
          1263.19700	         7.58548e+57
          1264.00330	         9.34207e+57
          1264.80960	         9.97831e+57
          1265.61590	         1.03125e+58
          1266.42220	         1.03433e+58
          1267.22850	         1.00364e+58
          1268.03480	         1.26838e+58
          1268.84110	         1.40095e+58
          1269.64740	         1.26403e+58
          1270.45370	         1.31177e+58
          1271.26000	         1.32054e+58
          1272.06630	         1.16729e+58
          1272.87260	         1.38068e+58
          1273.67890	         1.29633e+58
          1274.48520	         1.23773e+58
          1275.29150	         1.35730e+58
          1276.09780	         1.16339e+58
          1276.90410	         1.31076e+58
          1277.71040	         1.27970e+58
          1278.51670	         1.02279e+58
          1279.32300	         1.26680e+58
          1280.12930	         1.35787e+58
          1280.93560	         1.16974e+58
          1281.74190	         1.20539e+58
          1282.54820	         1.07301e+58
          1283.35450	         1.03375e+58
          1284.16080	         1.02340e+58
          1284.96710	         1.21387e+58
          1285.77340	         1.09773e+58
          1286.57970	         1.19997e+58
          1287.38600	         1.86602e+58
          1288.19230	         1.97974e+58
          1288.99860	         1.54903e+58
          1289.80490	         1.06782e+58
          1290.61120	         1.33328e+58
          1291.41750	         1.54991e+58
          1292.22380	         1.28739e+58
          1293.03010	         1.05500e+58
          1293.83640	         1.27139e+58
          1294.64270	         9.26121e+57
          1295.44900	         5.37618e+57
          1296.25530	         7.02701e+57
          1297.06160	         7.62158e+57
          1297.86790	         8.40684e+57
          1298.67420	         9.42080e+57
          1299.48050	         9.29631e+57
          1300.28680	         9.79009e+57
          1301.09310	         6.92571e+57
          1301.89940	         3.91081e+57
          1302.70570	         6.21005e+57
          1303.51200	         6.63379e+57
          1304.31830	         9.84380e+57
          1305.12460	         1.07307e+58
          1305.93090	         1.05740e+58
          1306.73720	         1.24346e+58
          1307.54350	         1.37826e+58
          1308.34980	         1.36958e+58
          1309.15610	         1.42579e+58
          1309.96240	         1.51879e+58
          1310.76870	         1.30972e+58
          1311.57500	         1.21909e+58
          1312.38130	         1.35816e+58
          1313.18760	         1.50812e+58
          1313.99390	         1.58773e+58
          1314.80020	         1.64099e+58
          1315.60650	         1.71796e+58
          1316.41280	         1.26371e+58
          1317.21910	         1.09690e+58
          1318.02540	         1.13106e+58
          1318.83170	         1.30449e+58
          1319.63800	         1.35689e+58
          1320.44430	         1.13762e+58
          1321.25060	         1.29595e+58
          1322.05690	         1.40874e+58
          1322.86320	         1.21657e+58
          1323.66950	         1.20242e+58
          1324.47580	         9.30885e+57
          1325.28210	         8.93967e+57
          1326.08840	         1.11802e+58
          1326.89470	         1.21820e+58
          1327.70100	         1.02151e+58
          1328.50730	         7.61236e+57
          1329.31360	         8.52334e+57
          1330.11990	         9.08184e+57
          1330.92620	         8.71365e+57
          1331.73250	         1.04558e+58
          1332.53880	         9.98186e+57
          1333.34510	         7.91227e+57
          1334.15140	         7.98386e+57
          1334.95770	         9.15972e+57
          1335.76400	         1.03166e+58
          1336.57030	         1.11871e+58
          1337.37660	         9.26069e+57
          1338.18290	         9.40450e+57
          1338.98920	         1.23087e+58
          1339.79550	         1.30094e+58
          1340.60180	         1.34896e+58
          1341.40810	         1.42967e+58
          1342.21440	         1.22539e+58
          1343.02070	         1.11729e+58
          1343.82700	         1.24708e+58
          1344.63330	         1.21972e+58
          1345.43960	         1.45843e+58
          1346.24590	         1.30099e+58
          1347.05220	         1.18910e+58
          1347.85850	         1.12495e+58
          1348.66480	         1.16170e+58
          1349.47110	         1.15835e+58
          1350.27740	         1.07573e+58
          1351.08370	         1.21566e+58
          1351.89000	         1.27161e+58
          1352.69630	         1.14712e+58
          1353.50260	         1.04835e+58
          1354.30890	         1.17199e+58
          1355.11520	         1.20131e+58
          1355.92150	         1.13031e+58
          1356.72780	         1.08419e+58
          1357.53410	         1.10932e+58
          1358.34040	         1.11655e+58
          1359.14670	         1.12904e+58
          1359.95300	         1.16129e+58
          1360.75930	         1.10612e+58
          1361.56560	         1.04341e+58
          1362.37190	         1.09471e+58
          1363.17820	         1.01351e+58
          1363.98450	         1.14431e+58
          1364.79080	         1.34463e+58
          1365.59710	         1.26935e+58
          1366.40340	         1.19955e+58
          1367.20970	         1.12069e+58
          1368.01600	         1.11769e+58
          1368.82230	         1.07740e+58
          1369.62860	         8.99966e+57
          1370.43490	         8.40164e+57
          1371.24120	         1.01370e+58
          1372.04750	         9.71437e+57
          1372.85380	         1.06202e+58
          1373.66010	         1.19006e+58
          1374.46640	         1.19742e+58
          1375.27270	         1.08030e+58
          1376.07900	         8.51734e+57
          1376.88530	         7.14430e+57
          1377.69160	         7.80262e+57
          1378.49790	         6.81037e+57
          1379.30420	         7.02022e+57
          1380.11050	         8.94703e+57
          1380.91680	         9.11651e+57
          1381.72310	         7.64966e+57
          1382.52940	         7.06193e+57
          1383.33570	         9.16397e+57
          1384.14200	         1.14416e+58
          1384.94830	         1.07158e+58
          1385.75460	         9.79706e+57
          1386.56090	         1.09206e+58
          1387.36720	         1.21885e+58
          1388.17350	         1.17807e+58
          1388.97980	         1.12419e+58
          1389.78610	         9.43566e+57
          1390.59240	         8.63504e+57
          1391.39870	         8.03178e+57
          1392.20500	         8.99176e+57
          1393.01130	         8.38766e+57
          1393.81760	         7.15965e+57
          1394.62390	         6.70518e+57
          1395.43020	         5.87558e+57
          1396.23650	         6.28493e+57
          1397.04280	         7.61854e+57
          1397.84910	         8.75924e+57
          1398.65540	         9.47388e+57
          1399.46170	         9.92546e+57
          1400.26800	         9.68197e+57
          1401.07430	         8.26139e+57
          1401.88060	         8.02677e+57
          1402.68690	         9.82157e+57
          1403.49320	         1.09923e+58
          1404.29950	         9.78727e+57
          1405.10580	         1.15378e+58
          1405.91210	         1.18463e+58
          1406.71840	         1.00321e+58
          1407.52470	         1.00548e+58
          1408.33100	         9.72374e+57
          1409.13730	         1.16938e+58
          1409.94360	         1.10600e+58
          1410.74990	         1.02720e+58
          1411.55620	         1.03027e+58
          1412.36250	         9.10552e+57
          1413.16880	         9.45830e+57
          1413.97510	         9.36161e+57
          1414.78140	         1.07084e+58
          1415.58770	         1.03140e+58
          1416.39400	         1.01564e+58
          1417.20030	         1.06702e+58
          1418.00660	         9.80911e+57
          1418.81290	         1.02705e+58
          1419.61920	         1.00632e+58
          1420.42550	         1.28940e+58
          1421.23180	         1.37783e+58
          1422.03810	         1.20183e+58
          1422.84440	         1.14185e+58
          1423.65070	         1.35308e+58
          1424.45700	         1.23165e+58
          1425.26330	         9.58763e+57
          1426.06960	         9.71132e+57
          1426.87590	         1.06481e+58
          1427.68220	         1.12502e+58
          1428.48850	         1.12941e+58
          1429.29480	         9.58121e+57
          1430.10110	         1.03178e+58
          1430.90740	         8.39393e+57
          1431.71370	         7.66395e+57
          1432.52000	         8.75618e+57
          1433.32630	         7.63938e+57
          1434.13260	         7.29824e+57
          1434.93890	         7.75908e+57
          1435.74520	         7.95718e+57
          1436.55150	         9.28493e+57
          1437.35780	         1.01251e+58
          1438.16410	         1.01215e+58
          1438.97040	         1.02162e+58
          1439.77670	         9.61919e+57
          1440.58300	         9.32678e+57
          1441.38930	         8.81804e+57
          1442.19560	         9.04255e+57
          1443.00190	         1.01160e+58
          1443.80820	         1.06819e+58
          1444.61450	         9.69689e+57
          1445.42080	         8.69412e+57
          1446.22710	         9.67145e+57
          1447.03340	         1.00982e+58
          1447.83970	         1.08986e+58
          1448.64600	         1.08687e+58
          1449.45230	         1.02579e+58
          1450.25860	         1.05510e+58
          1451.06490	         9.19164e+57
          1451.87120	         7.63942e+57
          1452.67750	         8.14243e+57
          1453.48380	         8.93452e+57
          1454.29010	         8.12020e+57
          1455.09640	         8.93725e+57
          1455.90270	         9.42697e+57
          1456.70900	         8.88271e+57
          1457.51530	         1.00164e+58
          1458.32160	         1.25850e+58
          1459.12790	         1.19105e+58
          1459.93420	         1.03288e+58
          1460.74050	         7.94225e+57
          1461.54680	         8.38357e+57
          1462.35310	         9.03323e+57
          1463.15940	         9.26179e+57
          1463.96570	         1.03834e+58
          1464.77200	         1.03250e+58
          1465.57830	         9.28666e+57
          1466.38460	         8.93232e+57
          1467.19090	         9.08869e+57
          1467.99720	         8.90558e+57
          1468.80350	         8.08551e+57
          1469.60980	         8.43915e+57
          1470.41610	         1.00401e+58
          1471.22240	         8.87078e+57
          1472.02870	         9.25832e+57
          1472.83500	         9.57704e+57
          1473.64130	         9.04466e+57
          1474.44760	         8.68742e+57
          1475.25390	         7.83348e+57
          1476.06020	         7.52858e+57
          1476.86650	         8.27420e+57
          1477.67280	         8.15444e+57
          1478.47910	         7.62647e+57
          1479.28540	         8.20248e+57
          1480.09170	         8.46377e+57
          1480.89800	         7.73280e+57
          1481.70430	         8.19744e+57
          1482.51060	         7.63038e+57
          1483.31690	         6.57524e+57
          1484.12320	         7.08065e+57
          1484.92950	         7.26013e+57
          1485.73580	         7.79312e+57
          1486.54210	         8.81963e+57
          1487.34840	         9.14063e+57
          1488.15470	         8.32021e+57
          1488.96100	         8.78322e+57
          1489.76730	         8.70115e+57
