#sample_53_stacked_spectrum_rest_UV-bands_median_H-alpha_noDC.txt
#median Lum: 1.72536e+42
#Rest-frame wavelength (A) | Luminosity (erg/s/A)
#
          1110.00000	         0.00000e+00
          1110.80630	         9.26522e+58
          1111.61260	         7.80042e+58
          1112.41890	         2.15850e+59
          1113.22520	        -7.51083e+58
          1114.03150	        -1.13705e+59
          1114.83780	         2.59581e+59
          1115.64410	         1.28451e+59
          1116.45040	         2.14269e+59
          1117.25670	         7.44884e+58
          1118.06300	         2.51563e+59
          1118.86930	         1.55508e+59
          1119.67560	         7.88475e+58
          1120.48190	        -4.82355e+57
          1121.28820	        -9.26046e+58
          1122.09450	         1.99345e+58
          1122.90080	        -1.02070e+58
          1123.70710	         2.21578e+58
          1124.51340	         8.77195e+58
          1125.31970	         2.47703e+57
          1126.12600	         5.63161e+56
          1126.93230	        -8.53244e+58
          1127.73860	        -7.34314e+58
          1128.54490	        -1.83247e+58
          1129.35120	         6.13274e+57
          1130.15750	         5.82931e+57
          1130.96380	        -4.29620e+58
          1131.77010	         4.53226e+58
          1132.57640	         2.63572e+58
          1133.38270	         3.35138e+58
          1134.18900	        -5.90845e+57
          1134.99530	         3.33498e+58
          1135.80160	         2.78663e+58
          1136.60790	         6.26586e+57
          1137.41420	         2.92384e+57
          1138.22050	         4.40900e+58
          1139.02680	         6.67269e+57
          1139.83310	         1.30657e+58
          1140.63940	         1.34151e+58
          1141.44570	        -4.13341e+57
          1142.25200	        -1.83353e+58
          1143.05830	         1.82839e+57
          1143.86460	         2.15385e+58
          1144.67090	         3.75174e+58
          1145.47720	         1.65522e+58
          1146.28350	         6.95021e+57
          1147.08980	         1.15979e+58
          1147.89610	         1.96517e+58
          1148.70240	         2.80593e+58
          1149.50870	         1.46395e+58
          1150.31500	         1.59076e+58
          1151.12130	         2.17735e+58
          1151.92760	         1.78777e+58
          1152.73390	         1.08376e+58
          1153.54020	        -3.77711e+57
          1154.34650	         2.12726e+58
          1155.15280	         1.51335e+58
          1155.95910	         2.27048e+56
          1156.76540	         9.74177e+57
          1157.57170	         6.91367e+57
          1158.37800	         4.66205e+57
          1159.18430	        -6.22146e+57
          1159.99060	         8.02726e+57
          1160.79690	         1.12434e+58
          1161.60320	         1.10639e+58
          1162.40950	         1.65148e+58
          1163.21580	         1.47035e+58
          1164.02210	         1.34321e+58
          1164.82840	         1.08934e+58
          1165.63470	         2.48165e+58
          1166.44100	         2.75489e+58
          1167.24730	         1.64456e+58
          1168.05360	         1.06845e+58
          1168.85990	         2.90820e+57
          1169.66620	        -4.23161e+57
          1170.47250	         8.82692e+57
          1171.27880	         1.80855e+58
          1172.08510	         1.83307e+58
          1172.89140	         1.17427e+58
          1173.69770	         8.53406e+57
          1174.50400	         1.81019e+58
          1175.31030	         1.95288e+58
          1176.11660	         1.45263e+58
          1176.92290	         1.74609e+58
          1177.72920	         1.42016e+58
          1178.53550	         1.44280e+58
          1179.34180	         1.11759e+58
          1180.14810	         5.80089e+57
          1180.95440	         7.46336e+57
          1181.76070	         7.34472e+57
          1182.56700	         5.41395e+57
          1183.37330	         7.78289e+57
          1184.17960	         1.61001e+58
          1184.98590	         1.11615e+58
          1185.79220	         5.24376e+57
          1186.59850	         1.34838e+58
          1187.40480	         1.38226e+58
          1188.21110	         1.69641e+58
          1189.01740	         1.19457e+58
          1189.82370	         1.11008e+58
          1190.63000	         6.89824e+57
          1191.43630	         1.00423e+58
          1192.24260	         1.02566e+58
          1193.04890	         1.27709e+58
          1193.85520	         1.33209e+58
          1194.66150	         5.27016e+57
          1195.46780	         7.72254e+57
          1196.27410	         1.31469e+58
          1197.08040	         7.33837e+57
          1197.88670	         1.10670e+58
          1198.69300	         1.33242e+58
          1199.49930	         1.63653e+58
          1200.30560	         1.53087e+58
          1201.11190	         1.04787e+58
          1201.91820	         9.05024e+57
          1202.72450	         7.40754e+57
          1203.53080	         1.71736e+58
          1204.33710	         8.55515e+57
          1205.14340	         7.59386e+57
          1205.94970	         8.33900e+57
          1206.75600	         8.13548e+57
          1207.56230	         4.35128e+57
          1208.36860	         6.69114e+57
          1209.17490	         6.17464e+57
          1209.98120	         9.74049e+57
          1210.78750	         8.95755e+57
          1211.59380	         1.31292e+58
          1212.40010	         1.74393e+58
          1213.20640	         2.09063e+58
          1214.01270	         2.00225e+58
          1214.81900	         2.42690e+58
          1215.62530	         4.45039e+58
          1216.43160	         9.05396e+58
          1217.23790	         1.48943e+59
          1218.04420	         1.11350e+59
          1218.85050	         8.51407e+58
          1219.65680	         5.57754e+58
          1220.46310	         3.30799e+58
          1221.26940	         2.17616e+58
          1222.07570	         1.18837e+58
          1222.88200	         1.10404e+58
          1223.68830	         1.05298e+58
          1224.49460	         9.45811e+57
          1225.30090	         6.73452e+57
          1226.10720	         4.84278e+57
          1226.91350	         8.30432e+57
          1227.71980	         9.86350e+57
          1228.52610	         1.20445e+58
          1229.33240	         9.62710e+57
          1230.13870	         7.77458e+57
          1230.94500	         8.25113e+57
          1231.75130	         7.02070e+57
          1232.55760	         8.49463e+57
          1233.36390	         9.42300e+57
          1234.17020	         7.24482e+57
          1234.97650	         6.40270e+57
          1235.78280	         7.32430e+57
          1236.58910	         8.20717e+57
          1237.39540	         8.64167e+57
          1238.20170	         9.45859e+57
          1239.00800	         1.13721e+58
          1239.81430	         1.15651e+58
          1240.62060	         1.04296e+58
          1241.42690	         1.26698e+58
          1242.23320	         1.27574e+58
          1243.03950	         7.52958e+57
          1243.84580	         7.60881e+57
          1244.65210	         9.73371e+57
          1245.45840	         1.20471e+58
          1246.26470	         1.03644e+58
          1247.07100	         5.89016e+57
          1247.87730	         4.79536e+57
          1248.68360	         6.22191e+57
          1249.48990	         1.01957e+58
          1250.29620	         9.60752e+57
          1251.10250	         5.50617e+57
          1251.90880	         6.99866e+57
          1252.71510	         6.21519e+57
          1253.52140	         4.26987e+57
          1254.32770	         6.24717e+57
          1255.13400	         1.09692e+58
          1255.94030	         1.24165e+58
          1256.74660	         1.08239e+58
          1257.55290	         1.04812e+58
          1258.35920	         6.38059e+57
          1259.16550	         2.92078e+57
          1259.97180	         4.16048e+57
          1260.77810	         7.05271e+57
          1261.58440	         9.47104e+57
          1262.39070	         7.64869e+57
          1263.19700	         7.21132e+57
          1264.00330	         8.50319e+57
          1264.80960	         1.12119e+58
          1265.61590	         1.33920e+58
          1266.42220	         1.40978e+58
          1267.22850	         1.22651e+58
          1268.03480	         1.35730e+58
          1268.84110	         1.36576e+58
          1269.64740	         1.26450e+58
          1270.45370	         1.33466e+58
          1271.26000	         1.23519e+58
          1272.06630	         1.17357e+58
          1272.87260	         1.04215e+58
          1273.67890	         1.28714e+58
          1274.48520	         1.34053e+58
          1275.29150	         1.23856e+58
          1276.09780	         1.04237e+58
          1276.90410	         1.28006e+58
          1277.71040	         1.35578e+58
          1278.51670	         1.33361e+58
          1279.32300	         1.38527e+58
          1280.12930	         1.34032e+58
          1280.93560	         1.02592e+58
          1281.74190	         1.00043e+58
          1282.54820	         1.16438e+58
          1283.35450	         9.25526e+57
          1284.16080	         9.84904e+57
          1284.96710	         1.32916e+58
          1285.77340	         1.14994e+58
          1286.57970	         8.54697e+57
          1287.38600	         1.40398e+58
          1288.19230	         1.84819e+58
          1288.99860	         1.63238e+58
          1289.80490	         9.89599e+57
          1290.61120	         1.16105e+58
          1291.41750	         1.58794e+58
          1292.22380	         1.26141e+58
          1293.03010	         1.04650e+58
          1293.83640	         1.21424e+58
          1294.64270	         1.00939e+58
          1295.44900	         7.35731e+57
          1296.25530	         8.95105e+57
          1297.06160	         9.75672e+57
          1297.86790	         1.10775e+58
          1298.67420	         1.00508e+58
          1299.48050	         9.42530e+57
          1300.28680	         1.09623e+58
          1301.09310	         7.97263e+57
          1301.89940	         4.49485e+57
          1302.70570	         6.85535e+57
          1303.51200	         6.43925e+57
          1304.31830	         8.16363e+57
          1305.12460	         1.11580e+58
          1305.93090	         9.95274e+57
          1306.73720	         1.21388e+58
          1307.54350	         1.55067e+58
          1308.34980	         1.50591e+58
          1309.15610	         1.46553e+58
          1309.96240	         1.36417e+58
          1310.76870	         1.15715e+58
          1311.57500	         1.21097e+58
          1312.38130	         1.11932e+58
          1313.18760	         1.30747e+58
          1313.99390	         1.48968e+58
          1314.80020	         1.72884e+58
          1315.60650	         1.56144e+58
          1316.41280	         1.32886e+58
          1317.21910	         1.13352e+58
          1318.02540	         1.11842e+58
          1318.83170	         1.16550e+58
          1319.63800	         1.17488e+58
          1320.44430	         1.01661e+58
          1321.25060	         9.75239e+57
          1322.05690	         9.98561e+57
          1322.86320	         1.00792e+58
          1323.66950	         9.96009e+57
          1324.47580	         9.20344e+57
          1325.28210	         9.53942e+57
          1326.08840	         1.07470e+58
          1326.89470	         1.25276e+58
          1327.70100	         1.02717e+58
          1328.50730	         7.56991e+57
          1329.31360	         9.35691e+57
          1330.11990	         9.76332e+57
          1330.92620	         9.96192e+57
          1331.73250	         1.11620e+58
          1332.53880	         9.69785e+57
          1333.34510	         8.97838e+57
          1334.15140	         8.79537e+57
          1334.95770	         8.60502e+57
          1335.76400	         9.82546e+57
          1336.57030	         1.10371e+58
          1337.37660	         9.45245e+57
          1338.18290	         1.02963e+58
          1338.98920	         1.20130e+58
          1339.79550	         1.24017e+58
          1340.60180	         1.20250e+58
          1341.40810	         1.35071e+58
          1342.21440	         1.17794e+58
          1343.02070	         1.21079e+58
          1343.82700	         1.49552e+58
          1344.63330	         1.36850e+58
          1345.43960	         1.26911e+58
          1346.24590	         1.24077e+58
          1347.05220	         1.30603e+58
          1347.85850	         9.81922e+57
          1348.66480	         1.17807e+58
          1349.47110	         1.32657e+58
          1350.27740	         1.23951e+58
          1351.08370	         1.08195e+58
          1351.89000	         1.07823e+58
          1352.69630	         1.14593e+58
          1353.50260	         1.14839e+58
          1354.30890	         1.10336e+58
          1355.11520	         1.08563e+58
          1355.92150	         9.18797e+57
          1356.72780	         9.01691e+57
          1357.53410	         9.70607e+57
          1358.34040	         9.00670e+57
          1359.14670	         9.63443e+57
          1359.95300	         1.08158e+58
          1360.75930	         9.89414e+57
          1361.56560	         9.63392e+57
          1362.37190	         1.15600e+58
          1363.17820	         1.09804e+58
          1363.98450	         1.07631e+58
          1364.79080	         1.30617e+58
          1365.59710	         1.36935e+58
          1366.40340	         1.16221e+58
          1367.20970	         9.86905e+57
          1368.01600	         9.91147e+57
          1368.82230	         8.14246e+57
          1369.62860	         9.60627e+57
          1370.43490	         9.20856e+57
          1371.24120	         8.09220e+57
          1372.04750	         8.03585e+57
          1372.85380	         1.08434e+58
          1373.66010	         1.01926e+58
          1374.46640	         1.03078e+58
          1375.27270	         1.05523e+58
          1376.07900	         9.92359e+57
          1376.88530	         9.69595e+57
          1377.69160	         8.77781e+57
          1378.49790	         7.77723e+57
          1379.30420	         7.39425e+57
          1380.11050	         7.72132e+57
          1380.91680	         6.16042e+57
          1381.72310	         7.22514e+57
          1382.52940	         8.35940e+57
          1383.33570	         7.82714e+57
          1384.14200	         1.04855e+58
          1384.94830	         1.15917e+58
          1385.75460	         1.07052e+58
          1386.56090	         1.16711e+58
          1387.36720	         9.46910e+57
          1388.17350	         9.95359e+57
          1388.97980	         1.04516e+58
          1389.78610	         8.91073e+57
          1390.59240	         8.69763e+57
          1391.39870	         6.16352e+57
          1392.20500	         6.40277e+57
          1393.01130	         8.14696e+57
          1393.81760	         8.19262e+57
          1394.62390	         7.86447e+57
          1395.43020	         7.39946e+57
          1396.23650	         7.11733e+57
          1397.04280	         6.78137e+57
          1397.84910	         7.85134e+57
          1398.65540	         8.37854e+57
          1399.46170	         8.00302e+57
          1400.26800	         7.06112e+57
          1401.07430	         6.45940e+57
          1401.88060	         7.42868e+57
          1402.68690	         9.23488e+57
          1403.49320	         9.02155e+57
          1404.29950	         8.31823e+57
          1405.10580	         9.36290e+57
          1405.91210	         1.02227e+58
          1406.71840	         1.05777e+58
          1407.52470	         1.05761e+58
          1408.33100	         1.04491e+58
          1409.13730	         1.12103e+58
          1409.94360	         1.14492e+58
          1410.74990	         1.18655e+58
          1411.55620	         1.10074e+58
          1412.36250	         1.02841e+58
          1413.16880	         9.56378e+57
          1413.97510	         8.04596e+57
          1414.78140	         8.49382e+57
          1415.58770	         1.04546e+58
          1416.39400	         1.09320e+58
          1417.20030	         1.16022e+58
          1418.00660	         9.85448e+57
          1418.81290	         9.10918e+57
          1419.61920	         1.07034e+58
          1420.42550	         1.26722e+58
          1421.23180	         1.39851e+58
          1422.03810	         1.28363e+58
          1422.84440	         1.16067e+58
          1423.65070	         1.28467e+58
          1424.45700	         1.19582e+58
          1425.26330	         1.05795e+58
          1426.06960	         9.09262e+57
          1426.87590	         9.93905e+57
          1427.68220	         9.77554e+57
          1428.48850	         1.00031e+58
          1429.29480	         1.01209e+58
          1430.10110	         9.80672e+57
          1430.90740	         8.75994e+57
          1431.71370	         9.13663e+57
          1432.52000	         8.20654e+57
          1433.32630	         7.40369e+57
          1434.13260	         7.76040e+57
          1434.93890	         7.80178e+57
          1435.74520	         7.91108e+57
          1436.55150	         8.79479e+57
          1437.35780	         8.84761e+57
          1438.16410	         1.00385e+58
          1438.97040	         9.53583e+57
          1439.77670	         8.68196e+57
          1440.58300	         8.42066e+57
          1441.38930	         9.34188e+57
          1442.19560	         9.67127e+57
          1443.00190	         8.57499e+57
          1443.80820	         9.29828e+57
          1444.61450	         8.82030e+57
          1445.42080	         7.55192e+57
          1446.22710	         9.08428e+57
          1447.03340	         8.94025e+57
          1447.83970	         9.91077e+57
          1448.64600	         1.13001e+58
          1449.45230	         1.04820e+58
          1450.25860	         9.41996e+57
          1451.06490	         8.55147e+57
          1451.87120	         7.49302e+57
          1452.67750	         7.21921e+57
          1453.48380	         8.71656e+57
          1454.29010	         8.02040e+57
          1455.09640	         7.27029e+57
          1455.90270	         8.69098e+57
          1456.70900	         8.24753e+57
          1457.51530	         8.84160e+57
          1458.32160	         1.23963e+58
          1459.12790	         1.14354e+58
          1459.93420	         8.88733e+57
          1460.74050	         8.39098e+57
          1461.54680	         8.98389e+57
          1462.35310	         7.66389e+57
          1463.15940	         8.24317e+57
          1463.96570	         9.57994e+57
          1464.77200	         1.00656e+58
          1465.57830	         1.08649e+58
          1466.38460	         9.68668e+57
          1467.19090	         7.65828e+57
          1467.99720	         8.29906e+57
          1468.80350	         8.67552e+57
          1469.60980	         9.38204e+57
          1470.41610	         9.93144e+57
          1471.22240	         8.91989e+57
          1472.02870	         9.90305e+57
          1472.83500	         9.74868e+57
          1473.64130	         9.11353e+57
          1474.44760	         8.92814e+57
          1475.25390	         8.27233e+57
          1476.06020	         7.92389e+57
          1476.86650	         7.76865e+57
          1477.67280	         6.59266e+57
          1478.47910	         6.82580e+57
          1479.28540	         7.61390e+57
          1480.09170	         7.42989e+57
          1480.89800	         8.33015e+57
          1481.70430	         8.83009e+57
          1482.51060	         7.59302e+57
          1483.31690	         7.57180e+57
          1484.12320	         6.73170e+57
          1484.92950	         7.75030e+57
          1485.73580	         7.71078e+57
          1486.54210	         8.22121e+57
          1487.34840	         9.52179e+57
          1488.15470	         8.55209e+57
          1488.96100	         7.62858e+57
          1489.76730	         8.03620e+57
