#sample_225_stacked_spectrum_rest_UV-bands_median_H-alpha_noDC.txt
#median Lum: 1.70337e+42
#Rest-frame wavelength (A) | Luminosity (erg/s/A)
#
          1110.00000	         0.00000e+00
          1110.80630	         3.93488e+58
          1111.61260	         1.44332e+59
          1112.41890	        -7.95825e+58
          1113.22520	        -1.79133e+59
          1114.03150	        -1.18361e+59
          1114.83780	         7.30851e+58
          1115.64410	        -9.38307e+58
          1116.45040	        -1.51090e+59
          1117.25670	         4.34678e+58
          1118.06300	         1.15484e+59
          1118.86930	        -2.62068e+58
          1119.67560	         1.31790e+59
          1120.48190	         1.27872e+57
          1121.28820	        -8.05140e+58
          1122.09450	         2.89061e+58
          1122.90080	         3.91711e+58
          1123.70710	         7.12784e+58
          1124.51340	         8.16213e+58
          1125.31970	         2.66104e+58
          1126.12600	        -2.14778e+57
          1126.93230	         4.67825e+57
          1127.73860	        -8.73348e+58
          1128.54490	        -6.63719e+58
          1129.35120	        -3.30872e+58
          1130.15750	        -1.72712e+57
          1130.96380	        -2.14122e+58
          1131.77010	         4.34433e+58
          1132.57640	         6.62606e+58
          1133.38270	         1.10793e+58
          1134.18900	         2.41764e+58
          1134.99530	         1.53575e+58
          1135.80160	         2.28474e+58
          1136.60790	        -3.67312e+57
          1137.41420	        -2.42012e+57
          1138.22050	         5.09892e+58
          1139.02680	         5.07379e+58
          1139.83310	         3.33865e+58
          1140.63940	         3.43902e+58
          1141.44570	         2.95190e+57
          1142.25200	         1.19546e+58
          1143.05830	         3.24657e+58
          1143.86460	         2.74055e+58
          1144.67090	         3.03561e+58
          1145.47720	         1.70808e+58
          1146.28350	         1.70830e+58
          1147.08980	         1.63652e+58
          1147.89610	         2.66995e+58
          1148.70240	         2.33725e+58
          1149.50870	         1.53162e+58
          1150.31500	         1.89164e+58
          1151.12130	         8.07553e+57
          1151.92760	         4.45877e+57
          1152.73390	         1.38404e+58
          1153.54020	         1.80475e+58
          1154.34650	         2.45566e+58
          1155.15280	         1.90788e+58
          1155.95910	         6.07700e+57
          1156.76540	         5.16302e+57
          1157.57170	         2.06214e+57
          1158.37800	         2.00107e+57
          1159.18430	         1.69043e+57
          1159.99060	         2.42929e+57
          1160.79690	         2.14091e+57
          1161.60320	         1.58605e+58
          1162.40950	         8.49970e+57
          1163.21580	         5.97071e+57
          1164.02210	         1.11505e+58
          1164.82840	         1.79074e+58
          1165.63470	         2.34429e+58
          1166.44100	         2.52791e+58
          1167.24730	         1.55716e+58
          1168.05360	         4.83034e+57
          1168.85990	         2.74610e+57
          1169.66620	         8.15954e+57
          1170.47250	         1.28492e+58
          1171.27880	         5.27686e+57
          1172.08510	         1.58489e+58
          1172.89140	         2.08245e+58
          1173.69770	         7.13194e+57
          1174.50400	         1.14284e+58
          1175.31030	         1.59157e+58
          1176.11660	         1.88735e+58
          1176.92290	         2.16770e+58
          1177.72920	         1.83667e+58
          1178.53550	         1.55265e+57
          1179.34180	        -2.54277e+56
          1180.14810	         4.70681e+57
          1180.95440	         9.38098e+57
          1181.76070	         1.14096e+58
          1182.56700	         7.91817e+57
          1183.37330	         5.64171e+57
          1184.17960	         1.01763e+58
          1184.98590	         1.50004e+58
          1185.79220	         8.51601e+57
          1186.59850	         7.33227e+57
          1187.40480	         1.55464e+58
          1188.21110	         1.51538e+58
          1189.01740	         1.46279e+58
          1189.82370	         1.07979e+58
          1190.63000	         1.48420e+58
          1191.43630	         1.71947e+58
          1192.24260	         1.01217e+58
          1193.04890	         9.07134e+57
          1193.85520	         6.68909e+57
          1194.66150	         3.70600e+57
          1195.46780	         1.01989e+58
          1196.27410	         1.56480e+58
          1197.08040	         8.08824e+57
          1197.88670	         1.17229e+58
          1198.69300	         1.36813e+58
          1199.49930	         1.31218e+58
          1200.30560	         1.12034e+58
          1201.11190	         1.31896e+58
          1201.91820	         1.22580e+58
          1202.72450	         7.35146e+57
          1203.53080	         1.27605e+58
          1204.33710	         7.93611e+57
          1205.14340	         3.64349e+57
          1205.94970	         5.06488e+57
          1206.75600	         6.14004e+57
          1207.56230	         8.24196e+57
          1208.36860	         9.53648e+57
          1209.17490	         7.93546e+57
          1209.98120	         5.95222e+57
          1210.78750	         4.66380e+57
          1211.59380	         8.26995e+57
          1212.40010	         1.81987e+58
          1213.20640	         2.19532e+58
          1214.01270	         2.22310e+58
          1214.81900	         2.54113e+58
          1215.62530	         4.84287e+58
          1216.43160	         9.38773e+58
          1217.23790	         1.50445e+59
          1218.04420	         1.14018e+59
          1218.85050	         8.34140e+58
          1219.65680	         5.50933e+58
          1220.46310	         3.41371e+58
          1221.26940	         2.67602e+58
          1222.07570	         1.73740e+58
          1222.88200	         1.04788e+58
          1223.68830	         9.00984e+57
          1224.49460	         6.81040e+57
          1225.30090	         5.43632e+57
          1226.10720	         8.85360e+57
          1226.91350	         1.02829e+58
          1227.71980	         5.53821e+57
          1228.52610	         1.16011e+58
          1229.33240	         9.25374e+57
          1230.13870	         1.06294e+58
          1230.94500	         9.09164e+57
          1231.75130	         6.46027e+57
          1232.55760	         8.47886e+57
          1233.36390	         7.73356e+57
          1234.17020	         6.30092e+57
          1234.97650	         6.70373e+57
          1235.78280	         8.81361e+57
          1236.58910	         8.80507e+57
          1237.39540	         1.00314e+58
          1238.20170	         1.04887e+58
          1239.00800	         1.28228e+58
          1239.81430	         1.37599e+58
          1240.62060	         9.24192e+57
          1241.42690	         9.05175e+57
          1242.23320	         1.07467e+58
          1243.03950	         7.64730e+57
          1243.84580	         7.26965e+57
          1244.65210	         8.20731e+57
          1245.45840	         6.99544e+57
          1246.26470	         8.15619e+57
          1247.07100	         7.89898e+57
          1247.87730	         5.82473e+57
          1248.68360	         6.44450e+57
          1249.48990	         8.10127e+57
          1250.29620	         9.03494e+57
          1251.10250	         1.03171e+58
          1251.90880	         1.08815e+58
          1252.71510	         6.94670e+57
          1253.52140	         7.72161e+57
          1254.32770	         1.09254e+58
          1255.13400	         1.37671e+58
          1255.94030	         1.13817e+58
          1256.74660	         9.27044e+57
          1257.55290	         9.17563e+57
          1258.35920	         7.72596e+57
          1259.16550	         6.81581e+57
          1259.97180	         5.66876e+57
          1260.77810	         7.67613e+57
          1261.58440	         1.05144e+58
          1262.39070	         9.28673e+57
          1263.19700	         8.30134e+57
          1264.00330	         9.19587e+57
          1264.80960	         1.09541e+58
          1265.61590	         1.40247e+58
          1266.42220	         1.17302e+58
          1267.22850	         9.21381e+57
          1268.03480	         1.25813e+58
          1268.84110	         1.28231e+58
          1269.64740	         9.68224e+57
          1270.45370	         1.34581e+58
          1271.26000	         1.40130e+58
          1272.06630	         1.18106e+58
          1272.87260	         1.07166e+58
          1273.67890	         1.22959e+58
          1274.48520	         1.25047e+58
          1275.29150	         1.33709e+58
          1276.09780	         1.38052e+58
          1276.90410	         1.43044e+58
          1277.71040	         1.18840e+58
          1278.51670	         1.10144e+58
          1279.32300	         1.33115e+58
          1280.12930	         1.23130e+58
          1280.93560	         1.21304e+58
          1281.74190	         1.11301e+58
          1282.54820	         1.12770e+58
          1283.35450	         1.09425e+58
          1284.16080	         1.22084e+58
          1284.96710	         1.29509e+58
          1285.77340	         1.10250e+58
          1286.57970	         1.17781e+58
          1287.38600	         1.48793e+58
          1288.19230	         1.60308e+58
          1288.99860	         1.34345e+58
          1289.80490	         9.92494e+57
          1290.61120	         1.20888e+58
          1291.41750	         1.37012e+58
          1292.22380	         1.05909e+58
          1293.03010	         1.03249e+58
          1293.83640	         1.16655e+58
          1294.64270	         9.96015e+57
          1295.44900	         8.02088e+57
          1296.25530	         7.74685e+57
          1297.06160	         9.47874e+57
          1297.86790	         1.26396e+58
          1298.67420	         1.07258e+58
          1299.48050	         1.01585e+58
          1300.28680	         1.02353e+58
          1301.09310	         8.90437e+57
          1301.89940	         6.36333e+57
          1302.70570	         5.98248e+57
          1303.51200	         6.90564e+57
          1304.31830	         1.02649e+58
          1305.12460	         1.29394e+58
          1305.93090	         1.10098e+58
          1306.73720	         1.07123e+58
          1307.54350	         1.21492e+58
          1308.34980	         1.32960e+58
          1309.15610	         1.56792e+58
          1309.96240	         1.52501e+58
          1310.76870	         1.30842e+58
          1311.57500	         1.31523e+58
          1312.38130	         1.23579e+58
          1313.18760	         1.34328e+58
          1313.99390	         1.50499e+58
          1314.80020	         1.59771e+58
          1315.60650	         1.44180e+58
          1316.41280	         1.31708e+58
          1317.21910	         1.13107e+58
          1318.02540	         1.10525e+58
          1318.83170	         1.29803e+58
          1319.63800	         1.27319e+58
          1320.44430	         1.11319e+58
          1321.25060	         1.14302e+58
          1322.05690	         1.24393e+58
          1322.86320	         1.31097e+58
          1323.66950	         1.20688e+58
          1324.47580	         1.09819e+58
          1325.28210	         9.61646e+57
          1326.08840	         1.08817e+58
          1326.89470	         1.32273e+58
          1327.70100	         1.09082e+58
          1328.50730	         9.90390e+57
          1329.31360	         9.42627e+57
          1330.11990	         8.16066e+57
          1330.92620	         8.90031e+57
          1331.73250	         1.02137e+58
          1332.53880	         8.85613e+57
          1333.34510	         8.60823e+57
          1334.15140	         8.96919e+57
          1334.95770	         8.39596e+57
          1335.76400	         1.04182e+58
          1336.57030	         1.06774e+58
          1337.37660	         1.00350e+58
          1338.18290	         1.04969e+58
          1338.98920	         1.17890e+58
          1339.79550	         1.35155e+58
          1340.60180	         1.36356e+58
          1341.40810	         1.37458e+58
          1342.21440	         1.21322e+58
          1343.02070	         1.14539e+58
          1343.82700	         1.01705e+58
          1344.63330	         9.48450e+57
          1345.43960	         1.29369e+58
          1346.24590	         1.11567e+58
          1347.05220	         1.01588e+58
          1347.85850	         9.90869e+57
          1348.66480	         1.10956e+58
          1349.47110	         1.17493e+58
          1350.27740	         1.12349e+58
          1351.08370	         1.16524e+58
          1351.89000	         1.12968e+58
          1352.69630	         1.23297e+58
          1353.50260	         1.15572e+58
          1354.30890	         1.11696e+58
          1355.11520	         1.20534e+58
          1355.92150	         1.16566e+58
          1356.72780	         1.13051e+58
          1357.53410	         1.05542e+58
          1358.34040	         1.09185e+58
          1359.14670	         9.01712e+57
          1359.95300	         9.78780e+57
          1360.75930	         1.22010e+58
          1361.56560	         1.21347e+58
          1362.37190	         1.14577e+58
          1363.17820	         1.01180e+58
          1363.98450	         9.99384e+57
          1364.79080	         1.23446e+58
          1365.59710	         1.26881e+58
          1366.40340	         1.15117e+58
          1367.20970	         1.06216e+58
          1368.01600	         1.02319e+58
          1368.82230	         9.59771e+57
          1369.62860	         1.03596e+58
          1370.43490	         8.63528e+57
          1371.24120	         9.88298e+57
          1372.04750	         9.78497e+57
          1372.85380	         9.55268e+57
          1373.66010	         1.13216e+58
          1374.46640	         1.09578e+58
          1375.27270	         1.01267e+58
          1376.07900	         1.01782e+58
          1376.88530	         9.93182e+57
          1377.69160	         9.82963e+57
          1378.49790	         8.18956e+57
          1379.30420	         8.51166e+57
          1380.11050	         9.50794e+57
          1380.91680	         8.59474e+57
          1381.72310	         9.52162e+57
          1382.52940	         9.70185e+57
          1383.33570	         8.70783e+57
          1384.14200	         9.42386e+57
          1384.94830	         1.11461e+58
          1385.75460	         1.03898e+58
          1386.56090	         1.07950e+58
          1387.36720	         1.12090e+58
          1388.17350	         1.17982e+58
          1388.97980	         1.03561e+58
          1389.78610	         7.72627e+57
          1390.59240	         6.87113e+57
          1391.39870	         7.02391e+57
          1392.20500	         7.55071e+57
          1393.01130	         8.14689e+57
          1393.81760	         7.51334e+57
          1394.62390	         6.29165e+57
          1395.43020	         5.52621e+57
          1396.23650	         5.48950e+57
          1397.04280	         8.06228e+57
          1397.84910	         9.32648e+57
          1398.65540	         8.61366e+57
          1399.46170	         8.70116e+57
          1400.26800	         8.95714e+57
          1401.07430	         7.20628e+57
          1401.88060	         7.56045e+57
          1402.68690	         8.83098e+57
          1403.49320	         8.22701e+57
          1404.29950	         7.78280e+57
          1405.10580	         9.69511e+57
          1405.91210	         1.05287e+58
          1406.71840	         9.65337e+57
          1407.52470	         9.81502e+57
          1408.33100	         1.02429e+58
          1409.13730	         1.05370e+58
          1409.94360	         1.14032e+58
          1410.74990	         1.21773e+58
          1411.55620	         9.90849e+57
          1412.36250	         8.52718e+57
          1413.16880	         8.99640e+57
          1413.97510	         7.78358e+57
          1414.78140	         8.32872e+57
          1415.58770	         1.02809e+58
          1416.39400	         9.82416e+57
          1417.20030	         1.06231e+58
          1418.00660	         1.04156e+58
          1418.81290	         1.00600e+58
          1419.61920	         1.01241e+58
          1420.42550	         1.18561e+58
          1421.23180	         1.40188e+58
          1422.03810	         1.18864e+58
          1422.84440	         1.13356e+58
          1423.65070	         1.24068e+58
          1424.45700	         1.17818e+58
          1425.26330	         1.00408e+58
          1426.06960	         1.03444e+58
          1426.87590	         1.13985e+58
          1427.68220	         1.03651e+58
          1428.48850	         9.97578e+57
          1429.29480	         9.65886e+57
          1430.10110	         9.40382e+57
          1430.90740	         7.44866e+57
          1431.71370	         8.18010e+57
          1432.52000	         8.82846e+57
          1433.32630	         7.75781e+57
          1434.13260	         7.87892e+57
          1434.93890	         8.69539e+57
          1435.74520	         9.12956e+57
          1436.55150	         9.61569e+57
          1437.35780	         9.40895e+57
          1438.16410	         9.61119e+57
          1438.97040	         9.48718e+57
          1439.77670	         8.16055e+57
          1440.58300	         9.11984e+57
          1441.38930	         1.07874e+58
          1442.19560	         9.34889e+57
          1443.00190	         9.38538e+57
          1443.80820	         1.09578e+58
          1444.61450	         1.02389e+58
          1445.42080	         1.01124e+58
          1446.22710	         1.10288e+58
          1447.03340	         1.02873e+58
          1447.83970	         1.08293e+58
          1448.64600	         1.07513e+58
          1449.45230	         1.00246e+58
          1450.25860	         1.10336e+58
          1451.06490	         8.72225e+57
          1451.87120	         6.75098e+57
          1452.67750	         6.08884e+57
          1453.48380	         7.91048e+57
          1454.29010	         8.76274e+57
          1455.09640	         8.49825e+57
          1455.90270	         9.36094e+57
          1456.70900	         8.53252e+57
          1457.51530	         9.91720e+57
          1458.32160	         1.27042e+58
          1459.12790	         1.16290e+58
          1459.93420	         1.07322e+58
          1460.74050	         9.08607e+57
          1461.54680	         9.46276e+57
          1462.35310	         7.64110e+57
          1463.15940	         8.39616e+57
          1463.96570	         1.18215e+58
          1464.77200	         1.19049e+58
          1465.57830	         1.05996e+58
          1466.38460	         1.00723e+58
          1467.19090	         8.51705e+57
          1467.99720	         8.85710e+57
          1468.80350	         9.85940e+57
          1469.60980	         1.01796e+58
          1470.41610	         9.93175e+57
          1471.22240	         8.44947e+57
          1472.02870	         9.51788e+57
          1472.83500	         9.41353e+57
          1473.64130	         9.91102e+57
          1474.44760	         1.03155e+58
          1475.25390	         9.96138e+57
          1476.06020	         8.26045e+57
          1476.86650	         7.44343e+57
          1477.67280	         7.18739e+57
          1478.47910	         5.92923e+57
          1479.28540	         6.85844e+57
          1480.09170	         7.62546e+57
          1480.89800	         8.52615e+57
          1481.70430	         9.42828e+57
          1482.51060	         7.32502e+57
          1483.31690	         7.81322e+57
          1484.12320	         8.89380e+57
          1484.92950	         8.14486e+57
          1485.73580	         8.41336e+57
          1486.54210	         8.51530e+57
          1487.34840	         8.63780e+57
          1488.15470	         8.54804e+57
          1488.96100	         9.20903e+57
          1489.76730	         9.12664e+57
