#sample_192_stacked_spectrum_rest_UV-bands_median_H-alpha_noDC.txt
#median Lum: 1.66822e+42
#Rest-frame wavelength (A) | Luminosity (erg/s/A)
#
          1110.00000	         0.00000e+00
          1110.80630	         3.92394e+59
          1111.61260	         1.07883e+59
          1112.41890	         5.47033e+58
          1113.22520	         2.12627e+59
          1114.03150	        -2.67893e+59
          1114.83780	        -4.06440e+58
          1115.64410	         1.00933e+59
          1116.45040	         1.55413e+59
          1117.25670	        -9.01425e+58
          1118.06300	         6.80649e+58
          1118.86930	        -2.23109e+58
          1119.67560	         1.55696e+59
          1120.48190	         5.31522e+58
          1121.28820	        -9.07949e+58
          1122.09450	        -1.31769e+57
          1122.90080	         5.06136e+58
          1123.70710	         1.36597e+59
          1124.51340	         1.09870e+59
          1125.31970	         5.96847e+58
          1126.12600	         3.04374e+58
          1126.93230	        -4.21360e+58
          1127.73860	        -6.60136e+58
          1128.54490	         9.87863e+57
          1129.35120	         4.74247e+57
          1130.15750	         4.11839e+58
          1130.96380	        -6.68799e+57
          1131.77010	         4.17712e+58
          1132.57640	         7.50610e+58
          1133.38270	         4.21216e+58
          1134.18900	         2.13958e+58
          1134.99530	         1.00971e+58
          1135.80160	        -2.28536e+58
          1136.60790	         5.57539e+57
          1137.41420	        -2.68667e+57
          1138.22050	         1.92698e+58
          1139.02680	         2.03921e+58
          1139.83310	         2.88902e+58
          1140.63940	         2.74343e+58
          1141.44570	        -8.74665e+57
          1142.25200	        -2.01786e+58
          1143.05830	         2.38411e+58
          1143.86460	         4.18303e+58
          1144.67090	         3.26672e+58
          1145.47720	        -2.40510e+57
          1146.28350	         4.28351e+57
          1147.08980	         4.38268e+57
          1147.89610	         5.79908e+57
          1148.70240	         1.72301e+58
          1149.50870	         2.03893e+58
          1150.31500	         1.53873e+58
          1151.12130	         5.65605e+57
          1151.92760	        -2.42563e+56
          1152.73390	         3.36176e+57
          1153.54020	        -2.69499e+57
          1154.34650	         1.50730e+58
          1155.15280	         2.63823e+58
          1155.95910	         1.41149e+58
          1156.76540	         1.06741e+58
          1157.57170	        -6.00432e+57
          1158.37800	         4.35171e+57
          1159.18430	        -6.09406e+57
          1159.99060	        -1.39602e+57
          1160.79690	         6.08159e+57
          1161.60320	         4.33412e+57
          1162.40950	         1.29674e+58
          1163.21580	         2.06683e+58
          1164.02210	         1.37996e+58
          1164.82840	         1.81024e+58
          1165.63470	         2.28234e+58
          1166.44100	         3.19909e+58
          1167.24730	         2.68933e+58
          1168.05360	         1.53928e+58
          1168.85990	         9.46580e+57
          1169.66620	         8.37100e+57
          1170.47250	         1.74264e+58
          1171.27880	         2.18813e+58
          1172.08510	         1.20718e+58
          1172.89140	         2.42748e+57
          1173.69770	         5.21458e+57
          1174.50400	         1.63281e+58
          1175.31030	         2.32178e+58
          1176.11660	         2.16451e+58
          1176.92290	         1.08542e+58
          1177.72920	         1.25306e+58
          1178.53550	         1.04356e+58
          1179.34180	         5.04166e+57
          1180.14810	         7.75885e+57
          1180.95440	         8.14982e+57
          1181.76070	         6.23285e+57
          1182.56700	         6.66100e+57
          1183.37330	         7.31584e+57
          1184.17960	         8.52622e+57
          1184.98590	         1.13612e+58
          1185.79220	         1.07649e+58
          1186.59850	         1.50157e+58
          1187.40480	         1.07235e+58
          1188.21110	         1.17436e+58
          1189.01740	         1.08640e+58
          1189.82370	         1.29513e+58
          1190.63000	         1.53602e+58
          1191.43630	         1.71203e+58
          1192.24260	         6.22512e+57
          1193.04890	         5.07589e+57
          1193.85520	         9.78810e+57
          1194.66150	         2.91524e+57
          1195.46780	         6.31924e+57
          1196.27410	         1.19607e+58
          1197.08040	         7.85026e+57
          1197.88670	         1.17655e+58
          1198.69300	         1.26268e+58
          1199.49930	         1.33766e+58
          1200.30560	         1.16761e+58
          1201.11190	         1.11884e+58
          1201.91820	         1.26071e+58
          1202.72450	         6.30953e+57
          1203.53080	         1.20035e+58
          1204.33710	         1.06553e+58
          1205.14340	         5.43754e+57
          1205.94970	         6.49329e+57
          1206.75600	         8.81865e+57
          1207.56230	         3.44364e+57
          1208.36860	         9.81620e+57
          1209.17490	         2.26495e+57
          1209.98120	         2.11154e+57
          1210.78750	         6.54199e+57
          1211.59380	         1.07551e+58
          1212.40010	         1.82975e+58
          1213.20640	         1.93484e+58
          1214.01270	         2.11185e+58
          1214.81900	         2.66477e+58
          1215.62530	         4.10726e+58
          1216.43160	         8.80896e+58
          1217.23790	         1.54700e+59
          1218.04420	         1.15116e+59
          1218.85050	         8.08165e+58
          1219.65680	         5.33638e+58
          1220.46310	         3.51029e+58
          1221.26940	         2.83457e+58
          1222.07570	         1.64009e+58
          1222.88200	         1.11956e+58
          1223.68830	         7.99172e+57
          1224.49460	         5.48645e+57
          1225.30090	         7.20737e+57
          1226.10720	         9.52755e+57
          1226.91350	         7.19136e+57
          1227.71980	         9.57218e+57
          1228.52610	         1.21128e+58
          1229.33240	         9.40891e+57
          1230.13870	         9.35060e+57
          1230.94500	         1.24896e+58
          1231.75130	         7.15177e+57
          1232.55760	         8.45653e+57
          1233.36390	         8.40505e+57
          1234.17020	         9.09705e+57
          1234.97650	         6.89832e+57
          1235.78280	         4.25223e+57
          1236.58910	         5.48172e+57
          1237.39540	         9.07149e+57
          1238.20170	         1.00321e+58
          1239.00800	         1.13067e+58
          1239.81430	         1.20440e+58
          1240.62060	         1.10426e+58
          1241.42690	         9.38269e+57
          1242.23320	         8.10087e+57
          1243.03950	         6.94804e+57
          1243.84580	         6.53772e+57
          1244.65210	         9.59546e+57
          1245.45840	         9.42619e+57
          1246.26470	         9.38116e+57
          1247.07100	         9.43440e+57
          1247.87730	         5.22439e+57
          1248.68360	         3.54337e+57
          1249.48990	         6.32470e+57
          1250.29620	         9.70900e+57
          1251.10250	         9.45241e+57
          1251.90880	         8.30241e+57
          1252.71510	         8.53423e+57
          1253.52140	         7.14937e+57
          1254.32770	         7.95117e+57
          1255.13400	         1.09944e+58
          1255.94030	         1.18699e+58
          1256.74660	         1.04994e+58
          1257.55290	         1.14642e+58
          1258.35920	         8.77949e+57
          1259.16550	         5.42153e+57
          1259.97180	         4.47484e+57
          1260.77810	         8.90359e+57
          1261.58440	         1.05094e+58
          1262.39070	         6.08232e+57
          1263.19700	         6.37231e+57
          1264.00330	         8.38978e+57
          1264.80960	         1.01206e+58
          1265.61590	         1.30000e+58
          1266.42220	         1.33109e+58
          1267.22850	         1.18623e+58
          1268.03480	         1.44220e+58
          1268.84110	         1.38697e+58
          1269.64740	         1.28170e+58
          1270.45370	         1.37413e+58
          1271.26000	         1.12798e+58
          1272.06630	         1.31702e+58
          1272.87260	         1.52903e+58
          1273.67890	         1.16627e+58
          1274.48520	         1.17673e+58
          1275.29150	         1.30147e+58
          1276.09780	         1.25802e+58
          1276.90410	         1.51305e+58
          1277.71040	         1.34985e+58
          1278.51670	         1.13564e+58
          1279.32300	         1.38525e+58
          1280.12930	         1.39642e+58
          1280.93560	         1.15196e+58
          1281.74190	         1.00979e+58
          1282.54820	         1.12388e+58
          1283.35450	         1.11577e+58
          1284.16080	         1.12496e+58
          1284.96710	         1.38212e+58
          1285.77340	         1.22873e+58
          1286.57970	         9.83948e+57
          1287.38600	         1.36555e+58
          1288.19230	         1.75480e+58
          1288.99860	         1.40072e+58
          1289.80490	         1.07077e+58
          1290.61120	         1.36616e+58
          1291.41750	         1.50911e+58
          1292.22380	         1.42180e+58
          1293.03010	         1.24177e+58
          1293.83640	         1.13015e+58
          1294.64270	         1.08493e+58
          1295.44900	         8.07067e+57
          1296.25530	         6.73845e+57
          1297.06160	         7.85731e+57
          1297.86790	         9.26370e+57
          1298.67420	         9.46538e+57
          1299.48050	         1.07562e+58
          1300.28680	         1.17111e+58
          1301.09310	         9.25179e+57
          1301.89940	         3.29149e+57
          1302.70570	         4.12297e+57
          1303.51200	         6.75518e+57
          1304.31830	         8.88447e+57
          1305.12460	         1.06468e+58
          1305.93090	         1.15140e+58
          1306.73720	         1.18423e+58
          1307.54350	         1.29212e+58
          1308.34980	         1.44846e+58
          1309.15610	         1.71349e+58
          1309.96240	         1.56885e+58
          1310.76870	         1.30720e+58
          1311.57500	         1.34704e+58
          1312.38130	         1.12113e+58
          1313.18760	         1.36683e+58
          1313.99390	         1.72284e+58
          1314.80020	         1.64793e+58
          1315.60650	         1.64407e+58
          1316.41280	         1.29911e+58
          1317.21910	         1.16540e+58
          1318.02540	         1.14755e+58
          1318.83170	         1.11702e+58
          1319.63800	         1.10432e+58
          1320.44430	         1.18486e+58
          1321.25060	         1.25876e+58
          1322.05690	         1.25510e+58
          1322.86320	         1.26394e+58
          1323.66950	         1.12086e+58
          1324.47580	         9.42311e+57
          1325.28210	         1.11796e+58
          1326.08840	         1.17231e+58
          1326.89470	         1.07585e+58
          1327.70100	         1.05463e+58
          1328.50730	         1.00499e+58
          1329.31360	         1.08906e+58
          1330.11990	         1.09257e+58
          1330.92620	         9.55645e+57
          1331.73250	         1.11739e+58
          1332.53880	         9.50741e+57
          1333.34510	         9.19832e+57
          1334.15140	         8.80656e+57
          1334.95770	         8.33493e+57
          1335.76400	         1.02056e+58
          1336.57030	         1.14479e+58
          1337.37660	         1.10562e+58
          1338.18290	         1.03781e+58
          1338.98920	         1.22409e+58
          1339.79550	         1.23469e+58
          1340.60180	         1.23246e+58
          1341.40810	         1.45136e+58
          1342.21440	         1.21695e+58
          1343.02070	         1.23223e+58
          1343.82700	         1.29422e+58
          1344.63330	         1.24510e+58
          1345.43960	         1.23258e+58
          1346.24590	         9.76844e+57
          1347.05220	         1.24079e+58
          1347.85850	         1.26441e+58
          1348.66480	         1.22322e+58
          1349.47110	         1.23366e+58
          1350.27740	         1.10350e+58
          1351.08370	         1.04442e+58
          1351.89000	         1.11484e+58
          1352.69630	         1.12572e+58
          1353.50260	         1.11791e+58
          1354.30890	         1.22399e+58
          1355.11520	         1.33939e+58
          1355.92150	         1.19608e+58
          1356.72780	         1.02372e+58
          1357.53410	         1.09799e+58
          1358.34040	         1.22198e+58
          1359.14670	         1.20615e+58
          1359.95300	         1.10378e+58
          1360.75930	         1.15952e+58
          1361.56560	         1.15066e+58
          1362.37190	         1.20986e+58
          1363.17820	         1.09788e+58
          1363.98450	         1.10502e+58
          1364.79080	         1.29710e+58
          1365.59710	         1.35283e+58
          1366.40340	         1.08356e+58
          1367.20970	         9.53744e+57
          1368.01600	         1.05144e+58
          1368.82230	         9.89610e+57
          1369.62860	         1.14494e+58
          1370.43490	         1.10418e+58
          1371.24120	         1.19601e+58
          1372.04750	         1.13461e+58
          1372.85380	         1.14257e+58
          1373.66010	         1.09068e+58
          1374.46640	         1.02613e+58
          1375.27270	         1.09212e+58
          1376.07900	         8.54336e+57
          1376.88530	         8.72362e+57
          1377.69160	         9.31545e+57
          1378.49790	         7.77842e+57
          1379.30420	         7.52522e+57
          1380.11050	         8.64206e+57
          1380.91680	         7.99324e+57
          1381.72310	         8.29969e+57
          1382.52940	         8.68119e+57
          1383.33570	         8.41411e+57
          1384.14200	         8.49264e+57
          1384.94830	         9.07536e+57
          1385.75460	         1.16636e+58
          1386.56090	         1.17046e+58
          1387.36720	         1.01431e+58
          1388.17350	         1.37019e+58
          1388.97980	         1.21405e+58
          1389.78610	         8.78118e+57
          1390.59240	         8.46313e+57
          1391.39870	         7.15660e+57
          1392.20500	         8.20435e+57
          1393.01130	         6.95491e+57
          1393.81760	         5.95067e+57
          1394.62390	         6.06891e+57
          1395.43020	         6.31383e+57
          1396.23650	         6.57306e+57
          1397.04280	         7.31213e+57
          1397.84910	         8.07979e+57
          1398.65540	         7.94751e+57
          1399.46170	         8.75229e+57
          1400.26800	         8.58572e+57
          1401.07430	         8.32653e+57
          1401.88060	         7.44530e+57
          1402.68690	         7.42750e+57
          1403.49320	         8.69559e+57
          1404.29950	         1.01126e+58
          1405.10580	         1.17187e+58
          1405.91210	         1.10854e+58
          1406.71840	         1.00752e+58
          1407.52470	         9.29290e+57
          1408.33100	         1.04467e+58
          1409.13730	         1.19582e+58
          1409.94360	         1.13233e+58
          1410.74990	         1.21244e+58
          1411.55620	         1.07049e+58
          1412.36250	         7.93999e+57
          1413.16880	         8.65908e+57
          1413.97510	         9.92447e+57
          1414.78140	         1.09425e+58
          1415.58770	         1.08477e+58
          1416.39400	         1.02933e+58
          1417.20030	         1.18508e+58
          1418.00660	         1.02661e+58
          1418.81290	         9.04744e+57
          1419.61920	         1.03912e+58
          1420.42550	         1.20820e+58
          1421.23180	         1.21622e+58
          1422.03810	         1.30188e+58
          1422.84440	         1.29313e+58
          1423.65070	         1.33521e+58
          1424.45700	         1.28301e+58
          1425.26330	         1.04431e+58
          1426.06960	         9.69765e+57
          1426.87590	         1.03741e+58
          1427.68220	         1.02805e+58
          1428.48850	         1.03608e+58
          1429.29480	         1.06692e+58
          1430.10110	         9.52492e+57
          1430.90740	         7.89399e+57
          1431.71370	         8.64698e+57
          1432.52000	         1.02362e+58
          1433.32630	         9.29938e+57
          1434.13260	         7.95525e+57
          1434.93890	         8.57260e+57
          1435.74520	         1.01387e+58
          1436.55150	         9.83111e+57
          1437.35780	         9.20489e+57
          1438.16410	         9.61723e+57
          1438.97040	         9.63128e+57
          1439.77670	         9.63826e+57
          1440.58300	         9.62431e+57
          1441.38930	         9.50314e+57
          1442.19560	         8.68171e+57
          1443.00190	         8.73126e+57
          1443.80820	         1.09329e+58
          1444.61450	         1.08552e+58
          1445.42080	         9.21509e+57
          1446.22710	         1.04569e+58
          1447.03340	         1.02235e+58
          1447.83970	         1.14208e+58
          1448.64600	         1.27321e+58
          1449.45230	         1.12933e+58
          1450.25860	         1.01184e+58
          1451.06490	         8.94493e+57
          1451.87120	         7.75879e+57
          1452.67750	         7.63501e+57
          1453.48380	         8.69320e+57
          1454.29010	         8.25704e+57
          1455.09640	         7.84864e+57
          1455.90270	         9.65717e+57
          1456.70900	         9.28385e+57
          1457.51530	         1.03545e+58
          1458.32160	         1.33244e+58
          1459.12790	         1.22056e+58
          1459.93420	         1.03553e+58
          1460.74050	         9.33111e+57
          1461.54680	         1.00233e+58
          1462.35310	         9.16381e+57
          1463.15940	         9.01755e+57
          1463.96570	         9.43317e+57
          1464.77200	         1.08932e+58
          1465.57830	         1.03837e+58
          1466.38460	         9.36572e+57
          1467.19090	         8.05105e+57
          1467.99720	         7.50490e+57
          1468.80350	         8.93475e+57
          1469.60980	         1.00903e+58
          1470.41610	         1.04075e+58
          1471.22240	         9.62515e+57
          1472.02870	         1.00769e+58
          1472.83500	         1.03496e+58
          1473.64130	         1.00307e+58
          1474.44760	         9.94072e+57
          1475.25390	         9.62994e+57
          1476.06020	         8.64552e+57
          1476.86650	         7.82068e+57
          1477.67280	         8.55789e+57
          1478.47910	         7.22973e+57
          1479.28540	         7.81904e+57
          1480.09170	         8.14996e+57
          1480.89800	         7.83726e+57
          1481.70430	         8.47967e+57
          1482.51060	         8.36149e+57
          1483.31690	         8.04767e+57
          1484.12320	         7.84711e+57
          1484.92950	         7.84649e+57
          1485.73580	         8.40874e+57
          1486.54210	         8.89261e+57
          1487.34840	         9.03483e+57
          1488.15470	         9.56692e+57
          1488.96100	         9.86457e+57
          1489.76730	         9.48249e+57
