#sample_116_stacked_spectrum_rest_UV-bands_median_H-alpha_noDC.txt
#median Lum: 1.68664e+42
#Rest-frame wavelength (A) | Luminosity (erg/s/A)
#
          1110.00000	         0.00000e+00
          1110.80630	        -1.49792e+59
          1111.61260	        -5.31754e+58
          1112.41890	         5.11881e+58
          1113.22520	        -2.78337e+58
          1114.03150	        -9.22945e+58
          1114.83780	         1.88858e+59
          1115.64410	         1.28561e+59
          1116.45040	         2.15761e+59
          1117.25670	         1.31064e+59
          1118.06300	         1.14217e+59
          1118.86930	        -1.16435e+59
          1119.67560	         3.41360e+58
          1120.48190	         2.26996e+58
          1121.28820	        -9.36717e+58
          1122.09450	         4.85046e+58
          1122.90080	        -2.80887e+58
          1123.70710	         1.78451e+58
          1124.51340	         7.40887e+58
          1125.31970	         2.23218e+58
          1126.12600	         1.23948e+58
          1126.93230	        -8.96462e+58
          1127.73860	        -5.38167e+58
          1128.54490	        -4.68615e+57
          1129.35120	        -1.28347e+58
          1130.15750	        -2.11780e+58
          1130.96380	        -4.93332e+58
          1131.77010	         4.59727e+58
          1132.57640	         5.66078e+58
          1133.38270	         2.55452e+58
          1134.18900	         2.92182e+58
          1134.99530	         2.92911e+58
          1135.80160	         1.94345e+58
          1136.60790	         1.30934e+58
          1137.41420	        -1.33847e+58
          1138.22050	         4.39641e+58
          1139.02680	         4.25333e+58
          1139.83310	         3.19094e+58
          1140.63940	         2.66796e+58
          1141.44570	        -7.68340e+57
          1142.25200	        -1.81439e+58
          1143.05830	         1.12921e+58
          1143.86460	         4.73782e+57
          1144.67090	         2.06581e+58
          1145.47720	         7.91534e+57
          1146.28350	         1.31440e+58
          1147.08980	         1.02295e+58
          1147.89610	         1.02128e+58
          1148.70240	         3.46472e+58
          1149.50870	         2.50409e+58
          1150.31500	         2.94409e+58
          1151.12130	         7.11904e+57
          1151.92760	        -1.13327e+57
          1152.73390	        -1.85866e+57
          1153.54020	         5.56922e+57
          1154.34650	         3.15496e+58
          1155.15280	         1.55748e+58
          1155.95910	         2.52246e+57
          1156.76540	         6.94933e+57
          1157.57170	         2.04068e+57
          1158.37800	         3.26059e+57
          1159.18430	         2.77641e+57
          1159.99060	         4.93185e+57
          1160.79690	         4.29817e+57
          1161.60320	         1.35227e+58
          1162.40950	         1.64810e+58
          1163.21580	         2.43007e+58
          1164.02210	         1.33523e+58
          1164.82840	         1.09995e+58
          1165.63470	         1.58132e+58
          1166.44100	         2.73102e+58
          1167.24730	         2.47803e+58
          1168.05360	         7.64220e+57
          1168.85990	         9.65242e+57
          1169.66620	         6.81463e+57
          1170.47250	         1.32063e+58
          1171.27880	         7.06924e+57
          1172.08510	         7.51872e+57
          1172.89140	         1.11263e+58
          1173.69770	         1.68876e+58
          1174.50400	         1.70648e+58
          1175.31030	         1.63012e+58
          1176.11660	         2.05833e+58
          1176.92290	         1.88975e+58
          1177.72920	         1.42491e+58
          1178.53550	         1.14683e+58
          1179.34180	         8.74412e+57
          1180.14810	         1.17607e+58
          1180.95440	         7.27044e+57
          1181.76070	         9.26266e+57
          1182.56700	         1.14099e+58
          1183.37330	         4.02536e+57
          1184.17960	         1.22884e+58
          1184.98590	         8.24111e+57
          1185.79220	         5.09495e+57
          1186.59850	         1.02240e+58
          1187.40480	         6.34801e+57
          1188.21110	         1.02947e+58
          1189.01740	         1.27814e+58
          1189.82370	         1.13513e+58
          1190.63000	         1.12920e+58
          1191.43630	         8.51975e+57
          1192.24260	         2.19232e+57
          1193.04890	         1.26054e+58
          1193.85520	         1.07840e+58
          1194.66150	         3.70045e+57
          1195.46780	         7.35987e+57
          1196.27410	         1.21480e+58
          1197.08040	         1.26898e+58
          1197.88670	         1.53931e+58
          1198.69300	         1.30423e+58
          1199.49930	         1.51078e+58
          1200.30560	         1.11512e+58
          1201.11190	         8.86737e+57
          1201.91820	         1.09157e+58
          1202.72450	         7.74841e+57
          1203.53080	         1.86131e+58
          1204.33710	         1.63681e+58
          1205.14340	         8.11929e+57
          1205.94970	         5.71246e+57
          1206.75600	         5.73098e+57
          1207.56230	         9.39321e+57
          1208.36860	         8.45879e+57
          1209.17490	         4.01971e+57
          1209.98120	         6.36853e+57
          1210.78750	         1.01471e+58
          1211.59380	         1.35711e+58
          1212.40010	         1.84890e+58
          1213.20640	         1.80149e+58
          1214.01270	         1.84428e+58
          1214.81900	         2.63000e+58
          1215.62530	         4.68398e+58
          1216.43160	         8.86640e+58
          1217.23790	         1.50217e+59
          1218.04420	         1.14657e+59
          1218.85050	         8.43040e+58
          1219.65680	         5.06927e+58
          1220.46310	         2.78885e+58
          1221.26940	         2.60858e+58
          1222.07570	         1.77144e+58
          1222.88200	         1.11094e+58
          1223.68830	         6.93200e+57
          1224.49460	         4.98878e+57
          1225.30090	         4.98762e+57
          1226.10720	         7.44457e+57
          1226.91350	         6.42571e+57
          1227.71980	         7.31870e+57
          1228.52610	         1.23025e+58
          1229.33240	         1.07373e+58
          1230.13870	         8.15288e+57
          1230.94500	         5.53055e+57
          1231.75130	         5.95393e+57
          1232.55760	         8.46937e+57
          1233.36390	         9.44903e+57
          1234.17020	         8.22585e+57
          1234.97650	         7.55633e+57
          1235.78280	         7.20685e+57
          1236.58910	         7.71668e+57
          1237.39540	         9.82299e+57
          1238.20170	         9.92850e+57
          1239.00800	         1.25911e+58
          1239.81430	         1.38706e+58
          1240.62060	         1.15793e+58
          1241.42690	         1.18874e+58
          1242.23320	         1.36754e+58
          1243.03950	         8.78176e+57
          1243.84580	         7.72323e+57
          1244.65210	         1.11415e+58
          1245.45840	         1.01948e+58
          1246.26470	         8.34664e+57
          1247.07100	         8.66767e+57
          1247.87730	         8.24990e+57
          1248.68360	         2.44089e+57
          1249.48990	         6.91940e+57
          1250.29620	         8.69711e+57
          1251.10250	         9.06957e+57
          1251.90880	         4.71025e+57
          1252.71510	         3.90023e+57
          1253.52140	         7.04558e+57
          1254.32770	         7.95183e+57
          1255.13400	         1.08433e+58
          1255.94030	         1.14797e+58
          1256.74660	         9.22372e+57
          1257.55290	         9.92422e+57
          1258.35920	         9.93669e+57
          1259.16550	         5.19619e+57
          1259.97180	         4.52286e+57
          1260.77810	         6.92460e+57
          1261.58440	         9.60957e+57
          1262.39070	         6.28780e+57
          1263.19700	         8.33128e+57
          1264.00330	         1.09001e+58
          1264.80960	         1.25427e+58
          1265.61590	         1.15586e+58
          1266.42220	         1.18563e+58
          1267.22850	         1.17026e+58
          1268.03480	         1.43789e+58
          1268.84110	         1.28844e+58
          1269.64740	         1.21493e+58
          1270.45370	         1.20957e+58
          1271.26000	         9.87234e+57
          1272.06630	         1.12573e+58
          1272.87260	         1.27753e+58
          1273.67890	         1.29933e+58
          1274.48520	         1.27742e+58
          1275.29150	         1.08268e+58
          1276.09780	         9.75273e+57
          1276.90410	         1.37285e+58
          1277.71040	         1.37039e+58
          1278.51670	         1.17890e+58
          1279.32300	         1.24808e+58
          1280.12930	         1.25355e+58
          1280.93560	         1.14020e+58
          1281.74190	         1.25584e+58
          1282.54820	         1.41028e+58
          1283.35450	         1.31277e+58
          1284.16080	         1.30995e+58
          1284.96710	         1.34156e+58
          1285.77340	         1.31094e+58
          1286.57970	         1.27217e+58
          1287.38600	         1.65153e+58
          1288.19230	         1.74414e+58
          1288.99860	         1.59977e+58
          1289.80490	         1.29394e+58
          1290.61120	         1.39400e+58
          1291.41750	         1.67520e+58
          1292.22380	         1.61632e+58
          1293.03010	         1.20187e+58
          1293.83640	         1.17212e+58
          1294.64270	         1.10035e+58
          1295.44900	         5.45923e+57
          1296.25530	         6.69322e+57
          1297.06160	         1.06278e+58
          1297.86790	         9.27245e+57
          1298.67420	         8.69394e+57
          1299.48050	         1.00043e+58
          1300.28680	         1.13334e+58
          1301.09310	         1.00255e+58
          1301.89940	         4.41575e+57
          1302.70570	         4.91775e+57
          1303.51200	         7.34807e+57
          1304.31830	         1.01970e+58
          1305.12460	         1.04439e+58
          1305.93090	         1.01955e+58
          1306.73720	         1.17962e+58
          1307.54350	         1.37883e+58
          1308.34980	         1.39835e+58
          1309.15610	         1.46288e+58
          1309.96240	         1.41187e+58
          1310.76870	         1.34861e+58
          1311.57500	         1.29226e+58
          1312.38130	         1.35759e+58
          1313.18760	         1.51190e+58
          1313.99390	         1.39446e+58
          1314.80020	         1.59158e+58
          1315.60650	         1.52770e+58
          1316.41280	         1.25124e+58
          1317.21910	         1.09436e+58
          1318.02540	         1.16332e+58
          1318.83170	         1.19609e+58
          1319.63800	         1.23479e+58
          1320.44430	         1.22938e+58
          1321.25060	         1.29147e+58
          1322.05690	         1.41145e+58
          1322.86320	         1.29788e+58
          1323.66950	         9.49974e+57
          1324.47580	         8.58142e+57
          1325.28210	         1.01355e+58
          1326.08840	         1.14878e+58
          1326.89470	         1.30775e+58
          1327.70100	         1.17429e+58
          1328.50730	         8.38558e+57
          1329.31360	         9.16293e+57
          1330.11990	         1.15144e+58
          1330.92620	         1.02942e+58
          1331.73250	         1.13836e+58
          1332.53880	         8.80159e+57
          1333.34510	         7.30812e+57
          1334.15140	         8.75940e+57
          1334.95770	         8.26088e+57
          1335.76400	         1.00706e+58
          1336.57030	         1.04943e+58
          1337.37660	         1.06104e+58
          1338.18290	         1.21370e+58
          1338.98920	         1.16194e+58
          1339.79550	         1.07883e+58
          1340.60180	         1.08535e+58
          1341.40810	         1.18891e+58
          1342.21440	         1.23315e+58
          1343.02070	         1.27803e+58
          1343.82700	         1.29833e+58
          1344.63330	         1.26649e+58
          1345.43960	         1.31758e+58
          1346.24590	         1.15467e+58
          1347.05220	         1.15765e+58
          1347.85850	         1.12307e+58
          1348.66480	         1.14957e+58
          1349.47110	         1.22517e+58
          1350.27740	         1.22816e+58
          1351.08370	         1.21888e+58
          1351.89000	         1.27691e+58
          1352.69630	         1.16004e+58
          1353.50260	         1.19022e+58
          1354.30890	         1.20984e+58
          1355.11520	         1.26427e+58
          1355.92150	         1.04539e+58
          1356.72780	         9.57048e+57
          1357.53410	         1.04814e+58
          1358.34040	         1.09749e+58
          1359.14670	         1.09575e+58
          1359.95300	         1.15231e+58
          1360.75930	         9.89448e+57
          1361.56560	         9.28973e+57
          1362.37190	         1.16812e+58
          1363.17820	         1.02190e+58
          1363.98450	         9.95397e+57
          1364.79080	         1.21689e+58
          1365.59710	         1.19573e+58
          1366.40340	         1.03533e+58
          1367.20970	         8.89638e+57
          1368.01600	         6.98349e+57
          1368.82230	         7.70124e+57
          1369.62860	         1.11571e+58
          1370.43490	         8.71137e+57
          1371.24120	         8.32182e+57
          1372.04750	         8.44867e+57
          1372.85380	         1.11699e+58
          1373.66010	         1.15973e+58
          1374.46640	         1.01120e+58
          1375.27270	         1.11866e+58
          1376.07900	         9.59285e+57
          1376.88530	         8.01850e+57
          1377.69160	         8.99953e+57
          1378.49790	         8.89181e+57
          1379.30420	         8.53995e+57
          1380.11050	         8.40149e+57
          1380.91680	         9.83384e+57
          1381.72310	         8.91539e+57
          1382.52940	         8.18022e+57
          1383.33570	         8.43421e+57
          1384.14200	         1.01078e+58
          1384.94830	         1.19259e+58
          1385.75460	         9.93168e+57
          1386.56090	         9.76275e+57
          1387.36720	         1.18436e+58
          1388.17350	         1.47016e+58
          1388.97980	         1.31116e+58
          1389.78610	         1.04695e+58
          1390.59240	         7.20973e+57
          1391.39870	         6.54351e+57
          1392.20500	         8.39199e+57
          1393.01130	         7.72122e+57
          1393.81760	         6.88936e+57
          1394.62390	         7.59282e+57
          1395.43020	         7.58867e+57
          1396.23650	         7.87469e+57
          1397.04280	         7.88368e+57
          1397.84910	         8.72964e+57
          1398.65540	         8.79477e+57
          1399.46170	         9.37337e+57
          1400.26800	         8.05792e+57
          1401.07430	         7.36128e+57
          1401.88060	         7.45871e+57
          1402.68690	         9.69471e+57
          1403.49320	         1.07082e+58
          1404.29950	         9.58426e+57
          1405.10580	         1.01154e+58
          1405.91210	         1.11192e+58
          1406.71840	         9.89664e+57
          1407.52470	         9.72687e+57
          1408.33100	         1.08998e+58
          1409.13730	         1.20749e+58
          1409.94360	         1.19693e+58
          1410.74990	         1.15300e+58
          1411.55620	         1.05250e+58
          1412.36250	         8.83798e+57
          1413.16880	         8.54443e+57
          1413.97510	         7.92128e+57
          1414.78140	         7.59309e+57
          1415.58770	         9.57934e+57
          1416.39400	         1.13143e+58
          1417.20030	         1.03034e+58
          1418.00660	         9.44791e+57
          1418.81290	         1.17501e+58
          1419.61920	         1.09703e+58
          1420.42550	         1.26293e+58
          1421.23180	         1.22737e+58
          1422.03810	         1.00205e+58
          1422.84440	         9.61226e+57
          1423.65070	         1.11647e+58
          1424.45700	         1.10562e+58
          1425.26330	         8.19978e+57
          1426.06960	         8.14442e+57
          1426.87590	         1.00078e+58
          1427.68220	         1.00395e+58
          1428.48850	         1.06631e+58
          1429.29480	         1.05177e+58
          1430.10110	         9.97804e+57
          1430.90740	         8.04672e+57
          1431.71370	         8.61186e+57
          1432.52000	         9.26494e+57
          1433.32630	         8.90555e+57
          1434.13260	         8.53482e+57
          1434.93890	         8.33931e+57
          1435.74520	         8.21102e+57
          1436.55150	         8.47001e+57
          1437.35780	         9.29279e+57
          1438.16410	         9.69449e+57
          1438.97040	         8.83424e+57
          1439.77670	         8.78958e+57
          1440.58300	         9.35733e+57
          1441.38930	         1.03622e+58
          1442.19560	         9.47200e+57
          1443.00190	         8.92163e+57
          1443.80820	         9.22231e+57
          1444.61450	         8.53597e+57
          1445.42080	         8.21461e+57
          1446.22710	         1.06097e+58
          1447.03340	         1.03506e+58
          1447.83970	         1.10188e+58
          1448.64600	         1.09338e+58
          1449.45230	         9.56498e+57
          1450.25860	         9.90463e+57
          1451.06490	         8.18368e+57
          1451.87120	         6.73315e+57
          1452.67750	         7.40899e+57
          1453.48380	         7.91927e+57
          1454.29010	         8.05006e+57
          1455.09640	         8.64506e+57
          1455.90270	         1.02922e+58
          1456.70900	         9.53434e+57
          1457.51530	         9.34527e+57
          1458.32160	         1.14826e+58
          1459.12790	         1.17889e+58
          1459.93420	         9.55362e+57
          1460.74050	         8.44970e+57
          1461.54680	         8.12641e+57
          1462.35310	         8.04001e+57
          1463.15940	         1.00711e+58
          1463.96570	         1.09445e+58
          1464.77200	         1.10193e+58
          1465.57830	         9.67881e+57
          1466.38460	         7.79150e+57
          1467.19090	         8.49664e+57
          1467.99720	         8.53306e+57
          1468.80350	         8.81853e+57
          1469.60980	         9.48109e+57
          1470.41610	         1.08471e+58
          1471.22240	         9.87130e+57
          1472.02870	         9.39470e+57
          1472.83500	         1.08580e+58
          1473.64130	         1.06298e+58
          1474.44760	         9.26376e+57
          1475.25390	         9.29368e+57
          1476.06020	         9.35839e+57
          1476.86650	         8.20978e+57
          1477.67280	         7.49447e+57
          1478.47910	         7.03143e+57
          1479.28540	         7.25501e+57
          1480.09170	         8.42624e+57
          1480.89800	         1.00997e+58
          1481.70430	         8.85290e+57
          1482.51060	         7.90581e+57
          1483.31690	         7.65544e+57
          1484.12320	         8.20971e+57
          1484.92950	         6.58869e+57
          1485.73580	         6.36209e+57
          1486.54210	         7.39290e+57
          1487.34840	         8.25266e+57
          1488.15470	         9.02370e+57
          1488.96100	         9.01921e+57
          1489.76730	         8.73049e+57
