#sample_261_stacked_spectrum_rest_UV-bands_median_H-alpha_noDC.txt
#median Lum: 1.68593e+42
#Rest-frame wavelength (A) | Luminosity (erg/s/A)
#
          1110.00000	         0.00000e+00
          1110.80630	         3.88127e+59
          1111.61260	         2.23780e+59
          1112.41890	         4.68203e+58
          1113.22520	        -4.10029e+58
          1114.03150	        -4.82265e+58
          1114.83780	        -5.15422e+58
          1115.64410	         7.83183e+58
          1116.45040	         2.14073e+59
          1117.25670	         3.56277e+57
          1118.06300	         1.69699e+58
          1118.86930	        -7.03017e+58
          1119.67560	         1.48643e+59
          1120.48190	         1.22514e+59
          1121.28820	        -1.49111e+59
          1122.09450	        -8.41697e+58
          1122.90080	         4.34977e+58
          1123.70710	         1.05903e+59
          1124.51340	         9.64791e+58
          1125.31970	         2.15179e+58
          1126.12600	        -4.70908e+58
          1126.93230	        -7.74395e+58
          1127.73860	        -6.62621e+58
          1128.54490	         2.07273e+57
          1129.35120	        -4.61542e+56
          1130.15750	         3.18796e+57
          1130.96380	         5.76742e+57
          1131.77010	         4.76523e+58
          1132.57640	         5.96447e+57
          1133.38270	         8.06870e+58
          1134.18900	         3.19387e+58
          1134.99530	         8.94549e+57
          1135.80160	         3.96098e+58
          1136.60790	         2.04907e+58
          1137.41420	         8.05916e+57
          1138.22050	         3.21592e+58
          1139.02680	         1.82287e+58
          1139.83310	         5.74591e+57
          1140.63940	         1.89091e+58
          1141.44570	         2.53014e+56
          1142.25200	        -3.10995e+57
          1143.05830	         9.16531e+57
          1143.86460	         3.01200e+58
          1144.67090	         3.46618e+58
          1145.47720	         8.56065e+57
          1146.28350	         2.83813e+57
          1147.08980	         6.95021e+56
          1147.89610	         1.65712e+58
          1148.70240	         2.61198e+58
          1149.50870	         2.33671e+58
          1150.31500	         1.81433e+58
          1151.12130	         1.09003e+58
          1151.92760	         1.25689e+58
          1152.73390	         5.42325e+57
          1153.54020	        -4.45829e+57
          1154.34650	         1.72844e+58
          1155.15280	         1.83093e+58
          1155.95910	         1.21223e+58
          1156.76540	         8.41259e+57
          1157.57170	        -2.37286e+57
          1158.37800	        -7.31598e+57
          1159.18430	        -1.51509e+57
          1159.99060	         9.40588e+57
          1160.79690	         8.03911e+57
          1161.60320	         1.86302e+58
          1162.40950	         5.03927e+57
          1163.21580	         1.58331e+58
          1164.02210	         2.11893e+58
          1164.82840	         1.35824e+58
          1165.63470	         2.05050e+58
          1166.44100	         2.66174e+58
          1167.24730	         1.83162e+58
          1168.05360	         1.55520e+58
          1168.85990	         6.44713e+57
          1169.66620	         4.31310e+57
          1170.47250	         1.79900e+58
          1171.27880	         1.92887e+58
          1172.08510	         1.59718e+58
          1172.89140	         1.48984e+58
          1173.69770	         5.63696e+57
          1174.50400	         1.09715e+58
          1175.31030	         1.48980e+58
          1176.11660	         1.88764e+58
          1176.92290	         1.52383e+58
          1177.72920	         1.36003e+58
          1178.53550	         6.89694e+57
          1179.34180	         6.86694e+57
          1180.14810	         6.96269e+57
          1180.95440	         7.14070e+57
          1181.76070	         1.20637e+58
          1182.56700	         1.14590e+58
          1183.37330	         1.08226e+58
          1184.17960	         1.27948e+58
          1184.98590	         7.36207e+57
          1185.79220	         1.68198e+57
          1186.59850	         5.24241e+57
          1187.40480	         4.90456e+57
          1188.21110	         1.24232e+58
          1189.01740	         1.18155e+58
          1189.82370	         7.89909e+57
          1190.63000	         1.14463e+58
          1191.43630	         1.33998e+58
          1192.24260	         6.83220e+57
          1193.04890	         8.75058e+57
          1193.85520	         1.37110e+58
          1194.66150	         6.04745e+57
          1195.46780	         1.00546e+58
          1196.27410	         1.45295e+58
          1197.08040	         1.34981e+58
          1197.88670	         1.64983e+58
          1198.69300	         1.68682e+58
          1199.49930	         1.76020e+58
          1200.30560	         1.30106e+58
          1201.11190	         1.38452e+58
          1201.91820	         1.34459e+58
          1202.72450	         7.83812e+57
          1203.53080	         9.70877e+57
          1204.33710	         7.31702e+57
          1205.14340	         1.04825e+58
          1205.94970	         7.32056e+57
          1206.75600	         8.65946e+57
          1207.56230	         6.04674e+57
          1208.36860	         8.65154e+57
          1209.17490	         7.04251e+57
          1209.98120	         3.83667e+57
          1210.78750	         5.32264e+57
          1211.59380	         8.42209e+57
          1212.40010	         1.31269e+58
          1213.20640	         2.07072e+58
          1214.01270	         2.13891e+58
          1214.81900	         2.65917e+58
          1215.62530	         4.67707e+58
          1216.43160	         8.96429e+58
          1217.23790	         1.53265e+59
          1218.04420	         1.20241e+59
          1218.85050	         8.85235e+58
          1219.65680	         5.63040e+58
          1220.46310	         3.72775e+58
          1221.26940	         2.43839e+58
          1222.07570	         1.58259e+58
          1222.88200	         1.70768e+58
          1223.68830	         1.10020e+58
          1224.49460	         6.50580e+57
          1225.30090	         8.19244e+57
          1226.10720	         7.80195e+57
          1226.91350	         8.08655e+57
          1227.71980	         8.51825e+57
          1228.52610	         1.10341e+58
          1229.33240	         1.00498e+58
          1230.13870	         8.66205e+57
          1230.94500	         1.12214e+58
          1231.75130	         8.53817e+57
          1232.55760	         1.01585e+58
          1233.36390	         7.66722e+57
          1234.17020	         7.98647e+57
          1234.97650	         1.04613e+58
          1235.78280	         1.06633e+58
          1236.58910	         1.11332e+58
          1237.39540	         1.02456e+58
          1238.20170	         1.05058e+58
          1239.00800	         1.37757e+58
          1239.81430	         1.72543e+58
          1240.62060	         1.52360e+58
          1241.42690	         1.27756e+58
          1242.23320	         1.09103e+58
          1243.03950	         6.81933e+57
          1243.84580	         7.50265e+57
          1244.65210	         7.55469e+57
          1245.45840	         7.20087e+57
          1246.26470	         8.72149e+57
          1247.07100	         5.16748e+57
          1247.87730	         5.90886e+57
          1248.68360	         1.05370e+57
          1249.48990	         7.10199e+57
          1250.29620	         9.18736e+57
          1251.10250	         4.93635e+57
          1251.90880	         4.20531e+57
          1252.71510	         6.29106e+57
          1253.52140	         7.04785e+57
          1254.32770	         9.05597e+57
          1255.13400	         1.07547e+58
          1255.94030	         1.10207e+58
          1256.74660	         1.19214e+58
          1257.55290	         1.20675e+58
          1258.35920	         8.06853e+57
          1259.16550	         4.99813e+57
          1259.97180	         3.90730e+57
          1260.77810	         9.30970e+57
          1261.58440	         1.27711e+58
          1262.39070	         9.19136e+57
          1263.19700	         8.01131e+57
          1264.00330	         7.69337e+57
          1264.80960	         8.10859e+57
          1265.61590	         1.24623e+58
          1266.42220	         1.46637e+58
          1267.22850	         1.13034e+58
          1268.03480	         1.34995e+58
          1268.84110	         1.70488e+58
          1269.64740	         1.60580e+58
          1270.45370	         1.42776e+58
          1271.26000	         1.43046e+58
          1272.06630	         1.19641e+58
          1272.87260	         1.39639e+58
          1273.67890	         1.41159e+58
          1274.48520	         1.13239e+58
          1275.29150	         1.34077e+58
          1276.09780	         1.24557e+58
          1276.90410	         1.53755e+58
          1277.71040	         1.26063e+58
          1278.51670	         1.18866e+58
          1279.32300	         1.48724e+58
          1280.12930	         1.34212e+58
          1280.93560	         9.62011e+57
          1281.74190	         9.19990e+57
          1282.54820	         1.32810e+58
          1283.35450	         1.38035e+58
          1284.16080	         1.19375e+58
          1284.96710	         1.43255e+58
          1285.77340	         1.52792e+58
          1286.57970	         1.34192e+58
          1287.38600	         1.47016e+58
          1288.19230	         1.68834e+58
          1288.99860	         1.59892e+58
          1289.80490	         1.27837e+58
          1290.61120	         1.34383e+58
          1291.41750	         1.42444e+58
          1292.22380	         1.36990e+58
          1293.03010	         1.26227e+58
          1293.83640	         1.29795e+58
          1294.64270	         1.04530e+58
          1295.44900	         6.73805e+57
          1296.25530	         7.82481e+57
          1297.06160	         1.00933e+58
          1297.86790	         1.16803e+58
          1298.67420	         1.16109e+58
          1299.48050	         1.01221e+58
          1300.28680	         9.30679e+57
          1301.09310	         7.44695e+57
          1301.89940	         4.22435e+57
          1302.70570	         5.72283e+57
          1303.51200	         7.72746e+57
          1304.31830	         9.76062e+57
          1305.12460	         1.14057e+58
          1305.93090	         1.16854e+58
          1306.73720	         1.33298e+58
          1307.54350	         1.52555e+58
          1308.34980	         1.57347e+58
          1309.15610	         1.63192e+58
          1309.96240	         1.40457e+58
          1310.76870	         1.34334e+58
          1311.57500	         1.18730e+58
          1312.38130	         1.19733e+58
          1313.18760	         1.43948e+58
          1313.99390	         1.57920e+58
          1314.80020	         1.69663e+58
          1315.60650	         1.60232e+58
          1316.41280	         1.27093e+58
          1317.21910	         1.02466e+58
          1318.02540	         1.13809e+58
          1318.83170	         1.32520e+58
          1319.63800	         1.32462e+58
          1320.44430	         1.25846e+58
          1321.25060	         1.28616e+58
          1322.05690	         1.25273e+58
          1322.86320	         1.29725e+58
          1323.66950	         1.26107e+58
          1324.47580	         9.74636e+57
          1325.28210	         8.86629e+57
          1326.08840	         1.06558e+58
          1326.89470	         1.22844e+58
          1327.70100	         1.16721e+58
          1328.50730	         9.74995e+57
          1329.31360	         9.90434e+57
          1330.11990	         1.04790e+58
          1330.92620	         1.04630e+58
          1331.73250	         1.23746e+58
          1332.53880	         1.15377e+58
          1333.34510	         1.03810e+58
          1334.15140	         1.02137e+58
          1334.95770	         1.02022e+58
          1335.76400	         1.08995e+58
          1336.57030	         1.17597e+58
          1337.37660	         1.07161e+58
          1338.18290	         1.11116e+58
          1338.98920	         1.29405e+58
          1339.79550	         1.20472e+58
          1340.60180	         1.02346e+58
          1341.40810	         1.22105e+58
          1342.21440	         1.18932e+58
          1343.02070	         1.34040e+58
          1343.82700	         1.35121e+58
          1344.63330	         1.17290e+58
          1345.43960	         1.26246e+58
          1346.24590	         1.17283e+58
          1347.05220	         1.29305e+58
          1347.85850	         1.20849e+58
          1348.66480	         1.17484e+58
          1349.47110	         1.23748e+58
          1350.27740	         1.20771e+58
          1351.08370	         1.05385e+58
          1351.89000	         1.01801e+58
          1352.69630	         1.19058e+58
          1353.50260	         1.22645e+58
          1354.30890	         1.19514e+58
          1355.11520	         1.23395e+58
          1355.92150	         1.16220e+58
          1356.72780	         1.08983e+58
          1357.53410	         9.97744e+57
          1358.34040	         1.02452e+58
          1359.14670	         1.05266e+58
          1359.95300	         1.00706e+58
          1360.75930	         1.06180e+58
          1361.56560	         1.07343e+58
          1362.37190	         1.01272e+58
          1363.17820	         1.00106e+58
          1363.98450	         1.28091e+58
          1364.79080	         1.31361e+58
          1365.59710	         1.20997e+58
          1366.40340	         1.13866e+58
          1367.20970	         8.58457e+57
          1368.01600	         8.85343e+57
          1368.82230	         9.80884e+57
          1369.62860	         1.13216e+58
          1370.43490	         1.03531e+58
          1371.24120	         1.06309e+58
          1372.04750	         9.81226e+57
          1372.85380	         1.12579e+58
          1373.66010	         1.26608e+58
          1374.46640	         1.13150e+58
          1375.27270	         1.03452e+58
          1376.07900	         9.69783e+57
          1376.88530	         9.23167e+57
          1377.69160	         9.94545e+57
          1378.49790	         8.32444e+57
          1379.30420	         8.62782e+57
          1380.11050	         9.37558e+57
          1380.91680	         6.72067e+57
          1381.72310	         6.61955e+57
          1382.52940	         7.47123e+57
          1383.33570	         8.21070e+57
          1384.14200	         9.43806e+57
          1384.94830	         9.54398e+57
          1385.75460	         1.02454e+58
          1386.56090	         1.15054e+58
          1387.36720	         1.19173e+58
          1388.17350	         1.38680e+58
          1388.97980	         1.29509e+58
          1389.78610	         9.71735e+57
          1390.59240	         7.44910e+57
          1391.39870	         5.04827e+57
          1392.20500	         6.93318e+57
          1393.01130	         7.45429e+57
          1393.81760	         6.64346e+57
          1394.62390	         7.47959e+57
          1395.43020	         6.87858e+57
          1396.23650	         6.70744e+57
          1397.04280	         7.32471e+57
          1397.84910	         8.26968e+57
          1398.65540	         9.57139e+57
          1399.46170	         1.08122e+58
          1400.26800	         8.08126e+57
          1401.07430	         6.87242e+57
          1401.88060	         8.65635e+57
          1402.68690	         9.61527e+57
          1403.49320	         9.76526e+57
          1404.29950	         8.46164e+57
          1405.10580	         1.07592e+58
          1405.91210	         1.20109e+58
          1406.71840	         1.10675e+58
          1407.52470	         1.02323e+58
          1408.33100	         1.01546e+58
          1409.13730	         1.08776e+58
          1409.94360	         9.84736e+57
          1410.74990	         1.03947e+58
          1411.55620	         1.07041e+58
          1412.36250	         9.11531e+57
          1413.16880	         9.37172e+57
          1413.97510	         1.03526e+58
          1414.78140	         1.02068e+58
          1415.58770	         1.10494e+58
          1416.39400	         1.21992e+58
          1417.20030	         1.16971e+58
          1418.00660	         9.53532e+57
          1418.81290	         9.64053e+57
          1419.61920	         9.89305e+57
          1420.42550	         1.19275e+58
          1421.23180	         1.32813e+58
          1422.03810	         1.24963e+58
          1422.84440	         1.16661e+58
          1423.65070	         1.23932e+58
          1424.45700	         1.22351e+58
          1425.26330	         1.03552e+58
          1426.06960	         9.51040e+57
          1426.87590	         1.01613e+58
          1427.68220	         1.08396e+58
          1428.48850	         1.08971e+58
          1429.29480	         1.11696e+58
          1430.10110	         1.04618e+58
          1430.90740	         8.54969e+57
          1431.71370	         8.85403e+57
          1432.52000	         9.23119e+57
          1433.32630	         8.52291e+57
          1434.13260	         8.34548e+57
          1434.93890	         8.68426e+57
          1435.74520	         9.51192e+57
          1436.55150	         9.68746e+57
          1437.35780	         9.61587e+57
          1438.16410	         9.72495e+57
          1438.97040	         9.01324e+57
          1439.77670	         8.57617e+57
          1440.58300	         9.25410e+57
          1441.38930	         1.03658e+58
          1442.19560	         1.00078e+58
          1443.00190	         9.44811e+57
          1443.80820	         1.06614e+58
          1444.61450	         1.10487e+58
          1445.42080	         9.86468e+57
          1446.22710	         1.07450e+58
          1447.03340	         1.09523e+58
          1447.83970	         1.08964e+58
          1448.64600	         1.16498e+58
          1449.45230	         1.09212e+58
          1450.25860	         1.07452e+58
          1451.06490	         9.59340e+57
          1451.87120	         7.25365e+57
          1452.67750	         7.48692e+57
          1453.48380	         8.02454e+57
          1454.29010	         8.57500e+57
          1455.09640	         7.97097e+57
          1455.90270	         9.06214e+57
          1456.70900	         9.85123e+57
          1457.51530	         1.08270e+58
          1458.32160	         1.22369e+58
          1459.12790	         1.19980e+58
          1459.93420	         1.03837e+58
          1460.74050	         9.01439e+57
          1461.54680	         8.85116e+57
          1462.35310	         8.06508e+57
          1463.15940	         1.00977e+58
          1463.96570	         1.19698e+58
          1464.77200	         1.34537e+58
          1465.57830	         1.30841e+58
          1466.38460	         1.00475e+58
          1467.19090	         7.62219e+57
          1467.99720	         8.56163e+57
          1468.80350	         8.11343e+57
          1469.60980	         9.66963e+57
          1470.41610	         1.15794e+58
          1471.22240	         9.52512e+57
          1472.02870	         9.23450e+57
          1472.83500	         9.58261e+57
          1473.64130	         1.08536e+58
          1474.44760	         1.07340e+58
          1475.25390	         9.44000e+57
          1476.06020	         8.40635e+57
          1476.86650	         8.99520e+57
          1477.67280	         9.11378e+57
          1478.47910	         7.26512e+57
          1479.28540	         7.07669e+57
          1480.09170	         7.85827e+57
          1480.89800	         8.05586e+57
          1481.70430	         8.80486e+57
          1482.51060	         8.30963e+57
          1483.31690	         6.45033e+57
          1484.12320	         6.23690e+57
          1484.92950	         7.75930e+57
          1485.73580	         8.82757e+57
          1486.54210	         9.30010e+57
          1487.34840	         8.95479e+57
          1488.15470	         7.86855e+57
          1488.96100	         8.97412e+57
          1489.76730	         9.85664e+57
