#sample_336_stacked_spectrum_rest_UV-bands_median_H-alpha_noDC.txt
#median Lum: 1.71647e+42
#Rest-frame wavelength (A) | Luminosity (erg/s/A)
#
          1110.00000	         0.00000e+00
          1110.80630	         2.65362e+59
          1111.61260	         2.50973e+59
          1112.41890	         7.01094e+58
          1113.22520	        -1.01257e+59
          1114.03150	        -2.71009e+59
          1114.83780	         1.90525e+59
          1115.64410	         1.68976e+59
          1116.45040	        -3.68786e+56
          1117.25670	        -9.70200e+58
          1118.06300	         1.70089e+59
          1118.86930	         1.48438e+58
          1119.67560	         6.73620e+58
          1120.48190	        -4.02715e+58
          1121.28820	        -9.65271e+58
          1122.09450	        -5.09680e+58
          1122.90080	        -3.31496e+57
          1123.70710	         3.99329e+58
          1124.51340	         1.11317e+59
          1125.31970	         4.18921e+58
          1126.12600	        -4.04252e+57
          1126.93230	        -2.61035e+58
          1127.73860	        -7.15950e+57
          1128.54490	        -2.47026e+58
          1129.35120	         1.55941e+58
          1130.15750	        -4.45679e+58
          1130.96380	        -2.89718e+58
          1131.77010	         7.91898e+57
          1132.57640	         1.48423e+58
          1133.38270	         3.87913e+58
          1134.18900	         3.82885e+58
          1134.99530	         3.11220e+58
          1135.80160	         1.80814e+58
          1136.60790	        -4.95909e+57
          1137.41420	        -1.86789e+58
          1138.22050	         4.23954e+58
          1139.02680	         3.67734e+58
          1139.83310	         1.81901e+58
          1140.63940	         2.30059e+58
          1141.44570	        -1.00229e+58
          1142.25200	        -1.05030e+58
          1143.05830	         3.16336e+58
          1143.86460	         4.47046e+58
          1144.67090	         9.80190e+57
          1145.47720	         2.43572e+57
          1146.28350	         1.48759e+58
          1147.08980	         1.36428e+58
          1147.89610	         1.99933e+58
          1148.70240	         2.41126e+58
          1149.50870	         3.03172e+58
          1150.31500	         5.41189e+57
          1151.12130	         6.71292e+57
          1151.92760	         3.40583e+57
          1152.73390	         2.58107e+57
          1153.54020	         1.63419e+56
          1154.34650	         2.05400e+58
          1155.15280	         2.27116e+58
          1155.95910	         1.18137e+58
          1156.76540	         3.15709e+57
          1157.57170	        -6.74426e+57
          1158.37800	         7.87696e+57
          1159.18430	        -1.21635e+57
          1159.99060	         3.85011e+57
          1160.79690	         5.30132e+57
          1161.60320	         1.91513e+58
          1162.40950	         2.17582e+58
          1163.21580	         1.86180e+58
          1164.02210	         5.88044e+57
          1164.82840	         7.47752e+57
          1165.63470	         2.17075e+58
          1166.44100	         2.92370e+58
          1167.24730	         1.79815e+58
          1168.05360	         8.00650e+57
          1168.85990	         7.03332e+57
          1169.66620	         1.13041e+58
          1170.47250	         2.14221e+57
          1171.27880	         1.86758e+57
          1172.08510	         2.13487e+58
          1172.89140	         2.55531e+58
          1173.69770	         4.50506e+57
          1174.50400	         1.18418e+58
          1175.31030	         1.35132e+58
          1176.11660	         1.48765e+58
          1176.92290	         9.25875e+57
          1177.72920	         1.30555e+58
          1178.53550	         1.01505e+58
          1179.34180	         1.04618e+58
          1180.14810	         6.10922e+57
          1180.95440	         1.09774e+58
          1181.76070	         9.09254e+57
          1182.56700	         7.63455e+57
          1183.37330	         4.66754e+57
          1184.17960	         1.40049e+58
          1184.98590	         1.17574e+58
          1185.79220	         6.79109e+57
          1186.59850	         9.32021e+57
          1187.40480	         8.69933e+57
          1188.21110	         1.49603e+58
          1189.01740	         9.23666e+57
          1189.82370	         1.16885e+58
          1190.63000	         1.23632e+58
          1191.43630	         1.10436e+58
          1192.24260	         1.34409e+58
          1193.04890	         1.46927e+58
          1193.85520	         1.39033e+58
          1194.66150	         6.50541e+57
          1195.46780	         9.81244e+57
          1196.27410	         1.44120e+58
          1197.08040	         1.04860e+58
          1197.88670	         1.51936e+58
          1198.69300	         1.47049e+58
          1199.49930	         1.60848e+58
          1200.30560	         1.40307e+58
          1201.11190	         9.58018e+57
          1201.91820	         1.04776e+58
          1202.72450	         7.40406e+57
          1203.53080	         1.29498e+58
          1204.33710	         6.97817e+57
          1205.14340	         6.34010e+57
          1205.94970	         6.94745e+57
          1206.75600	         6.04515e+57
          1207.56230	         7.56425e+57
          1208.36860	         9.70554e+57
          1209.17490	         2.33798e+57
          1209.98120	         3.51958e+57
          1210.78750	         9.30866e+57
          1211.59380	         1.40270e+58
          1212.40010	         1.69645e+58
          1213.20640	         1.67118e+58
          1214.01270	         2.02587e+58
          1214.81900	         2.73391e+58
          1215.62530	         4.86317e+58
          1216.43160	         9.21117e+58
          1217.23790	         1.53640e+59
          1218.04420	         1.15849e+59
          1218.85050	         8.35357e+58
          1219.65680	         5.54040e+58
          1220.46310	         3.46739e+58
          1221.26940	         2.63388e+58
          1222.07570	         1.65338e+58
          1222.88200	         1.15857e+58
          1223.68830	         8.13413e+57
          1224.49460	         6.18081e+57
          1225.30090	         4.74123e+57
          1226.10720	         5.96440e+57
          1226.91350	         7.73027e+57
          1227.71980	         1.00991e+58
          1228.52610	         1.03939e+58
          1229.33240	         5.12746e+57
          1230.13870	         6.61303e+57
          1230.94500	         9.69706e+57
          1231.75130	         7.97756e+57
          1232.55760	         8.09813e+57
          1233.36390	         9.22072e+57
          1234.17020	         8.47726e+57
          1234.97650	         7.75885e+57
          1235.78280	         7.28339e+57
          1236.58910	         9.88170e+57
          1237.39540	         1.13930e+58
          1238.20170	         1.13948e+58
          1239.00800	         1.35091e+58
          1239.81430	         1.57467e+58
          1240.62060	         1.29564e+58
          1241.42690	         1.14531e+58
          1242.23320	         1.27664e+58
          1243.03950	         9.61487e+57
          1243.84580	         8.26011e+57
          1244.65210	         1.03493e+58
          1245.45840	         9.50213e+57
          1246.26470	         7.07259e+57
          1247.07100	         6.82600e+57
          1247.87730	         6.68410e+57
          1248.68360	         4.14955e+57
          1249.48990	         5.20157e+57
          1250.29620	         8.51148e+57
          1251.10250	         7.87177e+57
          1251.90880	         5.53466e+57
          1252.71510	         5.53511e+57
          1253.52140	         6.01452e+57
          1254.32770	         1.09984e+58
          1255.13400	         1.52838e+58
          1255.94030	         1.29096e+58
          1256.74660	         1.00329e+58
          1257.55290	         8.85039e+57
          1258.35920	         7.20341e+57
          1259.16550	         6.03906e+57
          1259.97180	         6.53954e+57
          1260.77810	         9.78724e+57
          1261.58440	         1.29918e+58
          1262.39070	         8.11087e+57
          1263.19700	         7.00049e+57
          1264.00330	         8.23114e+57
          1264.80960	         9.11276e+57
          1265.61590	         1.47412e+58
          1266.42220	         1.32432e+58
          1267.22850	         1.04318e+58
          1268.03480	         1.47262e+58
          1268.84110	         1.41855e+58
          1269.64740	         1.34048e+58
          1270.45370	         1.48791e+58
          1271.26000	         1.45845e+58
          1272.06630	         1.44496e+58
          1272.87260	         1.30153e+58
          1273.67890	         1.28482e+58
          1274.48520	         1.33528e+58
          1275.29150	         1.25344e+58
          1276.09780	         1.24671e+58
          1276.90410	         1.60374e+58
          1277.71040	         1.38561e+58
          1278.51670	         1.12140e+58
          1279.32300	         1.30071e+58
          1280.12930	         1.35451e+58
          1280.93560	         1.27803e+58
          1281.74190	         1.26045e+58
          1282.54820	         1.31532e+58
          1283.35450	         1.34381e+58
          1284.16080	         1.31985e+58
          1284.96710	         1.31538e+58
          1285.77340	         1.16122e+58
          1286.57970	         1.21106e+58
          1287.38600	         1.51062e+58
          1288.19230	         1.82472e+58
          1288.99860	         1.36230e+58
          1289.80490	         8.53682e+57
          1290.61120	         1.17053e+58
          1291.41750	         1.34012e+58
          1292.22380	         1.01029e+58
          1293.03010	         1.01802e+58
          1293.83640	         1.24278e+58
          1294.64270	         9.09778e+57
          1295.44900	         5.97767e+57
          1296.25530	         9.24497e+57
          1297.06160	         1.14571e+58
          1297.86790	         1.08726e+58
          1298.67420	         1.06223e+58
          1299.48050	         1.23526e+58
          1300.28680	         1.00695e+58
          1301.09310	         7.01105e+57
          1301.89940	         4.76904e+57
          1302.70570	         5.80487e+57
          1303.51200	         6.96287e+57
          1304.31830	         9.43825e+57
          1305.12460	         1.17117e+58
          1305.93090	         1.13486e+58
          1306.73720	         1.09530e+58
          1307.54350	         1.39355e+58
          1308.34980	         1.55822e+58
          1309.15610	         1.44870e+58
          1309.96240	         1.56999e+58
          1310.76870	         1.49587e+58
          1311.57500	         1.19314e+58
          1312.38130	         1.32148e+58
          1313.18760	         1.67543e+58
          1313.99390	         1.69433e+58
          1314.80020	         1.71396e+58
          1315.60650	         1.51014e+58
          1316.41280	         1.12267e+58
          1317.21910	         1.07693e+58
          1318.02540	         1.10633e+58
          1318.83170	         1.15846e+58
          1319.63800	         1.24060e+58
          1320.44430	         1.15209e+58
          1321.25060	         1.17489e+58
          1322.05690	         1.19152e+58
          1322.86320	         1.10344e+58
          1323.66950	         9.94501e+57
          1324.47580	         9.23140e+57
          1325.28210	         1.13114e+58
          1326.08840	         1.12556e+58
          1326.89470	         1.18306e+58
          1327.70100	         1.09783e+58
          1328.50730	         7.47656e+57
          1329.31360	         9.23162e+57
          1330.11990	         9.76049e+57
          1330.92620	         8.60818e+57
          1331.73250	         1.00621e+58
          1332.53880	         9.90554e+57
          1333.34510	         1.01033e+58
          1334.15140	         9.05966e+57
          1334.95770	         8.38530e+57
          1335.76400	         9.94981e+57
          1336.57030	         1.13476e+58
          1337.37660	         1.21261e+58
          1338.18290	         1.28392e+58
          1338.98920	         1.20400e+58
          1339.79550	         1.08193e+58
          1340.60180	         1.19459e+58
          1341.40810	         1.29566e+58
          1342.21440	         1.09213e+58
          1343.02070	         1.04639e+58
          1343.82700	         1.20366e+58
          1344.63330	         1.20972e+58
          1345.43960	         1.16253e+58
          1346.24590	         1.16655e+58
          1347.05220	         1.17760e+58
          1347.85850	         1.14896e+58
          1348.66480	         1.11221e+58
          1349.47110	         1.22599e+58
          1350.27740	         1.16723e+58
          1351.08370	         1.09364e+58
          1351.89000	         1.06903e+58
          1352.69630	         1.11913e+58
          1353.50260	         1.22465e+58
          1354.30890	         1.31149e+58
          1355.11520	         1.30337e+58
          1355.92150	         1.22155e+58
          1356.72780	         1.04939e+58
          1357.53410	         1.08327e+58
          1358.34040	         1.09339e+58
          1359.14670	         1.06967e+58
          1359.95300	         1.26083e+58
          1360.75930	         1.25003e+58
          1361.56560	         1.21533e+58
          1362.37190	         1.20779e+58
          1363.17820	         1.09133e+58
          1363.98450	         1.20276e+58
          1364.79080	         1.34984e+58
          1365.59710	         1.33677e+58
          1366.40340	         1.17533e+58
          1367.20970	         1.11536e+58
          1368.01600	         1.04094e+58
          1368.82230	         9.20136e+57
          1369.62860	         1.06264e+58
          1370.43490	         9.09958e+57
          1371.24120	         8.81679e+57
          1372.04750	         7.74568e+57
          1372.85380	         1.00667e+58
          1373.66010	         1.15201e+58
          1374.46640	         1.05439e+58
          1375.27270	         1.09866e+58
          1376.07900	         9.60288e+57
          1376.88530	         7.53429e+57
          1377.69160	         7.89842e+57
          1378.49790	         7.37002e+57
          1379.30420	         8.49616e+57
          1380.11050	         1.01833e+58
          1380.91680	         8.92342e+57
          1381.72310	         7.51205e+57
          1382.52940	         7.52650e+57
          1383.33570	         7.77259e+57
          1384.14200	         8.58691e+57
          1384.94830	         9.68838e+57
          1385.75460	         9.12234e+57
          1386.56090	         9.39642e+57
          1387.36720	         9.42316e+57
          1388.17350	         1.19030e+58
          1388.97980	         1.08678e+58
          1389.78610	         7.83590e+57
          1390.59240	         7.57759e+57
          1391.39870	         8.02612e+57
          1392.20500	         9.48703e+57
          1393.01130	         7.98440e+57
          1393.81760	         6.08845e+57
          1394.62390	         6.98153e+57
          1395.43020	         7.08702e+57
          1396.23650	         6.62576e+57
          1397.04280	         8.02833e+57
          1397.84910	         8.73212e+57
          1398.65540	         8.22328e+57
          1399.46170	         9.80429e+57
          1400.26800	         7.77046e+57
          1401.07430	         7.17556e+57
          1401.88060	         8.59507e+57
          1402.68690	         1.01703e+58
          1403.49320	         9.54503e+57
          1404.29950	         9.88752e+57
          1405.10580	         1.10634e+58
          1405.91210	         1.13984e+58
          1406.71840	         1.04651e+58
          1407.52470	         9.85880e+57
          1408.33100	         1.03117e+58
          1409.13730	         1.16703e+58
          1409.94360	         1.12582e+58
          1410.74990	         1.09011e+58
          1411.55620	         1.06338e+58
          1412.36250	         8.81900e+57
          1413.16880	         8.46032e+57
          1413.97510	         8.44097e+57
          1414.78140	         8.63243e+57
          1415.58770	         1.04129e+58
          1416.39400	         1.05067e+58
          1417.20030	         1.05855e+58
          1418.00660	         1.04291e+58
          1418.81290	         1.16669e+58
          1419.61920	         9.37458e+57
          1420.42550	         1.07001e+58
          1421.23180	         1.32148e+58
          1422.03810	         1.28699e+58
          1422.84440	         1.26529e+58
          1423.65070	         1.27883e+58
          1424.45700	         1.02910e+58
          1425.26330	         8.31866e+57
          1426.06960	         8.89496e+57
          1426.87590	         9.31864e+57
          1427.68220	         1.02991e+58
          1428.48850	         1.14167e+58
          1429.29480	         1.07548e+58
          1430.10110	         1.02847e+58
          1430.90740	         1.04269e+58
          1431.71370	         9.50613e+57
          1432.52000	         8.60077e+57
          1433.32630	         8.10612e+57
          1434.13260	         8.92936e+57
          1434.93890	         9.17622e+57
          1435.74520	         9.56800e+57
          1436.55150	         9.76050e+57
          1437.35780	         9.40059e+57
          1438.16410	         9.95543e+57
          1438.97040	         9.39922e+57
          1439.77670	         8.24524e+57
          1440.58300	         7.62797e+57
          1441.38930	         8.11475e+57
          1442.19560	         9.69901e+57
          1443.00190	         1.02282e+58
          1443.80820	         1.02993e+58
          1444.61450	         9.31264e+57
          1445.42080	         8.57388e+57
          1446.22710	         1.11994e+58
          1447.03340	         1.17321e+58
          1447.83970	         1.05668e+58
          1448.64600	         1.07950e+58
          1449.45230	         1.07768e+58
          1450.25860	         9.66233e+57
          1451.06490	         9.36750e+57
          1451.87120	         8.82166e+57
          1452.67750	         8.05853e+57
          1453.48380	         8.89454e+57
          1454.29010	         8.57864e+57
          1455.09640	         8.24533e+57
          1455.90270	         9.24438e+57
          1456.70900	         8.94261e+57
          1457.51530	         1.03089e+58
          1458.32160	         1.31492e+58
          1459.12790	         1.21436e+58
          1459.93420	         1.02156e+58
          1460.74050	         9.07272e+57
          1461.54680	         8.91361e+57
          1462.35310	         8.25234e+57
          1463.15940	         9.00950e+57
          1463.96570	         1.12909e+58
          1464.77200	         1.18350e+58
          1465.57830	         1.10552e+58
          1466.38460	         9.58454e+57
          1467.19090	         8.80413e+57
          1467.99720	         9.71912e+57
          1468.80350	         1.01710e+58
          1469.60980	         1.02248e+58
          1470.41610	         1.04748e+58
          1471.22240	         1.01958e+58
          1472.02870	         9.96282e+57
          1472.83500	         1.02336e+58
          1473.64130	         9.97241e+57
          1474.44760	         9.75198e+57
          1475.25390	         9.20234e+57
          1476.06020	         1.00888e+58
          1476.86650	         1.03425e+58
          1477.67280	         8.77722e+57
          1478.47910	         7.89019e+57
          1479.28540	         7.83789e+57
          1480.09170	         9.19039e+57
          1480.89800	         9.41038e+57
          1481.70430	         9.62769e+57
          1482.51060	         8.89834e+57
          1483.31690	         8.63684e+57
          1484.12320	         7.82081e+57
          1484.92950	         8.34363e+57
          1485.73580	         9.49879e+57
          1486.54210	         1.01509e+58
          1487.34840	         9.83216e+57
          1488.15470	         7.82951e+57
          1488.96100	         8.29895e+57
          1489.76730	         1.03684e+58
