#sample_127_stacked_spectrum_rest_UV-bands_median_H-alpha_noDC.txt
#median Lum: 1.67635e+42
#Rest-frame wavelength (A) | Luminosity (erg/s/A)
#
          1110.00000	         0.00000e+00
          1110.80630	         3.29619e+59
          1111.61260	         2.73972e+59
          1112.41890	         8.58511e+58
          1113.22520	        -1.19152e+59
          1114.03150	        -2.62818e+59
          1114.83780	         1.02110e+59
          1115.64410	        -3.39618e+55
          1116.45040	         1.05064e+59
          1117.25670	         8.81842e+58
          1118.06300	         1.47134e+59
          1118.86930	         2.15148e+58
          1119.67560	         7.27333e+58
          1120.48190	        -7.94348e+57
          1121.28820	        -1.12141e+59
          1122.09450	         1.08471e+57
          1122.90080	        -7.16709e+58
          1123.70710	         6.42453e+58
          1124.51340	         1.53323e+59
          1125.31970	         4.82298e+57
          1126.12600	        -8.00225e+57
          1126.93230	        -2.82601e+58
          1127.73860	        -5.86994e+58
          1128.54490	         1.77728e+56
          1129.35120	         3.28004e+58
          1130.15750	        -2.09016e+58
          1130.96380	        -2.55831e+57
          1131.77010	         3.75031e+58
          1132.57640	        -1.02292e+58
          1133.38270	         1.98467e+57
          1134.18900	         1.99620e+57
          1134.99530	         2.57453e+58
          1135.80160	         3.65417e+58
          1136.60790	         1.10639e+58
          1137.41420	         1.19163e+58
          1138.22050	         5.84584e+58
          1139.02680	         4.35089e+58
          1139.83310	         3.21569e+58
          1140.63940	         2.40451e+58
          1141.44570	         1.42418e+57
          1142.25200	         1.91389e+58
          1143.05830	         3.48235e+58
          1143.86460	         3.03299e+58
          1144.67090	         2.28178e+58
          1145.47720	         2.88674e+58
          1146.28350	         1.87928e+58
          1147.08980	         9.52459e+57
          1147.89610	         6.07589e+57
          1148.70240	         1.69595e+58
          1149.50870	         2.03947e+58
          1150.31500	         9.37489e+57
          1151.12130	         2.67957e+58
          1151.92760	         4.58405e+57
          1152.73390	        -5.95017e+57
          1153.54020	        -8.57648e+57
          1154.34650	         1.68087e+58
          1155.15280	         1.69795e+58
          1155.95910	         8.81340e+57
          1156.76540	        -1.05973e+56
          1157.57170	        -6.66988e+57
          1158.37800	         3.95657e+57
          1159.18430	         2.10740e+57
          1159.99060	         1.30200e+58
          1160.79690	         7.48167e+57
          1161.60320	         1.96239e+58
          1162.40950	         8.60996e+57
          1163.21580	         1.97142e+58
          1164.02210	         1.64989e+58
          1164.82840	         1.23450e+58
          1165.63470	         9.89266e+57
          1166.44100	         2.92969e+58
          1167.24730	         2.60392e+58
          1168.05360	         9.35356e+57
          1168.85990	         6.94078e+57
          1169.66620	         4.19425e+57
          1170.47250	         9.83493e+57
          1171.27880	         1.25136e+58
          1172.08510	         1.82589e+58
          1172.89140	         1.91009e+58
          1173.69770	         6.68371e+57
          1174.50400	         8.88892e+57
          1175.31030	         1.50747e+58
          1176.11660	         1.56905e+58
          1176.92290	         1.61924e+58
          1177.72920	         1.29491e+58
          1178.53550	         3.63868e+57
          1179.34180	         9.13344e+57
          1180.14810	         1.56556e+58
          1180.95440	         1.50592e+58
          1181.76070	         9.23456e+57
          1182.56700	         5.48439e+57
          1183.37330	         2.16051e+57
          1184.17960	         9.56507e+57
          1184.98590	         1.29537e+58
          1185.79220	         7.05285e+57
          1186.59850	         8.91415e+57
          1187.40480	         1.15122e+58
          1188.21110	         1.75258e+58
          1189.01740	         8.67515e+57
          1189.82370	         1.36296e+58
          1190.63000	         1.23650e+58
          1191.43630	         1.51412e+58
          1192.24260	         1.13332e+58
          1193.04890	         1.37549e+58
          1193.85520	         1.08738e+58
          1194.66150	         4.58760e+57
          1195.46780	         8.86137e+57
          1196.27410	         1.33735e+58
          1197.08040	         9.43165e+57
          1197.88670	         1.28080e+58
          1198.69300	         1.84426e+58
          1199.49930	         1.71159e+58
          1200.30560	         7.06141e+57
          1201.11190	         7.96363e+57
          1201.91820	         1.23312e+58
          1202.72450	         9.23980e+57
          1203.53080	         1.49271e+58
          1204.33710	         1.06567e+58
          1205.14340	         1.15755e+58
          1205.94970	         8.07742e+57
          1206.75600	         5.28008e+57
          1207.56230	         1.09587e+58
          1208.36860	         1.07877e+58
          1209.17490	         3.42181e+57
          1209.98120	         6.11014e+57
          1210.78750	         9.23176e+57
          1211.59380	         1.32117e+58
          1212.40010	         2.05987e+58
          1213.20640	         2.13407e+58
          1214.01270	         2.02292e+58
          1214.81900	         2.72536e+58
          1215.62530	         4.40636e+58
          1216.43160	         8.94494e+58
          1217.23790	         1.53507e+59
          1218.04420	         1.17319e+59
          1218.85050	         9.34813e+58
          1219.65680	         6.14732e+58
          1220.46310	         3.67008e+58
          1221.26940	         2.54174e+58
          1222.07570	         1.21189e+58
          1222.88200	         8.14803e+57
          1223.68830	         7.82436e+57
          1224.49460	         6.19061e+57
          1225.30090	         5.56362e+57
          1226.10720	         6.35536e+57
          1226.91350	         8.73230e+57
          1227.71980	         1.11692e+58
          1228.52610	         1.04654e+58
          1229.33240	         5.31109e+57
          1230.13870	         9.37862e+57
          1230.94500	         1.07995e+58
          1231.75130	         8.11545e+57
          1232.55760	         9.77491e+57
          1233.36390	         8.82723e+57
          1234.17020	         9.25519e+57
          1234.97650	         8.74562e+57
          1235.78280	         7.38009e+57
          1236.58910	         8.62756e+57
          1237.39540	         1.00146e+58
          1238.20170	         1.04179e+58
          1239.00800	         1.20017e+58
          1239.81430	         1.25994e+58
          1240.62060	         9.74643e+57
          1241.42690	         9.95877e+57
          1242.23320	         1.24724e+58
          1243.03950	         9.78652e+57
          1243.84580	         8.24617e+57
          1244.65210	         8.32628e+57
          1245.45840	         8.42592e+57
          1246.26470	         7.92062e+57
          1247.07100	         7.22805e+57
          1247.87730	         7.42553e+57
          1248.68360	         4.74028e+57
          1249.48990	         7.15011e+57
          1250.29620	         1.05384e+58
          1251.10250	         1.09638e+58
          1251.90880	         5.82077e+57
          1252.71510	         5.42540e+57
          1253.52140	         7.12013e+57
          1254.32770	         1.06450e+58
          1255.13400	         1.61398e+58
          1255.94030	         1.39226e+58
          1256.74660	         9.84234e+57
          1257.55290	         1.00315e+58
          1258.35920	         8.19938e+57
          1259.16550	         5.55311e+57
          1259.97180	         4.08382e+57
          1260.77810	         9.46268e+57
          1261.58440	         1.24650e+58
          1262.39070	         8.83953e+57
          1263.19700	         8.20617e+57
          1264.00330	         1.01786e+58
          1264.80960	         1.10673e+58
          1265.61590	         1.23604e+58
          1266.42220	         1.18228e+58
          1267.22850	         1.07600e+58
          1268.03480	         1.28378e+58
          1268.84110	         1.35747e+58
          1269.64740	         1.20146e+58
          1270.45370	         1.04291e+58
          1271.26000	         1.29368e+58
          1272.06630	         1.29140e+58
          1272.87260	         1.26227e+58
          1273.67890	         1.37665e+58
          1274.48520	         1.30783e+58
          1275.29150	         1.20622e+58
          1276.09780	         1.04450e+58
          1276.90410	         1.52311e+58
          1277.71040	         1.48584e+58
          1278.51670	         1.28863e+58
          1279.32300	         1.16080e+58
          1280.12930	         1.14863e+58
          1280.93560	         1.17552e+58
          1281.74190	         1.03615e+58
          1282.54820	         1.17318e+58
          1283.35450	         1.34437e+58
          1284.16080	         1.23512e+58
          1284.96710	         1.35980e+58
          1285.77340	         1.38838e+58
          1286.57970	         1.21699e+58
          1287.38600	         1.56204e+58
          1288.19230	         1.96205e+58
          1288.99860	         1.64578e+58
          1289.80490	         1.03690e+58
          1290.61120	         1.25416e+58
          1291.41750	         1.29946e+58
          1292.22380	         1.15554e+58
          1293.03010	         1.02078e+58
          1293.83640	         8.97232e+57
          1294.64270	         6.70149e+57
          1295.44900	         5.22303e+57
          1296.25530	         7.10943e+57
          1297.06160	         8.89098e+57
          1297.86790	         1.14246e+58
          1298.67420	         1.02048e+58
          1299.48050	         9.04495e+57
          1300.28680	         9.11901e+57
          1301.09310	         6.40323e+57
          1301.89940	         4.37910e+57
          1302.70570	         8.24090e+57
          1303.51200	         7.86780e+57
          1304.31830	         9.54791e+57
          1305.12460	         1.04432e+58
          1305.93090	         1.04805e+58
          1306.73720	         1.22308e+58
          1307.54350	         1.40918e+58
          1308.34980	         1.51799e+58
          1309.15610	         1.50460e+58
          1309.96240	         1.39284e+58
          1310.76870	         1.30473e+58
          1311.57500	         1.25697e+58
          1312.38130	         1.25047e+58
          1313.18760	         1.42326e+58
          1313.99390	         1.62494e+58
          1314.80020	         1.59513e+58
          1315.60650	         1.46341e+58
          1316.41280	         1.21488e+58
          1317.21910	         1.14134e+58
          1318.02540	         1.20890e+58
          1318.83170	         1.29166e+58
          1319.63800	         1.24295e+58
          1320.44430	         1.03420e+58
          1321.25060	         1.13999e+58
          1322.05690	         1.24611e+58
          1322.86320	         1.25664e+58
          1323.66950	         1.10845e+58
          1324.47580	         9.45101e+57
          1325.28210	         1.00329e+58
          1326.08840	         1.07438e+58
          1326.89470	         1.19304e+58
          1327.70100	         1.01450e+58
          1328.50730	         7.74262e+57
          1329.31360	         9.94555e+57
          1330.11990	         1.10001e+58
          1330.92620	         9.04321e+57
          1331.73250	         1.00969e+58
          1332.53880	         1.06362e+58
          1333.34510	         9.53948e+57
          1334.15140	         9.15841e+57
          1334.95770	         1.00713e+58
          1335.76400	         1.13533e+58
          1336.57030	         1.14784e+58
          1337.37660	         9.96084e+57
          1338.18290	         9.19523e+57
          1338.98920	         1.11880e+58
          1339.79550	         1.20482e+58
          1340.60180	         1.24034e+58
          1341.40810	         1.27059e+58
          1342.21440	         1.01125e+58
          1343.02070	         1.03665e+58
          1343.82700	         1.19580e+58
          1344.63330	         1.23251e+58
          1345.43960	         1.16215e+58
          1346.24590	         1.00971e+58
          1347.05220	         1.09243e+58
          1347.85850	         1.00940e+58
          1348.66480	         1.18530e+58
          1349.47110	         1.44404e+58
          1350.27740	         1.20977e+58
          1351.08370	         1.10471e+58
          1351.89000	         1.27516e+58
          1352.69630	         1.21842e+58
          1353.50260	         9.89921e+57
          1354.30890	         1.18897e+58
          1355.11520	         1.28825e+58
          1355.92150	         1.03901e+58
          1356.72780	         9.09555e+57
          1357.53410	         9.61053e+57
          1358.34040	         1.08295e+58
          1359.14670	         1.21880e+58
          1359.95300	         1.18355e+58
          1360.75930	         1.07906e+58
          1361.56560	         1.00270e+58
          1362.37190	         1.10344e+58
          1363.17820	         1.08135e+58
          1363.98450	         1.25245e+58
          1364.79080	         1.37659e+58
          1365.59710	         1.29945e+58
          1366.40340	         1.28175e+58
          1367.20970	         1.02829e+58
          1368.01600	         9.46813e+57
          1368.82230	         9.51131e+57
          1369.62860	         1.03733e+58
          1370.43490	         1.00951e+58
          1371.24120	         8.80473e+57
          1372.04750	         9.23177e+57
          1372.85380	         1.13658e+58
          1373.66010	         1.12538e+58
          1374.46640	         1.10647e+58
          1375.27270	         1.07232e+58
          1376.07900	         8.39232e+57
          1376.88530	         8.97006e+57
          1377.69160	         1.05780e+58
          1378.49790	         9.02294e+57
          1379.30420	         8.76220e+57
          1380.11050	         1.03681e+58
          1380.91680	         9.32865e+57
          1381.72310	         7.04657e+57
          1382.52940	         8.36556e+57
          1383.33570	         9.73124e+57
          1384.14200	         1.00638e+58
          1384.94830	         1.02544e+58
          1385.75460	         9.53460e+57
          1386.56090	         1.07916e+58
          1387.36720	         1.06344e+58
          1388.17350	         1.23945e+58
          1388.97980	         1.14980e+58
          1389.78610	         8.73742e+57
          1390.59240	         7.96409e+57
          1391.39870	         6.33146e+57
          1392.20500	         7.69677e+57
          1393.01130	         7.81016e+57
          1393.81760	         7.37755e+57
          1394.62390	         7.21832e+57
          1395.43020	         6.24279e+57
          1396.23650	         6.09594e+57
          1397.04280	         6.47378e+57
          1397.84910	         8.45921e+57
          1398.65540	         8.54302e+57
          1399.46170	         9.49991e+57
          1400.26800	         8.19862e+57
          1401.07430	         7.10933e+57
          1401.88060	         9.07713e+57
          1402.68690	         9.19829e+57
          1403.49320	         9.36645e+57
          1404.29950	         8.90598e+57
          1405.10580	         9.78707e+57
          1405.91210	         1.10226e+58
          1406.71840	         1.04339e+58
          1407.52470	         1.06540e+58
          1408.33100	         1.06041e+58
          1409.13730	         1.19405e+58
          1409.94360	         1.22347e+58
          1410.74990	         1.12270e+58
          1411.55620	         9.91854e+57
          1412.36250	         9.31209e+57
          1413.16880	         8.56264e+57
          1413.97510	         8.06526e+57
          1414.78140	         9.52932e+57
          1415.58770	         9.75803e+57
          1416.39400	         8.94141e+57
          1417.20030	         1.09605e+58
          1418.00660	         1.06001e+58
          1418.81290	         1.10613e+58
          1419.61920	         1.17415e+58
          1420.42550	         1.19986e+58
          1421.23180	         1.37325e+58
          1422.03810	         1.41169e+58
          1422.84440	         1.20704e+58
          1423.65070	         1.22173e+58
          1424.45700	         1.08288e+58
          1425.26330	         9.67066e+57
          1426.06960	         9.26378e+57
          1426.87590	         9.77406e+57
          1427.68220	         9.64632e+57
          1428.48850	         1.00237e+58
          1429.29480	         1.12710e+58
          1430.10110	         1.11331e+58
          1430.90740	         8.77948e+57
          1431.71370	         8.11511e+57
          1432.52000	         8.94386e+57
          1433.32630	         8.53060e+57
          1434.13260	         7.79377e+57
          1434.93890	         8.30193e+57
          1435.74520	         9.51196e+57
          1436.55150	         9.92951e+57
          1437.35780	         8.74676e+57
          1438.16410	         8.82237e+57
          1438.97040	         1.04248e+58
          1439.77670	         1.02994e+58
          1440.58300	         9.56126e+57
          1441.38930	         9.58342e+57
          1442.19560	         9.99146e+57
          1443.00190	         1.06501e+58
          1443.80820	         1.13007e+58
          1444.61450	         9.69010e+57
          1445.42080	         8.64954e+57
          1446.22710	         9.85272e+57
          1447.03340	         9.59002e+57
          1447.83970	         1.01612e+58
          1448.64600	         1.00078e+58
          1449.45230	         1.04572e+58
          1450.25860	         1.04406e+58
          1451.06490	         9.10290e+57
          1451.87120	         8.31159e+57
          1452.67750	         7.74750e+57
          1453.48380	         8.25629e+57
          1454.29010	         7.22491e+57
          1455.09640	         6.94306e+57
          1455.90270	         8.09752e+57
          1456.70900	         8.47044e+57
          1457.51530	         9.73559e+57
          1458.32160	         1.24060e+58
          1459.12790	         1.20301e+58
          1459.93420	         9.70526e+57
          1460.74050	         7.78836e+57
          1461.54680	         7.62873e+57
          1462.35310	         7.67961e+57
          1463.15940	         8.41110e+57
          1463.96570	         9.51248e+57
          1464.77200	         1.10478e+58
          1465.57830	         1.01675e+58
          1466.38460	         8.99440e+57
          1467.19090	         8.10262e+57
          1467.99720	         8.73424e+57
          1468.80350	         8.64607e+57
          1469.60980	         9.26994e+57
          1470.41610	         1.06720e+58
          1471.22240	         9.65931e+57
          1472.02870	         9.99919e+57
          1472.83500	         1.10768e+58
          1473.64130	         1.04510e+58
          1474.44760	         9.34258e+57
          1475.25390	         9.34616e+57
          1476.06020	         8.88326e+57
          1476.86650	         8.74510e+57
          1477.67280	         8.60937e+57
          1478.47910	         8.11545e+57
          1479.28540	         7.89851e+57
          1480.09170	         8.58926e+57
          1480.89800	         7.56629e+57
          1481.70430	         8.03824e+57
          1482.51060	         8.93392e+57
          1483.31690	         8.33377e+57
          1484.12320	         8.17482e+57
          1484.92950	         9.32388e+57
          1485.73580	         8.99202e+57
          1486.54210	         7.69306e+57
          1487.34840	         7.59031e+57
          1488.15470	         8.30042e+57
          1488.96100	         8.79839e+57
          1489.76730	         9.68863e+57
