#sample_452_stacked_spectrum_rest_UV-bands_median_H-alpha_noDC.txt
#median Lum: 1.69665e+42
#Rest-frame wavelength (A) | Luminosity (erg/s/A)
#
          1110.00000	         0.00000e+00
          1110.80630	         5.88898e+59
          1111.61260	         5.36622e+59
          1112.41890	        -2.59418e+58
          1113.22520	         8.27489e+58
          1114.03150	        -2.09766e+59
          1114.83780	         2.68628e+58
          1115.64410	         1.12920e+59
          1116.45040	         1.10400e+58
          1117.25670	         1.76199e+59
          1118.06300	         1.06729e+58
          1118.86930	        -5.13509e+58
          1119.67560	         5.49943e+58
          1120.48190	        -3.84280e+58
          1121.28820	        -1.18919e+59
          1122.09450	        -3.56452e+58
          1122.90080	        -1.11898e+58
          1123.70710	         2.66773e+58
          1124.51340	         1.22207e+59
          1125.31970	         5.75077e+58
          1126.12600	         1.62782e+58
          1126.93230	        -3.91463e+58
          1127.73860	        -2.83518e+58
          1128.54490	        -1.58825e+58
          1129.35120	         2.06210e+58
          1130.15750	         1.21716e+57
          1130.96380	        -8.99886e+57
          1131.77010	         3.60051e+58
          1132.57640	         6.29752e+58
          1133.38270	         2.79206e+58
          1134.18900	         1.69827e+57
          1134.99530	         4.92565e+57
          1135.80160	        -7.02775e+57
          1136.60790	         2.08118e+58
          1137.41420	         3.96324e+58
          1138.22050	         2.95353e+58
          1139.02680	         4.62698e+58
          1139.83310	         1.99045e+58
          1140.63940	         2.79967e+58
          1141.44570	         5.83476e+57
          1142.25200	         7.88263e+57
          1143.05830	         2.71216e+58
          1143.86460	         3.67319e+58
          1144.67090	         2.08961e+58
          1145.47720	         7.30129e+57
          1146.28350	         1.24437e+58
          1147.08980	         1.90728e+58
          1147.89610	         1.97664e+58
          1148.70240	         1.38332e+58
          1149.50870	         1.90992e+58
          1150.31500	         1.66474e+57
          1151.12130	         4.45700e+57
          1151.92760	         1.09395e+58
          1152.73390	         3.93124e+57
          1153.54020	        -3.57547e+57
          1154.34650	         2.81821e+58
          1155.15280	         2.19257e+58
          1155.95910	         1.09121e+58
          1156.76540	         1.77448e+57
          1157.57170	        -5.53540e+56
          1158.37800	        -6.85995e+56
          1159.18430	         8.68345e+56
          1159.99060	         8.44953e+57
          1160.79690	         8.21702e+56
          1161.60320	         5.63186e+57
          1162.40950	         1.29663e+58
          1163.21580	         2.13270e+58
          1164.02210	         1.86134e+58
          1164.82840	         1.25091e+58
          1165.63470	         2.33435e+58
          1166.44100	         2.94228e+58
          1167.24730	         1.71590e+58
          1168.05360	         7.21924e+57
          1168.85990	         6.12833e+57
          1169.66620	         4.24686e+57
          1170.47250	         1.03839e+58
          1171.27880	         1.88971e+58
          1172.08510	         2.50686e+58
          1172.89140	         1.71963e+58
          1173.69770	         6.90560e+57
          1174.50400	         1.16664e+58
          1175.31030	         1.59545e+58
          1176.11660	         1.76675e+58
          1176.92290	         1.40266e+58
          1177.72920	         1.35579e+58
          1178.53550	         4.70765e+57
          1179.34180	        -1.32544e+57
          1180.14810	        -1.19034e+55
          1180.95440	         1.22583e+58
          1181.76070	         9.48057e+57
          1182.56700	         7.74430e+57
          1183.37330	         7.41143e+57
          1184.17960	         9.17446e+57
          1184.98590	         8.93382e+57
          1185.79220	         9.47933e+57
          1186.59850	         1.29490e+58
          1187.40480	         9.45838e+57
          1188.21110	         1.51120e+58
          1189.01740	         8.88658e+57
          1189.82370	         1.38882e+58
          1190.63000	         1.37940e+58
          1191.43630	         1.26168e+58
          1192.24260	         9.72634e+57
          1193.04890	         9.35563e+57
          1193.85520	         1.26245e+58
          1194.66150	         3.41793e+57
          1195.46780	         1.15816e+58
          1196.27410	         1.51966e+58
          1197.08040	         7.86969e+57
          1197.88670	         8.71452e+57
          1198.69300	         1.72370e+58
          1199.49930	         1.89148e+58
          1200.30560	         1.13401e+58
          1201.11190	         8.50761e+57
          1201.91820	         8.96931e+57
          1202.72450	         1.25316e+58
          1203.53080	         1.44282e+58
          1204.33710	         8.63821e+57
          1205.14340	         8.12966e+57
          1205.94970	         6.92487e+57
          1206.75600	         5.65221e+57
          1207.56230	         6.32630e+57
          1208.36860	         8.00399e+57
          1209.17490	         4.62547e+57
          1209.98120	         6.56445e+57
          1210.78750	         8.44221e+57
          1211.59380	         8.72945e+57
          1212.40010	         1.82843e+58
          1213.20640	         1.89064e+58
          1214.01270	         1.88908e+58
          1214.81900	         2.60014e+58
          1215.62530	         4.65258e+58
          1216.43160	         9.18722e+58
          1217.23790	         1.55207e+59
          1218.04420	         1.18291e+59
          1218.85050	         9.17203e+58
          1219.65680	         5.98741e+58
          1220.46310	         3.64922e+58
          1221.26940	         2.48658e+58
          1222.07570	         1.41209e+58
          1222.88200	         7.65582e+57
          1223.68830	         7.64705e+57
          1224.49460	         5.00239e+57
          1225.30090	         3.69963e+57
          1226.10720	         4.74719e+57
          1226.91350	         6.45177e+57
          1227.71980	         8.47833e+57
          1228.52610	         1.09884e+58
          1229.33240	         8.61530e+57
          1230.13870	         8.49178e+57
          1230.94500	         8.89145e+57
          1231.75130	         8.89416e+57
          1232.55760	         1.04988e+58
          1233.36390	         9.11851e+57
          1234.17020	         1.12182e+58
          1234.97650	         7.78919e+57
          1235.78280	         6.91278e+57
          1236.58910	         6.63735e+57
          1237.39540	         8.57700e+57
          1238.20170	         1.01706e+58
          1239.00800	         1.38401e+58
          1239.81430	         1.44481e+58
          1240.62060	         9.48978e+57
          1241.42690	         1.20947e+58
          1242.23320	         1.55496e+58
          1243.03950	         9.00933e+57
          1243.84580	         7.89646e+57
          1244.65210	         1.25454e+58
          1245.45840	         1.19990e+58
          1246.26470	         8.83310e+57
          1247.07100	         6.41258e+57
          1247.87730	         4.90780e+57
          1248.68360	         4.21162e+57
          1249.48990	         5.26632e+57
          1250.29620	         9.01672e+57
          1251.10250	         7.38050e+57
          1251.90880	         4.09844e+57
          1252.71510	         5.31498e+57
          1253.52140	         6.76177e+57
          1254.32770	         1.24053e+58
          1255.13400	         1.70250e+58
          1255.94030	         1.39914e+58
          1256.74660	         1.13846e+58
          1257.55290	         1.16164e+58
          1258.35920	         8.27454e+57
          1259.16550	         4.97465e+57
          1259.97180	         3.35652e+57
          1260.77810	         8.05264e+57
          1261.58440	         1.10166e+58
          1262.39070	         5.59803e+57
          1263.19700	         6.18943e+57
          1264.00330	         8.51953e+57
          1264.80960	         8.21048e+57
          1265.61590	         9.39032e+57
          1266.42220	         1.20382e+58
          1267.22850	         1.23048e+58
          1268.03480	         1.50927e+58
          1268.84110	         1.48962e+58
          1269.64740	         1.30877e+58
          1270.45370	         1.09312e+58
          1271.26000	         1.03771e+58
          1272.06630	         1.23816e+58
          1272.87260	         1.46505e+58
          1273.67890	         1.42487e+58
          1274.48520	         1.22508e+58
          1275.29150	         1.40791e+58
          1276.09780	         1.40329e+58
          1276.90410	         1.32787e+58
          1277.71040	         1.30436e+58
          1278.51670	         1.16383e+58
          1279.32300	         1.25812e+58
          1280.12930	         1.24393e+58
          1280.93560	         1.25007e+58
          1281.74190	         1.07587e+58
          1282.54820	         1.09876e+58
          1283.35450	         1.21499e+58
          1284.16080	         1.35057e+58
          1284.96710	         1.53566e+58
          1285.77340	         1.19482e+58
          1286.57970	         1.20701e+58
          1287.38600	         1.54085e+58
          1288.19230	         1.44805e+58
          1288.99860	         1.37256e+58
          1289.80490	         1.20075e+58
          1290.61120	         1.27763e+58
          1291.41750	         1.35828e+58
          1292.22380	         1.15213e+58
          1293.03010	         9.56223e+57
          1293.83640	         1.16683e+58
          1294.64270	         9.50093e+57
          1295.44900	         6.49269e+57
          1296.25530	         6.31107e+57
          1297.06160	         8.40217e+57
          1297.86790	         9.44543e+57
          1298.67420	         8.33843e+57
          1299.48050	         9.98007e+57
          1300.28680	         1.20694e+58
          1301.09310	         8.85967e+57
          1301.89940	         5.89963e+57
          1302.70570	         6.70162e+57
          1303.51200	         7.10092e+57
          1304.31830	         1.06640e+58
          1305.12460	         1.20616e+58
          1305.93090	         1.10735e+58
          1306.73720	         1.27894e+58
          1307.54350	         1.40913e+58
          1308.34980	         1.43985e+58
          1309.15610	         1.69924e+58
          1309.96240	         1.75783e+58
          1310.76870	         1.44803e+58
          1311.57500	         1.08723e+58
          1312.38130	         7.46044e+57
          1313.18760	         1.27197e+58
          1313.99390	         1.77696e+58
          1314.80020	         1.69525e+58
          1315.60650	         1.42738e+58
          1316.41280	         1.19116e+58
          1317.21910	         1.18649e+58
          1318.02540	         1.32455e+58
          1318.83170	         1.38557e+58
          1319.63800	         1.22566e+58
          1320.44430	         1.29041e+58
          1321.25060	         1.27455e+58
          1322.05690	         1.26159e+58
          1322.86320	         1.09663e+58
          1323.66950	         1.08135e+58
          1324.47580	         8.97145e+57
          1325.28210	         8.72067e+57
          1326.08840	         1.17516e+58
          1326.89470	         1.36313e+58
          1327.70100	         1.08913e+58
          1328.50730	         8.93689e+57
          1329.31360	         1.02903e+58
          1330.11990	         8.45629e+57
          1330.92620	         8.50360e+57
          1331.73250	         1.04762e+58
          1332.53880	         9.89285e+57
          1333.34510	         8.58101e+57
          1334.15140	         8.79082e+57
          1334.95770	         9.78245e+57
          1335.76400	         1.01345e+58
          1336.57030	         1.16596e+58
          1337.37660	         1.10370e+58
          1338.18290	         9.43368e+57
          1338.98920	         1.15276e+58
          1339.79550	         1.19611e+58
          1340.60180	         1.16616e+58
          1341.40810	         1.29462e+58
          1342.21440	         1.08389e+58
          1343.02070	         1.18585e+58
          1343.82700	         1.28226e+58
          1344.63330	         1.22694e+58
          1345.43960	         1.14929e+58
          1346.24590	         1.04407e+58
          1347.05220	         1.22538e+58
          1347.85850	         1.06039e+58
          1348.66480	         1.24527e+58
          1349.47110	         1.43334e+58
          1350.27740	         1.28521e+58
          1351.08370	         1.32838e+58
          1351.89000	         1.26796e+58
          1352.69630	         1.12951e+58
          1353.50260	         1.21536e+58
          1354.30890	         1.23925e+58
          1355.11520	         1.25506e+58
          1355.92150	         1.06009e+58
          1356.72780	         1.03924e+58
          1357.53410	         1.07528e+58
          1358.34040	         1.06191e+58
          1359.14670	         1.14917e+58
          1359.95300	         1.12716e+58
          1360.75930	         1.04917e+58
          1361.56560	         1.11288e+58
          1362.37190	         1.08166e+58
          1363.17820	         1.02483e+58
          1363.98450	         1.07151e+58
          1364.79080	         1.25458e+58
          1365.59710	         1.35773e+58
          1366.40340	         1.24499e+58
          1367.20970	         9.96912e+57
          1368.01600	         8.17617e+57
          1368.82230	         8.96722e+57
          1369.62860	         1.09005e+58
          1370.43490	         9.03690e+57
          1371.24120	         8.51214e+57
          1372.04750	         9.21418e+57
          1372.85380	         1.23797e+58
          1373.66010	         1.21116e+58
          1374.46640	         1.08901e+58
          1375.27270	         9.99228e+57
          1376.07900	         9.00573e+57
          1376.88530	         8.05043e+57
          1377.69160	         7.10785e+57
          1378.49790	         6.66818e+57
          1379.30420	         8.02527e+57
          1380.11050	         9.47071e+57
          1380.91680	         8.46225e+57
          1381.72310	         8.11910e+57
          1382.52940	         8.30387e+57
          1383.33570	         7.26083e+57
          1384.14200	         1.04151e+58
          1384.94830	         1.22350e+58
          1385.75460	         1.10929e+58
          1386.56090	         1.21130e+58
          1387.36720	         1.07784e+58
          1388.17350	         1.13478e+58
          1388.97980	         1.03296e+58
          1389.78610	         8.71066e+57
          1390.59240	         9.55614e+57
          1391.39870	         8.88634e+57
          1392.20500	         8.12829e+57
          1393.01130	         8.06624e+57
          1393.81760	         7.90888e+57
          1394.62390	         6.89041e+57
          1395.43020	         6.49322e+57
          1396.23650	         5.63280e+57
          1397.04280	         7.02739e+57
          1397.84910	         9.76618e+57
          1398.65540	         9.63639e+57
          1399.46170	         9.21257e+57
          1400.26800	         9.22641e+57
          1401.07430	         8.11256e+57
          1401.88060	         7.29891e+57
          1402.68690	         8.36198e+57
          1403.49320	         8.73883e+57
          1404.29950	         8.05052e+57
          1405.10580	         1.02798e+58
          1405.91210	         1.16143e+58
          1406.71840	         1.21472e+58
          1407.52470	         1.07239e+58
          1408.33100	         9.51901e+57
          1409.13730	         1.13046e+58
          1409.94360	         1.02550e+58
          1410.74990	         1.04287e+58
          1411.55620	         1.00879e+58
          1412.36250	         8.55635e+57
          1413.16880	         9.00895e+57
          1413.97510	         8.31375e+57
          1414.78140	         8.87049e+57
          1415.58770	         1.13443e+58
          1416.39400	         1.11744e+58
          1417.20030	         1.18846e+58
          1418.00660	         1.08892e+58
          1418.81290	         1.08837e+58
          1419.61920	         1.03962e+58
          1420.42550	         1.20334e+58
          1421.23180	         1.34946e+58
          1422.03810	         1.29488e+58
          1422.84440	         1.25757e+58
          1423.65070	         1.40077e+58
          1424.45700	         1.14951e+58
          1425.26330	         8.65189e+57
          1426.06960	         9.57670e+57
          1426.87590	         1.06163e+58
          1427.68220	         1.01359e+58
          1428.48850	         1.12471e+58
          1429.29480	         1.09720e+58
          1430.10110	         9.54039e+57
          1430.90740	         8.36696e+57
          1431.71370	         8.81970e+57
          1432.52000	         9.17018e+57
          1433.32630	         8.73611e+57
          1434.13260	         8.07616e+57
          1434.93890	         8.72940e+57
          1435.74520	         8.92473e+57
          1436.55150	         8.94140e+57
          1437.35780	         9.06451e+57
          1438.16410	         9.07105e+57
          1438.97040	         8.47311e+57
          1439.77670	         7.94551e+57
          1440.58300	         8.63348e+57
          1441.38930	         1.00694e+58
          1442.19560	         9.70787e+57
          1443.00190	         9.35952e+57
          1443.80820	         1.02455e+58
          1444.61450	         9.40054e+57
          1445.42080	         9.58387e+57
          1446.22710	         1.06961e+58
          1447.03340	         1.06234e+58
          1447.83970	         1.02899e+58
          1448.64600	         9.93383e+57
          1449.45230	         9.93070e+57
          1450.25860	         9.31232e+57
          1451.06490	         8.50555e+57
          1451.87120	         7.49713e+57
          1452.67750	         6.84848e+57
          1453.48380	         7.95191e+57
          1454.29010	         7.35702e+57
          1455.09640	         7.81518e+57
          1455.90270	         8.95125e+57
          1456.70900	         9.13448e+57
          1457.51530	         9.14355e+57
          1458.32160	         1.09746e+58
          1459.12790	         1.14644e+58
          1459.93420	         1.00289e+58
          1460.74050	         8.93058e+57
          1461.54680	         7.74792e+57
          1462.35310	         7.20095e+57
          1463.15940	         9.87011e+57
          1463.96570	         1.13585e+58
          1464.77200	         1.22156e+58
          1465.57830	         1.22737e+58
          1466.38460	         1.01970e+58
          1467.19090	         8.97247e+57
          1467.99720	         8.15406e+57
          1468.80350	         8.93287e+57
          1469.60980	         9.34658e+57
          1470.41610	         9.31884e+57
          1471.22240	         8.77281e+57
          1472.02870	         1.01892e+58
          1472.83500	         9.91023e+57
          1473.64130	         8.99458e+57
          1474.44760	         9.84123e+57
          1475.25390	         9.47976e+57
          1476.06020	         8.75452e+57
          1476.86650	         7.68263e+57
          1477.67280	         7.68146e+57
          1478.47910	         7.95159e+57
          1479.28540	         7.65677e+57
          1480.09170	         7.76960e+57
          1480.89800	         8.71471e+57
          1481.70430	         8.40384e+57
          1482.51060	         8.46206e+57
          1483.31690	         8.82435e+57
          1484.12320	         9.58038e+57
          1484.92950	         8.74503e+57
          1485.73580	         8.40548e+57
          1486.54210	         8.72172e+57
          1487.34840	         8.96916e+57
          1488.15470	         9.14601e+57
          1488.96100	         8.36479e+57
          1489.76730	         8.70702e+57
