#sample_174_stacked_spectrum_rest_UV-bands_median_H-alpha_noDC.txt
#median Lum: 1.70344e+42
#Rest-frame wavelength (A) | Luminosity (erg/s/A)
#
          1110.00000	         0.00000e+00
          1110.80630	         1.45672e+57
          1111.61260	         2.39920e+59
          1112.41890	        -1.69548e+57
          1113.22520	        -8.79247e+57
          1114.03150	        -1.50301e+58
          1114.83780	         9.99709e+58
          1115.64410	         5.05494e+58
          1116.45040	         6.90683e+58
          1117.25670	         4.70882e+58
          1118.06300	         1.32791e+59
          1118.86930	         4.94291e+58
          1119.67560	         8.95382e+58
          1120.48190	         1.58249e+58
          1121.28820	        -9.32733e+58
          1122.09450	         2.43237e+58
          1122.90080	        -2.52467e+58
          1123.70710	         3.58665e+58
          1124.51340	         1.12839e+59
          1125.31970	        -2.81037e+57
          1126.12600	         5.59851e+56
          1126.93230	        -4.43179e+58
          1127.73860	        -4.95386e+58
          1128.54490	         3.46068e+58
          1129.35120	         1.48235e+58
          1130.15750	         4.04067e+58
          1130.96380	        -2.35325e+58
          1131.77010	         4.12817e+58
          1132.57640	         5.40193e+58
          1133.38270	         4.79184e+58
          1134.18900	         5.87030e+58
          1134.99530	         2.63978e+58
          1135.80160	         2.53763e+58
          1136.60790	         1.28931e+58
          1137.41420	        -2.65423e+58
          1138.22050	         1.50264e+58
          1139.02680	         2.46464e+58
          1139.83310	         1.36234e+58
          1140.63940	         1.67658e+58
          1141.44570	        -7.45817e+57
          1142.25200	         4.06952e+57
          1143.05830	         2.37311e+58
          1143.86460	         3.50639e+58
          1144.67090	         3.44303e+58
          1145.47720	         1.52320e+57
          1146.28350	         1.12870e+58
          1147.08980	         2.93776e+58
          1147.89610	         1.79788e+58
          1148.70240	         3.33869e+58
          1149.50870	         3.19994e+58
          1150.31500	         2.28610e+58
          1151.12130	         1.54680e+58
          1151.92760	         1.21351e+58
          1152.73390	         5.22899e+57
          1153.54020	         1.32916e+58
          1154.34650	         2.05171e+58
          1155.15280	         3.27127e+58
          1155.95910	         2.43239e+57
          1156.76540	         5.32191e+57
          1157.57170	         2.93676e+57
          1158.37800	        -1.75289e+57
          1159.18430	         2.22300e+57
          1159.99060	         5.90164e+56
          1160.79690	        -2.67644e+56
          1161.60320	         1.72412e+58
          1162.40950	         1.12339e+58
          1163.21580	         8.72373e+57
          1164.02210	         1.01650e+58
          1164.82840	         6.50195e+57
          1165.63470	         1.88810e+58
          1166.44100	         2.75846e+58
          1167.24730	         2.23023e+58
          1168.05360	         8.49107e+57
          1168.85990	         5.18155e+57
          1169.66620	         7.11563e+57
          1170.47250	         9.37132e+57
          1171.27880	         9.08707e+57
          1172.08510	         1.65857e+58
          1172.89140	         1.79607e+58
          1173.69770	         8.22825e+57
          1174.50400	         6.69258e+57
          1175.31030	         1.87932e+58
          1176.11660	         1.99655e+58
          1176.92290	         1.27457e+58
          1177.72920	         1.30652e+58
          1178.53550	         1.13595e+58
          1179.34180	         3.23446e+57
          1180.14810	         6.61092e+57
          1180.95440	         8.58953e+57
          1181.76070	         6.38261e+57
          1182.56700	         8.38534e+57
          1183.37330	         5.05915e+57
          1184.17960	         8.25879e+57
          1184.98590	         9.56450e+57
          1185.79220	         1.02249e+58
          1186.59850	         1.26287e+58
          1187.40480	         1.38410e+58
          1188.21110	         1.58373e+58
          1189.01740	         1.32355e+58
          1189.82370	         1.65338e+58
          1190.63000	         1.53654e+58
          1191.43630	         8.90898e+57
          1192.24260	         7.06727e+57
          1193.04890	         1.05597e+58
          1193.85520	         1.02784e+58
          1194.66150	         5.89329e+57
          1195.46780	         9.45837e+57
          1196.27410	         1.10063e+58
          1197.08040	         7.94999e+57
          1197.88670	         1.04223e+58
          1198.69300	         1.47237e+58
          1199.49930	         1.41435e+58
          1200.30560	         1.27766e+58
          1201.11190	         1.41524e+58
          1201.91820	         7.06965e+57
          1202.72450	         1.05810e+58
          1203.53080	         1.51235e+58
          1204.33710	         1.22371e+58
          1205.14340	         3.97963e+57
          1205.94970	         6.25835e+57
          1206.75600	         5.82943e+57
          1207.56230	         5.15345e+57
          1208.36860	         6.51465e+57
          1209.17490	         5.57137e+57
          1209.98120	         8.75546e+57
          1210.78750	         9.82547e+57
          1211.59380	         1.36915e+58
          1212.40010	         1.88975e+58
          1213.20640	         1.73734e+58
          1214.01270	         2.00955e+58
          1214.81900	         2.70553e+58
          1215.62530	         4.62505e+58
          1216.43160	         8.83518e+58
          1217.23790	         1.49257e+59
          1218.04420	         1.14714e+59
          1218.85050	         8.67232e+58
          1219.65680	         6.06509e+58
          1220.46310	         3.66573e+58
          1221.26940	         2.25879e+58
          1222.07570	         1.28073e+58
          1222.88200	         8.69361e+57
          1223.68830	         9.25777e+57
          1224.49460	         7.52114e+57
          1225.30090	         5.59558e+57
          1226.10720	         5.71362e+57
          1226.91350	         8.30028e+57
          1227.71980	         7.29902e+57
          1228.52610	         1.20482e+58
          1229.33240	         9.13708e+57
          1230.13870	         1.09106e+58
          1230.94500	         8.78951e+57
          1231.75130	         6.59778e+57
          1232.55760	         9.22039e+57
          1233.36390	         8.61389e+57
          1234.17020	         9.09111e+57
          1234.97650	         8.90263e+57
          1235.78280	         9.81702e+57
          1236.58910	         9.98241e+57
          1237.39540	         1.14288e+58
          1238.20170	         1.19453e+58
          1239.00800	         1.34822e+58
          1239.81430	         1.46438e+58
          1240.62060	         8.92791e+57
          1241.42690	         9.14914e+57
          1242.23320	         1.16005e+58
          1243.03950	         8.83912e+57
          1243.84580	         7.80545e+57
          1244.65210	         1.06064e+58
          1245.45840	         9.66372e+57
          1246.26470	         7.48870e+57
          1247.07100	         5.44353e+57
          1247.87730	         6.20843e+57
          1248.68360	         3.10617e+57
          1249.48990	         6.69169e+57
          1250.29620	         8.16568e+57
          1251.10250	         7.45321e+57
          1251.90880	         5.64347e+57
          1252.71510	         7.07234e+57
          1253.52140	         5.94612e+57
          1254.32770	         8.14202e+57
          1255.13400	         1.18703e+58
          1255.94030	         1.18184e+58
          1256.74660	         1.08684e+58
          1257.55290	         9.95083e+57
          1258.35920	         8.06709e+57
          1259.16550	         5.66162e+57
          1259.97180	         5.87616e+57
          1260.77810	         6.62240e+57
          1261.58440	         9.71173e+57
          1262.39070	         8.56153e+57
          1263.19700	         4.91486e+57
          1264.00330	         8.34177e+57
          1264.80960	         1.15523e+58
          1265.61590	         1.21211e+58
          1266.42220	         1.12876e+58
          1267.22850	         9.52582e+57
          1268.03480	         1.29377e+58
          1268.84110	         1.32004e+58
          1269.64740	         1.23896e+58
          1270.45370	         1.50296e+58
          1271.26000	         1.36195e+58
          1272.06630	         1.20460e+58
          1272.87260	         1.43593e+58
          1273.67890	         1.29837e+58
          1274.48520	         1.09074e+58
          1275.29150	         1.13240e+58
          1276.09780	         9.84969e+57
          1276.90410	         1.43662e+58
          1277.71040	         1.34887e+58
          1278.51670	         1.11704e+58
          1279.32300	         1.36160e+58
          1280.12930	         1.19302e+58
          1280.93560	         1.02945e+58
          1281.74190	         1.25730e+58
          1282.54820	         1.10064e+58
          1283.35450	         1.05381e+58
          1284.16080	         1.36513e+58
          1284.96710	         1.65649e+58
          1285.77340	         1.40467e+58
          1286.57970	         1.27935e+58
          1287.38600	         1.54857e+58
          1288.19230	         1.56229e+58
          1288.99860	         1.55253e+58
          1289.80490	         1.23485e+58
          1290.61120	         1.19771e+58
          1291.41750	         1.33726e+58
          1292.22380	         1.14955e+58
          1293.03010	         1.12494e+58
          1293.83640	         1.32018e+58
          1294.64270	         1.13776e+58
          1295.44900	         7.21332e+57
          1296.25530	         6.17372e+57
          1297.06160	         8.96248e+57
          1297.86790	         1.20372e+58
          1298.67420	         1.10114e+58
          1299.48050	         1.01123e+58
          1300.28680	         1.00589e+58
          1301.09310	         8.76579e+57
          1301.89940	         5.29123e+57
          1302.70570	         5.64176e+57
          1303.51200	         7.23249e+57
          1304.31830	         9.84618e+57
          1305.12460	         1.10617e+58
          1305.93090	         1.02543e+58
          1306.73720	         1.08054e+58
          1307.54350	         1.29849e+58
          1308.34980	         1.43679e+58
          1309.15610	         1.62589e+58
          1309.96240	         1.62808e+58
          1310.76870	         1.43981e+58
          1311.57500	         1.05519e+58
          1312.38130	         7.89515e+57
          1313.18760	         1.25489e+58
          1313.99390	         1.69377e+58
          1314.80020	         1.79473e+58
          1315.60650	         1.52388e+58
          1316.41280	         1.09128e+58
          1317.21910	         1.02636e+58
          1318.02540	         1.08804e+58
          1318.83170	         1.14185e+58
          1319.63800	         1.07255e+58
          1320.44430	         1.10995e+58
          1321.25060	         1.12957e+58
          1322.05690	         1.30147e+58
          1322.86320	         1.34195e+58
          1323.66950	         1.16427e+58
          1324.47580	         1.00217e+58
          1325.28210	         8.64548e+57
          1326.08840	         1.06318e+58
          1326.89470	         1.32292e+58
          1327.70100	         1.13953e+58
          1328.50730	         9.38688e+57
          1329.31360	         9.73903e+57
          1330.11990	         8.54625e+57
          1330.92620	         7.96545e+57
          1331.73250	         1.10410e+58
          1332.53880	         1.03381e+58
          1333.34510	         8.22121e+57
          1334.15140	         8.76204e+57
          1334.95770	         8.82314e+57
          1335.76400	         9.60140e+57
          1336.57030	         1.05209e+58
          1337.37660	         9.55216e+57
          1338.18290	         9.19072e+57
          1338.98920	         1.10772e+58
          1339.79550	         1.29392e+58
          1340.60180	         1.31024e+58
          1341.40810	         1.38336e+58
          1342.21440	         1.22539e+58
          1343.02070	         1.23992e+58
          1343.82700	         1.36626e+58
          1344.63330	         1.40347e+58
          1345.43960	         1.43153e+58
          1346.24590	         1.26088e+58
          1347.05220	         1.21366e+58
          1347.85850	         1.08685e+58
          1348.66480	         1.20308e+58
          1349.47110	         1.37048e+58
          1350.27740	         1.09434e+58
          1351.08370	         1.05681e+58
          1351.89000	         1.11607e+58
          1352.69630	         1.19723e+58
          1353.50260	         1.27529e+58
          1354.30890	         1.43331e+58
          1355.11520	         1.43857e+58
          1355.92150	         1.14990e+58
          1356.72780	         1.09628e+58
          1357.53410	         1.02631e+58
          1358.34040	         1.15854e+58
          1359.14670	         1.13046e+58
          1359.95300	         1.18023e+58
          1360.75930	         1.21615e+58
          1361.56560	         1.05460e+58
          1362.37190	         1.08254e+58
          1363.17820	         1.08809e+58
          1363.98450	         1.15111e+58
          1364.79080	         1.28687e+58
          1365.59710	         1.41643e+58
          1366.40340	         1.38391e+58
          1367.20970	         1.09198e+58
          1368.01600	         1.15720e+58
          1368.82230	         1.16204e+58
          1369.62860	         1.12203e+58
          1370.43490	         9.98583e+57
          1371.24120	         1.00088e+58
          1372.04750	         8.46927e+57
          1372.85380	         1.03980e+58
          1373.66010	         1.04086e+58
          1374.46640	         9.48790e+57
          1375.27270	         1.08880e+58
          1376.07900	         9.68295e+57
          1376.88530	         8.96308e+57
          1377.69160	         9.32606e+57
          1378.49790	         7.02495e+57
          1379.30420	         6.97445e+57
          1380.11050	         9.18375e+57
          1380.91680	         8.97134e+57
          1381.72310	         7.87849e+57
          1382.52940	         6.34386e+57
          1383.33570	         6.90141e+57
          1384.14200	         9.18431e+57
          1384.94830	         1.16931e+58
          1385.75460	         1.12635e+58
          1386.56090	         1.16958e+58
          1387.36720	         1.19938e+58
          1388.17350	         1.41444e+58
          1388.97980	         1.26533e+58
          1389.78610	         9.19282e+57
          1390.59240	         7.55883e+57
          1391.39870	         7.13423e+57
          1392.20500	         8.54986e+57
          1393.01130	         8.17499e+57
          1393.81760	         7.32984e+57
          1394.62390	         6.78561e+57
          1395.43020	         5.68615e+57
          1396.23650	         5.82688e+57
          1397.04280	         6.69546e+57
          1397.84910	         8.80666e+57
          1398.65540	         1.00757e+58
          1399.46170	         1.11236e+58
          1400.26800	         8.91476e+57
          1401.07430	         7.59615e+57
          1401.88060	         8.34918e+57
          1402.68690	         9.60687e+57
          1403.49320	         8.53766e+57
          1404.29950	         8.49057e+57
          1405.10580	         9.57117e+57
          1405.91210	         1.04316e+58
          1406.71840	         1.08552e+58
          1407.52470	         1.07979e+58
          1408.33100	         1.07158e+58
          1409.13730	         1.19141e+58
          1409.94360	         1.20145e+58
          1410.74990	         1.02926e+58
          1411.55620	         8.91938e+57
          1412.36250	         9.50713e+57
          1413.16880	         9.35996e+57
          1413.97510	         7.81300e+57
          1414.78140	         8.40139e+57
          1415.58770	         1.04074e+58
          1416.39400	         1.18049e+58
          1417.20030	         1.34539e+58
          1418.00660	         1.16618e+58
          1418.81290	         1.09258e+58
          1419.61920	         1.09979e+58
          1420.42550	         1.13679e+58
          1421.23180	         1.26380e+58
          1422.03810	         1.23746e+58
          1422.84440	         1.20763e+58
          1423.65070	         1.32837e+58
          1424.45700	         1.19190e+58
          1425.26330	         9.46006e+57
          1426.06960	         9.46110e+57
          1426.87590	         1.08107e+58
          1427.68220	         1.06631e+58
          1428.48850	         1.10339e+58
          1429.29480	         1.07251e+58
          1430.10110	         9.56526e+57
          1430.90740	         8.74299e+57
          1431.71370	         9.40155e+57
          1432.52000	         1.00635e+58
          1433.32630	         8.14786e+57
          1434.13260	         6.37999e+57
          1434.93890	         7.84993e+57
          1435.74520	         9.85882e+57
          1436.55150	         8.91122e+57
          1437.35780	         8.21591e+57
          1438.16410	         8.88192e+57
          1438.97040	         8.84746e+57
          1439.77670	         9.11908e+57
          1440.58300	         9.56426e+57
          1441.38930	         9.61583e+57
          1442.19560	         9.96658e+57
          1443.00190	         1.06529e+58
          1443.80820	         1.15273e+58
          1444.61450	         9.83517e+57
          1445.42080	         7.74916e+57
          1446.22710	         9.40333e+57
          1447.03340	         8.82247e+57
          1447.83970	         9.99128e+57
          1448.64600	         1.03233e+58
          1449.45230	         8.69596e+57
          1450.25860	         9.60711e+57
          1451.06490	         9.31905e+57
          1451.87120	         7.38736e+57
          1452.67750	         7.36997e+57
          1453.48380	         8.61801e+57
          1454.29010	         7.38929e+57
          1455.09640	         6.98248e+57
          1455.90270	         8.48019e+57
          1456.70900	         8.30876e+57
          1457.51530	         9.31068e+57
          1458.32160	         1.25728e+58
          1459.12790	         1.20752e+58
          1459.93420	         9.86164e+57
          1460.74050	         7.23568e+57
          1461.54680	         7.30690e+57
          1462.35310	         9.31574e+57
          1463.15940	         1.00749e+58
          1463.96570	         1.07666e+58
          1464.77200	         1.35393e+58
          1465.57830	         1.15961e+58
          1466.38460	         9.44465e+57
          1467.19090	         8.34590e+57
          1467.99720	         8.15261e+57
          1468.80350	         8.41135e+57
          1469.60980	         9.45178e+57
          1470.41610	         1.14562e+58
          1471.22240	         1.04523e+58
          1472.02870	         1.05090e+58
          1472.83500	         1.02905e+58
          1473.64130	         1.00679e+58
          1474.44760	         1.07741e+58
          1475.25390	         9.44744e+57
          1476.06020	         8.73722e+57
          1476.86650	         9.41850e+57
          1477.67280	         8.56756e+57
          1478.47910	         8.07129e+57
          1479.28540	         7.63104e+57
          1480.09170	         8.21303e+57
          1480.89800	         8.23655e+57
          1481.70430	         8.92074e+57
          1482.51060	         7.40518e+57
          1483.31690	         7.00989e+57
          1484.12320	         8.60505e+57
          1484.92950	         7.84035e+57
          1485.73580	         8.14650e+57
          1486.54210	         8.88147e+57
          1487.34840	         9.29554e+57
          1488.15470	         9.13682e+57
          1488.96100	         8.09931e+57
          1489.76730	         7.66652e+57
