#sample_304_stacked_spectrum_rest_UV-bands_median_H-alpha_noDC.txt
#median Lum: 1.68863e+42
#Rest-frame wavelength (A) | Luminosity (erg/s/A)
#
          1110.00000	         0.00000e+00
          1110.80630	        -8.32965e+58
          1111.61260	         4.08904e+58
          1112.41890	         7.43754e+58
          1113.22520	        -4.74457e+58
          1114.03150	        -1.78522e+59
          1114.83780	         2.36939e+59
          1115.64410	         6.25872e+58
          1116.45040	         1.55858e+59
          1117.25670	         1.42080e+59
          1118.06300	         1.15759e+59
          1118.86930	        -1.14289e+59
          1119.67560	         4.09672e+58
          1120.48190	        -8.74227e+58
          1121.28820	        -1.34135e+59
          1122.09450	         8.24062e+58
          1122.90080	         2.03608e+58
          1123.70710	         1.27448e+58
          1124.51340	         6.29429e+58
          1125.31970	         3.36976e+58
          1126.12600	         9.20041e+57
          1126.93230	        -6.37725e+58
          1127.73860	        -5.72000e+58
          1128.54490	        -2.59663e+58
          1129.35120	        -7.41959e+57
          1130.15750	        -1.08963e+58
          1130.96380	        -4.39365e+58
          1131.77010	         1.79166e+58
          1132.57640	         2.00326e+58
          1133.38270	         2.56449e+58
          1134.18900	         1.47023e+58
          1134.99530	         1.08809e+58
          1135.80160	         1.53825e+58
          1136.60790	         2.52750e+58
          1137.41420	         2.18420e+58
          1138.22050	         4.65296e+58
          1139.02680	         2.89157e+58
          1139.83310	         1.37069e+58
          1140.63940	         1.42936e+58
          1141.44570	         2.69071e+57
          1142.25200	        -4.53696e+57
          1143.05830	         2.30119e+58
          1143.86460	         1.67786e+58
          1144.67090	         2.70587e+58
          1145.47720	         2.38633e+58
          1146.28350	         1.90138e+58
          1147.08980	         2.50824e+58
          1147.89610	         1.48184e+58
          1148.70240	         1.67882e+58
          1149.50870	         3.27740e+58
          1150.31500	         1.67813e+58
          1151.12130	         9.61593e+57
          1151.92760	         1.35353e+58
          1152.73390	         2.74712e+58
          1153.54020	         8.56521e+57
          1154.34650	         1.73144e+58
          1155.15280	         2.34881e+58
          1155.95910	         2.07286e+58
          1156.76540	         1.32623e+58
          1157.57170	         4.69274e+56
          1158.37800	        -8.21989e+57
          1159.18430	         6.70671e+57
          1159.99060	         1.61565e+58
          1160.79690	         1.47727e+58
          1161.60320	         1.33160e+58
          1162.40950	         5.65791e+57
          1163.21580	         1.35591e+58
          1164.02210	         1.82386e+58
          1164.82840	         1.00454e+58
          1165.63470	         2.24090e+58
          1166.44100	         2.32271e+58
          1167.24730	         1.49077e+58
          1168.05360	         6.70725e+57
          1168.85990	         9.08184e+57
          1169.66620	         5.96289e+57
          1170.47250	         7.79212e+57
          1171.27880	         7.41543e+57
          1172.08510	         9.99753e+57
          1172.89140	         8.43534e+57
          1173.69770	         9.55338e+57
          1174.50400	         1.67332e+58
          1175.31030	         2.03121e+58
          1176.11660	         1.99072e+58
          1176.92290	         1.83213e+58
          1177.72920	         1.11142e+58
          1178.53550	         2.66222e+57
          1179.34180	        -4.31417e+54
          1180.14810	         7.07899e+57
          1180.95440	         1.07729e+58
          1181.76070	         5.97321e+57
          1182.56700	         8.28562e+57
          1183.37330	         1.11388e+58
          1184.17960	         1.31375e+58
          1184.98590	         1.44096e+58
          1185.79220	         9.35948e+57
          1186.59850	         1.72740e+58
          1187.40480	         1.65038e+58
          1188.21110	         1.61446e+58
          1189.01740	         1.17573e+58
          1189.82370	         7.85274e+57
          1190.63000	         1.37161e+58
          1191.43630	         1.47950e+58
          1192.24260	         4.75405e+57
          1193.04890	         1.00725e+58
          1193.85520	         1.01449e+58
          1194.66150	         8.78673e+57
          1195.46780	         1.32338e+58
          1196.27410	         1.46958e+58
          1197.08040	         1.24919e+58
          1197.88670	         1.33062e+58
          1198.69300	         1.23453e+58
          1199.49930	         1.43189e+58
          1200.30560	         1.33710e+58
          1201.11190	         1.12105e+58
          1201.91820	         9.57417e+57
          1202.72450	         6.57366e+57
          1203.53080	         1.19615e+58
          1204.33710	         6.68807e+57
          1205.14340	         8.59959e+57
          1205.94970	         7.16721e+57
          1206.75600	         6.50193e+57
          1207.56230	         9.61601e+57
          1208.36860	         1.13625e+58
          1209.17490	         5.98986e+57
          1209.98120	         9.14110e+57
          1210.78750	         1.30271e+58
          1211.59380	         1.66440e+58
          1212.40010	         2.08929e+58
          1213.20640	         2.16786e+58
          1214.01270	         2.33021e+58
          1214.81900	         2.74066e+58
          1215.62530	         4.45313e+58
          1216.43160	         9.11270e+58
          1217.23790	         1.53739e+59
          1218.04420	         1.20598e+59
          1218.85050	         8.54982e+58
          1219.65680	         6.11369e+58
          1220.46310	         3.37422e+58
          1221.26940	         1.76416e+58
          1222.07570	         1.19241e+58
          1222.88200	         9.21974e+57
          1223.68830	         8.52925e+57
          1224.49460	         6.66653e+57
          1225.30090	         7.73320e+57
          1226.10720	         5.67865e+57
          1226.91350	         7.19001e+57
          1227.71980	         1.07750e+58
          1228.52610	         1.30489e+58
          1229.33240	         1.04787e+58
          1230.13870	         6.55941e+57
          1230.94500	         6.44659e+57
          1231.75130	         4.72717e+57
          1232.55760	         7.32826e+57
          1233.36390	         8.25301e+57
          1234.17020	         7.25939e+57
          1234.97650	         6.86545e+57
          1235.78280	         8.31553e+57
          1236.58910	         8.62911e+57
          1237.39540	         1.00461e+58
          1238.20170	         9.54386e+57
          1239.00800	         1.19282e+58
          1239.81430	         1.44526e+58
          1240.62060	         9.54216e+57
          1241.42690	         9.50151e+57
          1242.23320	         1.05091e+58
          1243.03950	         7.54592e+57
          1243.84580	         9.33760e+57
          1244.65210	         1.20291e+58
          1245.45840	         1.24799e+58
          1246.26470	         1.27747e+58
          1247.07100	         6.95304e+57
          1247.87730	         1.11406e+58
          1248.68360	         7.89341e+57
          1249.48990	         3.48361e+57
          1250.29620	         7.90496e+57
          1251.10250	         7.34341e+57
          1251.90880	         5.04504e+57
          1252.71510	         4.75646e+57
          1253.52140	         8.50068e+57
          1254.32770	         1.22357e+58
          1255.13400	         1.35522e+58
          1255.94030	         1.22711e+58
          1256.74660	         9.80350e+57
          1257.55290	         8.28386e+57
          1258.35920	         7.75739e+57
          1259.16550	         6.00785e+57
          1259.97180	         4.26256e+57
          1260.77810	         8.25157e+57
          1261.58440	         1.22713e+58
          1262.39070	         6.66403e+57
          1263.19700	         7.43408e+57
          1264.00330	         9.12016e+57
          1264.80960	         8.67241e+57
          1265.61590	         1.15038e+58
          1266.42220	         1.35886e+58
          1267.22850	         1.11841e+58
          1268.03480	         1.21464e+58
          1268.84110	         1.49989e+58
          1269.64740	         1.42523e+58
          1270.45370	         1.31155e+58
          1271.26000	         1.18840e+58
          1272.06630	         1.38263e+58
          1272.87260	         1.34408e+58
          1273.67890	         1.21522e+58
          1274.48520	         1.37761e+58
          1275.29150	         1.24480e+58
          1276.09780	         1.10791e+58
          1276.90410	         1.39402e+58
          1277.71040	         1.00521e+58
          1278.51670	         1.04372e+58
          1279.32300	         1.38305e+58
          1280.12930	         1.41450e+58
          1280.93560	         1.33060e+58
          1281.74190	         1.39205e+58
          1282.54820	         1.48541e+58
          1283.35450	         1.28713e+58
          1284.16080	         1.15656e+58
          1284.96710	         1.34784e+58
          1285.77340	         1.07415e+58
          1286.57970	         8.68698e+57
          1287.38600	         1.33249e+58
          1288.19230	         1.73072e+58
          1288.99860	         1.78517e+58
          1289.80490	         1.45697e+58
          1290.61120	         1.44937e+58
          1291.41750	         1.47005e+58
          1292.22380	         1.33517e+58
          1293.03010	         1.21792e+58
          1293.83640	         1.21318e+58
          1294.64270	         1.15140e+58
          1295.44900	         9.37470e+57
          1296.25530	         1.09368e+58
          1297.06160	         1.08366e+58
          1297.86790	         8.87491e+57
          1298.67420	         1.11123e+58
          1299.48050	         1.26327e+58
          1300.28680	         1.20855e+58
          1301.09310	         8.14592e+57
          1301.89940	         4.19305e+57
          1302.70570	         6.20592e+57
          1303.51200	         7.97902e+57
          1304.31830	         1.04966e+58
          1305.12460	         1.16566e+58
          1305.93090	         1.22685e+58
          1306.73720	         1.30433e+58
          1307.54350	         1.56388e+58
          1308.34980	         1.66582e+58
          1309.15610	         1.62554e+58
          1309.96240	         1.54856e+58
          1310.76870	         1.42928e+58
          1311.57500	         1.40617e+58
          1312.38130	         1.35408e+58
          1313.18760	         1.28896e+58
          1313.99390	         1.55066e+58
          1314.80020	         1.69708e+58
          1315.60650	         1.39954e+58
          1316.41280	         9.86563e+57
          1317.21910	         7.32470e+57
          1318.02540	         1.01172e+58
          1318.83170	         1.25566e+58
          1319.63800	         1.21063e+58
          1320.44430	         1.13781e+58
          1321.25060	         1.32956e+58
          1322.05690	         1.23650e+58
          1322.86320	         1.27714e+58
          1323.66950	         1.09292e+58
          1324.47580	         7.82704e+57
          1325.28210	         1.07649e+58
          1326.08840	         1.44618e+58
          1326.89470	         1.32845e+58
          1327.70100	         1.01956e+58
          1328.50730	         9.17457e+57
          1329.31360	         1.07796e+58
          1330.11990	         1.10526e+58
          1330.92620	         9.82687e+57
          1331.73250	         1.08925e+58
          1332.53880	         9.21846e+57
          1333.34510	         8.73554e+57
          1334.15140	         9.36908e+57
          1334.95770	         9.49770e+57
          1335.76400	         1.10484e+58
          1336.57030	         1.16881e+58
          1337.37660	         1.03859e+58
          1338.18290	         9.65971e+57
          1338.98920	         1.07548e+58
          1339.79550	         1.06827e+58
          1340.60180	         1.26556e+58
          1341.40810	         1.47146e+58
          1342.21440	         1.34136e+58
          1343.02070	         1.14629e+58
          1343.82700	         1.19622e+58
          1344.63330	         1.10523e+58
          1345.43960	         1.17941e+58
          1346.24590	         1.19786e+58
          1347.05220	         1.16957e+58
          1347.85850	         1.18708e+58
          1348.66480	         1.30815e+58
          1349.47110	         1.36910e+58
          1350.27740	         1.35307e+58
          1351.08370	         1.21895e+58
          1351.89000	         1.20383e+58
          1352.69630	         1.25570e+58
          1353.50260	         1.13486e+58
          1354.30890	         1.10648e+58
          1355.11520	         1.28642e+58
          1355.92150	         1.22259e+58
          1356.72780	         1.10436e+58
          1357.53410	         1.04393e+58
          1358.34040	         1.09546e+58
          1359.14670	         1.02389e+58
          1359.95300	         1.11643e+58
          1360.75930	         1.13820e+58
          1361.56560	         9.26698e+57
          1362.37190	         1.14606e+58
          1363.17820	         1.11843e+58
          1363.98450	         1.11517e+58
          1364.79080	         1.38312e+58
          1365.59710	         1.45324e+58
          1366.40340	         1.10898e+58
          1367.20970	         9.32841e+57
          1368.01600	         1.01613e+58
          1368.82230	         9.73199e+57
          1369.62860	         9.77484e+57
          1370.43490	         8.30837e+57
          1371.24120	         1.01380e+58
          1372.04750	         1.00236e+58
          1372.85380	         1.14633e+58
          1373.66010	         1.05386e+58
          1374.46640	         1.00990e+58
          1375.27270	         1.03554e+58
          1376.07900	         8.77345e+57
          1376.88530	         8.19787e+57
          1377.69160	         8.65309e+57
          1378.49790	         8.34046e+57
          1379.30420	         7.99469e+57
          1380.11050	         9.22569e+57
          1380.91680	         8.95219e+57
          1381.72310	         8.42709e+57
          1382.52940	         8.74930e+57
          1383.33570	         9.22964e+57
          1384.14200	         1.02545e+58
          1384.94830	         1.07198e+58
          1385.75460	         1.07665e+58
          1386.56090	         1.18637e+58
          1387.36720	         1.05245e+58
          1388.17350	         1.32382e+58
          1388.97980	         1.30176e+58
          1389.78610	         1.08484e+58
          1390.59240	         1.01103e+58
          1391.39870	         7.80159e+57
          1392.20500	         7.86067e+57
          1393.01130	         7.85669e+57
          1393.81760	         8.18695e+57
          1394.62390	         8.05691e+57
          1395.43020	         6.94066e+57
          1396.23650	         6.61378e+57
          1397.04280	         7.38523e+57
          1397.84910	         9.20629e+57
          1398.65540	         8.84196e+57
          1399.46170	         8.80269e+57
          1400.26800	         8.47495e+57
          1401.07430	         7.36936e+57
          1401.88060	         8.16931e+57
          1402.68690	         9.36487e+57
          1403.49320	         9.80923e+57
          1404.29950	         9.76765e+57
          1405.10580	         1.12683e+58
          1405.91210	         1.12949e+58
          1406.71840	         1.08260e+58
          1407.52470	         1.06722e+58
          1408.33100	         9.93551e+57
          1409.13730	         1.12811e+58
          1409.94360	         1.03508e+58
          1410.74990	         9.68967e+57
          1411.55620	         1.00327e+58
          1412.36250	         9.78169e+57
          1413.16880	         9.34949e+57
          1413.97510	         7.63025e+57
          1414.78140	         7.81120e+57
          1415.58770	         9.60874e+57
          1416.39400	         9.81711e+57
          1417.20030	         1.12980e+58
          1418.00660	         1.17794e+58
          1418.81290	         1.12842e+58
          1419.61920	         1.19095e+58
          1420.42550	         1.29521e+58
          1421.23180	         1.34682e+58
          1422.03810	         1.15372e+58
          1422.84440	         9.89698e+57
          1423.65070	         1.26274e+58
          1424.45700	         1.24115e+58
          1425.26330	         9.60440e+57
          1426.06960	         9.14666e+57
          1426.87590	         9.94353e+57
          1427.68220	         9.35938e+57
          1428.48850	         1.00393e+58
          1429.29480	         1.04799e+58
          1430.10110	         9.57462e+57
          1430.90740	         8.31674e+57
          1431.71370	         9.05291e+57
          1432.52000	         8.80331e+57
          1433.32630	         7.54737e+57
          1434.13260	         7.53153e+57
          1434.93890	         9.33296e+57
          1435.74520	         9.92397e+57
          1436.55150	         9.83649e+57
          1437.35780	         9.46713e+57
          1438.16410	         9.56437e+57
          1438.97040	         1.00643e+58
          1439.77670	         9.48120e+57
          1440.58300	         9.57782e+57
          1441.38930	         9.29903e+57
          1442.19560	         9.44910e+57
          1443.00190	         9.69320e+57
          1443.80820	         1.20165e+58
          1444.61450	         1.08832e+58
          1445.42080	         8.14432e+57
          1446.22710	         1.03991e+58
          1447.03340	         1.04942e+58
          1447.83970	         1.08866e+58
          1448.64600	         1.15110e+58
          1449.45230	         9.85031e+57
          1450.25860	         9.49317e+57
          1451.06490	         9.87550e+57
          1451.87120	         8.78121e+57
          1452.67750	         7.80432e+57
          1453.48380	         8.48225e+57
          1454.29010	         8.09241e+57
          1455.09640	         8.48659e+57
          1455.90270	         9.59557e+57
          1456.70900	         9.22305e+57
          1457.51530	         1.05216e+58
          1458.32160	         1.29362e+58
          1459.12790	         1.23353e+58
          1459.93420	         1.01462e+58
          1460.74050	         8.61062e+57
          1461.54680	         8.49751e+57
          1462.35310	         8.37312e+57
          1463.15940	         9.65380e+57
          1463.96570	         1.15519e+58
          1464.77200	         1.18019e+58
          1465.57830	         1.04184e+58
          1466.38460	         8.67742e+57
          1467.19090	         8.10155e+57
          1467.99720	         8.78253e+57
          1468.80350	         9.21791e+57
          1469.60980	         9.80661e+57
          1470.41610	         1.11274e+58
          1471.22240	         9.74908e+57
          1472.02870	         9.67802e+57
          1472.83500	         9.83395e+57
          1473.64130	         1.00653e+58
          1474.44760	         1.05678e+58
          1475.25390	         9.53060e+57
          1476.06020	         9.53559e+57
          1476.86650	         8.61940e+57
          1477.67280	         7.19560e+57
          1478.47910	         6.31716e+57
          1479.28540	         6.46234e+57
          1480.09170	         8.53868e+57
          1480.89800	         9.26778e+57
          1481.70430	         9.07734e+57
          1482.51060	         8.41292e+57
          1483.31690	         8.03260e+57
          1484.12320	         8.77272e+57
          1484.92950	         9.04892e+57
          1485.73580	         1.02166e+58
          1486.54210	         1.05839e+58
          1487.34840	         8.89913e+57
          1488.15470	         7.92706e+57
          1488.96100	         9.05487e+57
          1489.76730	         1.03101e+58
