#sample_181_stacked_spectrum_rest_UV-bands_median_H-alpha_noDC.txt
#median Lum: 1.69571e+42
#Rest-frame wavelength (A) | Luminosity (erg/s/A)
#
          1110.00000	         0.00000e+00
          1110.80630	         6.31165e+58
          1111.61260	         1.41894e+59
          1112.41890	         4.76355e+58
          1113.22520	        -1.31299e+59
          1114.03150	        -1.15881e+59
          1114.83780	         1.39338e+59
          1115.64410	         4.58167e+58
          1116.45040	         9.27705e+58
          1117.25670	        -3.07830e+58
          1118.06300	         1.16769e+59
          1118.86930	        -6.45919e+58
          1119.67560	         9.50322e+58
          1120.48190	         1.16748e+58
          1121.28820	        -1.22645e+59
          1122.09450	         3.27245e+56
          1122.90080	         1.01938e+59
          1123.70710	         1.13493e+59
          1124.51340	         1.02826e+59
          1125.31970	         8.03134e+58
          1126.12600	         1.54682e+58
          1126.93230	        -5.75580e+58
          1127.73860	        -3.75184e+58
          1128.54490	         2.20789e+58
          1129.35120	        -1.57852e+58
          1130.15750	         1.09893e+57
          1130.96380	        -5.42678e+58
          1131.77010	         3.34050e+58
          1132.57640	         3.43665e+58
          1133.38270	         6.72787e+58
          1134.18900	         2.03269e+58
          1134.99530	         9.36867e+57
          1135.80160	         2.19910e+58
          1136.60790	         2.11248e+58
          1137.41420	         8.93304e+57
          1138.22050	         5.19769e+58
          1139.02680	         4.09870e+58
          1139.83310	         2.47260e+58
          1140.63940	         1.76150e+58
          1141.44570	        -5.25244e+58
          1142.25200	        -3.31355e+58
          1143.05830	         1.16457e+58
          1143.86460	         4.16056e+58
          1144.67090	         1.42458e+58
          1145.47720	         9.17414e+57
          1146.28350	         1.31335e+58
          1147.08980	         1.20482e+58
          1147.89610	         2.24721e+58
          1148.70240	         3.05804e+58
          1149.50870	         2.89088e+58
          1150.31500	         1.75789e+58
          1151.12130	         5.15259e+57
          1151.92760	         1.04293e+58
          1152.73390	         1.66944e+58
          1153.54020	         6.17557e+57
          1154.34650	         2.33519e+58
          1155.15280	         2.71297e+58
          1155.95910	         7.91528e+57
          1156.76540	         8.17748e+57
          1157.57170	        -4.86228e+57
          1158.37800	         7.61804e+57
          1159.18430	         6.04102e+56
          1159.99060	         6.70654e+57
          1160.79690	        -2.14172e+56
          1161.60320	         5.61748e+57
          1162.40950	         1.58141e+58
          1163.21580	         1.71625e+58
          1164.02210	         1.97710e+58
          1164.82840	         2.11240e+58
          1165.63470	         2.44544e+58
          1166.44100	         3.05472e+58
          1167.24730	         1.91047e+58
          1168.05360	         3.79091e+57
          1168.85990	         6.64491e+57
          1169.66620	         1.12050e+58
          1170.47250	         1.38742e+58
          1171.27880	         1.08272e+58
          1172.08510	         1.94925e+58
          1172.89140	         1.59374e+58
          1173.69770	         6.24310e+57
          1174.50400	         9.05411e+57
          1175.31030	         1.19210e+58
          1176.11660	         1.63785e+58
          1176.92290	         1.24921e+58
          1177.72920	         1.45994e+58
          1178.53550	         1.05066e+58
          1179.34180	         1.23587e+57
          1180.14810	         6.33100e+56
          1180.95440	         9.54752e+57
          1181.76070	         9.06202e+57
          1182.56700	         5.19183e+57
          1183.37330	         3.86407e+57
          1184.17960	         1.25292e+58
          1184.98590	         1.87066e+58
          1185.79220	         1.54463e+58
          1186.59850	         1.43120e+58
          1187.40480	         1.28604e+58
          1188.21110	         1.45106e+58
          1189.01740	         5.22583e+57
          1189.82370	         4.49639e+57
          1190.63000	         1.11326e+58
          1191.43630	         1.50332e+58
          1192.24260	         1.22195e+58
          1193.04890	         1.25556e+58
          1193.85520	         9.92642e+57
          1194.66150	         7.20238e+57
          1195.46780	         1.32643e+58
          1196.27410	         1.58936e+58
          1197.08040	         7.00474e+57
          1197.88670	         1.29780e+58
          1198.69300	         1.85060e+58
          1199.49930	         1.72237e+58
          1200.30560	         9.68394e+57
          1201.11190	         9.63498e+57
          1201.91820	         8.07622e+57
          1202.72450	         6.46070e+57
          1203.53080	         1.58267e+58
          1204.33710	         6.03102e+57
          1205.14340	         4.35625e+57
          1205.94970	         4.66088e+57
          1206.75600	         8.12714e+57
          1207.56230	         9.52776e+57
          1208.36860	         1.02164e+58
          1209.17490	         3.50563e+57
          1209.98120	         6.78260e+57
          1210.78750	         9.23350e+57
          1211.59380	         1.51465e+58
          1212.40010	         1.99235e+58
          1213.20640	         1.86709e+58
          1214.01270	         1.96834e+58
          1214.81900	         2.75594e+58
          1215.62530	         4.36916e+58
          1216.43160	         8.72764e+58
          1217.23790	         1.51865e+59
          1218.04420	         1.09323e+59
          1218.85050	         8.18466e+58
          1219.65680	         5.60836e+58
          1220.46310	         3.33212e+58
          1221.26940	         2.14643e+58
          1222.07570	         9.76448e+57
          1222.88200	         1.26979e+58
          1223.68830	         1.26711e+58
          1224.49460	         8.12435e+57
          1225.30090	         5.34787e+57
          1226.10720	         6.20437e+57
          1226.91350	         6.25998e+57
          1227.71980	         8.82370e+57
          1228.52610	         1.09517e+58
          1229.33240	         1.33694e+58
          1230.13870	         1.36594e+58
          1230.94500	         1.25269e+58
          1231.75130	         6.09432e+57
          1232.55760	         8.14930e+57
          1233.36390	         8.64073e+57
          1234.17020	         8.99814e+57
          1234.97650	         8.41662e+57
          1235.78280	         6.72659e+57
          1236.58910	         7.72068e+57
          1237.39540	         9.15966e+57
          1238.20170	         7.27126e+57
          1239.00800	         1.12004e+58
          1239.81430	         1.58449e+58
          1240.62060	         1.31082e+58
          1241.42690	         1.22538e+58
          1242.23320	         1.33898e+58
          1243.03950	         8.18496e+57
          1243.84580	         7.12273e+57
          1244.65210	         8.84305e+57
          1245.45840	         7.43164e+57
          1246.26470	         6.84501e+57
          1247.07100	         6.92662e+57
          1247.87730	         5.14649e+57
          1248.68360	         2.62786e+57
          1249.48990	         6.98318e+57
          1250.29620	         1.14116e+58
          1251.10250	         1.11818e+58
          1251.90880	         7.51378e+57
          1252.71510	         7.11657e+57
          1253.52140	         9.82124e+57
          1254.32770	         1.07194e+58
          1255.13400	         1.24257e+58
          1255.94030	         1.02324e+58
          1256.74660	         7.48406e+57
          1257.55290	         9.09739e+57
          1258.35920	         7.64690e+57
          1259.16550	         5.57247e+57
          1259.97180	         5.95250e+57
          1260.77810	         7.91718e+57
          1261.58440	         1.23230e+58
          1262.39070	         1.02438e+58
          1263.19700	         1.08362e+58
          1264.00330	         1.04112e+58
          1264.80960	         1.13973e+58
          1265.61590	         1.23875e+58
          1266.42220	         1.15704e+58
          1267.22850	         1.03794e+58
          1268.03480	         1.47043e+58
          1268.84110	         1.53860e+58
          1269.64740	         1.12093e+58
          1270.45370	         1.30641e+58
          1271.26000	         1.24256e+58
          1272.06630	         1.23878e+58
          1272.87260	         1.42670e+58
          1273.67890	         1.36246e+58
          1274.48520	         1.33617e+58
          1275.29150	         1.27767e+58
          1276.09780	         1.03302e+58
          1276.90410	         1.32301e+58
          1277.71040	         1.23580e+58
          1278.51670	         1.11275e+58
          1279.32300	         1.17021e+58
          1280.12930	         1.21677e+58
          1280.93560	         1.24491e+58
          1281.74190	         1.23817e+58
          1282.54820	         1.28496e+58
          1283.35450	         1.13158e+58
          1284.16080	         8.31902e+57
          1284.96710	         1.01659e+58
          1285.77340	         9.35505e+57
          1286.57970	         9.48682e+57
          1287.38600	         1.63687e+58
          1288.19230	         1.92225e+58
          1288.99860	         1.57043e+58
          1289.80490	         1.07905e+58
          1290.61120	         1.21331e+58
          1291.41750	         1.47845e+58
          1292.22380	         1.19621e+58
          1293.03010	         1.16083e+58
          1293.83640	         1.45506e+58
          1294.64270	         1.30613e+58
          1295.44900	         6.31999e+57
          1296.25530	         6.67365e+57
          1297.06160	         1.07608e+58
          1297.86790	         1.13527e+58
          1298.67420	         8.56549e+57
          1299.48050	         7.34874e+57
          1300.28680	         7.65355e+57
          1301.09310	         5.75687e+57
          1301.89940	         4.53442e+57
          1302.70570	         4.08245e+57
          1303.51200	         7.84415e+57
          1304.31830	         1.09929e+58
          1305.12460	         1.21906e+58
          1305.93090	         1.14809e+58
          1306.73720	         1.15311e+58
          1307.54350	         1.29669e+58
          1308.34980	         1.40800e+58
          1309.15610	         1.66360e+58
          1309.96240	         1.84471e+58
          1310.76870	         1.66780e+58
          1311.57500	         1.32396e+58
          1312.38130	         1.19016e+58
          1313.18760	         1.27818e+58
          1313.99390	         1.57782e+58
          1314.80020	         1.68330e+58
          1315.60650	         1.39370e+58
          1316.41280	         1.23028e+58
          1317.21910	         1.15219e+58
          1318.02540	         1.26963e+58
          1318.83170	         1.33286e+58
          1319.63800	         1.06216e+58
          1320.44430	         1.04068e+58
          1321.25060	         1.31205e+58
          1322.05690	         1.28976e+58
          1322.86320	         1.25147e+58
          1323.66950	         1.11331e+58
          1324.47580	         9.67152e+57
          1325.28210	         1.10298e+58
          1326.08840	         1.31945e+58
          1326.89470	         1.36096e+58
          1327.70100	         9.94514e+57
          1328.50730	         7.78691e+57
          1329.31360	         9.12191e+57
          1330.11990	         1.02173e+58
          1330.92620	         1.05516e+58
          1331.73250	         1.16982e+58
          1332.53880	         1.27440e+58
          1333.34510	         1.02980e+58
          1334.15140	         9.68155e+57
          1334.95770	         9.79369e+57
          1335.76400	         1.14246e+58
          1336.57030	         1.13197e+58
          1337.37660	         1.01316e+58
          1338.18290	         9.76175e+57
          1338.98920	         1.22769e+58
          1339.79550	         1.24298e+58
          1340.60180	         1.17829e+58
          1341.40810	         1.34947e+58
          1342.21440	         1.27125e+58
          1343.02070	         1.22912e+58
          1343.82700	         1.19236e+58
          1344.63330	         1.17661e+58
          1345.43960	         1.14782e+58
          1346.24590	         1.08332e+58
          1347.05220	         1.30311e+58
          1347.85850	         1.18870e+58
          1348.66480	         1.23131e+58
          1349.47110	         1.25812e+58
          1350.27740	         1.16687e+58
          1351.08370	         1.17287e+58
          1351.89000	         1.18750e+58
          1352.69630	         1.18595e+58
          1353.50260	         1.11014e+58
          1354.30890	         1.07857e+58
          1355.11520	         1.07327e+58
          1355.92150	         1.04298e+58
          1356.72780	         1.07949e+58
          1357.53410	         1.04129e+58
          1358.34040	         1.00811e+58
          1359.14670	         9.97379e+57
          1359.95300	         1.04050e+58
          1360.75930	         1.05854e+58
          1361.56560	         1.00501e+58
          1362.37190	         1.05004e+58
          1363.17820	         1.13334e+58
          1363.98450	         1.13255e+58
          1364.79080	         1.24379e+58
          1365.59710	         1.38091e+58
          1366.40340	         1.27980e+58
          1367.20970	         1.05462e+58
          1368.01600	         8.82487e+57
          1368.82230	         7.94285e+57
          1369.62860	         9.53150e+57
          1370.43490	         9.63619e+57
          1371.24120	         1.00889e+58
          1372.04750	         1.02805e+58
          1372.85380	         1.19301e+58
          1373.66010	         1.10305e+58
          1374.46640	         1.14296e+58
          1375.27270	         1.20640e+58
          1376.07900	         9.53127e+57
          1376.88530	         9.02750e+57
          1377.69160	         9.15869e+57
          1378.49790	         7.33994e+57
          1379.30420	         7.83054e+57
          1380.11050	         1.01335e+58
          1380.91680	         1.02643e+58
          1381.72310	         8.57391e+57
          1382.52940	         8.80998e+57
          1383.33570	         8.63897e+57
          1384.14200	         9.58640e+57
          1384.94830	         9.92984e+57
          1385.75460	         1.06566e+58
          1386.56090	         1.24112e+58
          1387.36720	         1.06918e+58
          1388.17350	         1.18591e+58
          1388.97980	         1.24019e+58
          1389.78610	         1.04718e+58
          1390.59240	         8.88273e+57
          1391.39870	         7.50798e+57
          1392.20500	         7.96869e+57
          1393.01130	         8.21022e+57
          1393.81760	         6.58192e+57
          1394.62390	         7.35464e+57
          1395.43020	         6.54633e+57
          1396.23650	         6.22792e+57
          1397.04280	         6.56115e+57
          1397.84910	         9.47290e+57
          1398.65540	         9.06652e+57
          1399.46170	         8.93105e+57
          1400.26800	         7.92619e+57
          1401.07430	         6.14136e+57
          1401.88060	         6.32110e+57
          1402.68690	         7.97783e+57
          1403.49320	         9.18624e+57
          1404.29950	         9.62859e+57
          1405.10580	         1.03218e+58
          1405.91210	         1.15864e+58
          1406.71840	         1.21812e+58
          1407.52470	         1.09807e+58
          1408.33100	         1.02527e+58
          1409.13730	         1.18029e+58
          1409.94360	         1.15702e+58
          1410.74990	         1.20120e+58
          1411.55620	         1.02870e+58
          1412.36250	         9.41197e+57
          1413.16880	         8.97503e+57
          1413.97510	         9.14478e+57
          1414.78140	         1.00514e+58
          1415.58770	         1.21254e+58
          1416.39400	         1.39082e+58
          1417.20030	         9.71664e+57
          1418.00660	         7.09142e+57
          1418.81290	         9.91555e+57
          1419.61920	         1.11345e+58
          1420.42550	         1.26689e+58
          1421.23180	         1.35901e+58
          1422.03810	         1.11812e+58
          1422.84440	         1.09133e+58
          1423.65070	         1.35711e+58
          1424.45700	         1.23966e+58
          1425.26330	         9.95972e+57
          1426.06960	         8.88888e+57
          1426.87590	         1.01353e+58
          1427.68220	         9.47335e+57
          1428.48850	         1.10270e+58
          1429.29480	         1.17772e+58
          1430.10110	         9.86613e+57
          1430.90740	         8.01861e+57
          1431.71370	         8.36360e+57
          1432.52000	         8.90427e+57
          1433.32630	         7.85864e+57
          1434.13260	         8.09663e+57
          1434.93890	         8.40882e+57
          1435.74520	         8.21615e+57
          1436.55150	         8.89861e+57
          1437.35780	         9.12236e+57
          1438.16410	         9.34213e+57
          1438.97040	         8.15674e+57
          1439.77670	         8.22874e+57
          1440.58300	         9.41776e+57
          1441.38930	         9.96561e+57
          1442.19560	         1.05825e+58
          1443.00190	         1.00432e+58
          1443.80820	         1.04330e+58
          1444.61450	         9.73899e+57
          1445.42080	         8.41043e+57
          1446.22710	         1.06397e+58
          1447.03340	         1.09508e+58
          1447.83970	         1.02377e+58
          1448.64600	         1.04177e+58
          1449.45230	         9.34720e+57
          1450.25860	         8.79568e+57
          1451.06490	         8.47927e+57
          1451.87120	         6.95345e+57
          1452.67750	         7.18932e+57
          1453.48380	         8.29535e+57
          1454.29010	         8.10029e+57
          1455.09640	         7.66978e+57
          1455.90270	         8.97738e+57
          1456.70900	         9.12562e+57
          1457.51530	         9.75886e+57
          1458.32160	         1.21844e+58
          1459.12790	         1.22053e+58
          1459.93420	         1.08933e+58
          1460.74050	         7.97763e+57
          1461.54680	         8.80275e+57
          1462.35310	         8.17632e+57
          1463.15940	         9.29008e+57
          1463.96570	         1.08126e+58
          1464.77200	         1.21980e+58
          1465.57830	         1.10084e+58
          1466.38460	         9.02189e+57
          1467.19090	         7.54572e+57
          1467.99720	         8.01762e+57
          1468.80350	         9.14815e+57
          1469.60980	         1.07154e+58
          1470.41610	         1.15216e+58
          1471.22240	         9.41801e+57
          1472.02870	         9.14561e+57
          1472.83500	         9.97787e+57
          1473.64130	         9.89891e+57
          1474.44760	         1.08600e+58
          1475.25390	         1.00008e+58
          1476.06020	         8.94855e+57
          1476.86650	         7.44367e+57
          1477.67280	         7.94066e+57
          1478.47910	         8.66869e+57
          1479.28540	         7.18489e+57
          1480.09170	         8.03932e+57
          1480.89800	         8.50934e+57
          1481.70430	         7.62981e+57
          1482.51060	         6.76095e+57
          1483.31690	         6.51917e+57
          1484.12320	         7.32821e+57
          1484.92950	         7.36492e+57
          1485.73580	         8.15099e+57
          1486.54210	         8.41047e+57
          1487.34840	         8.69100e+57
          1488.15470	         8.02584e+57
          1488.96100	         8.23803e+57
          1489.76730	         9.26246e+57
