#sample_36_stacked_spectrum_rest_UV-bands_median_H-alpha_noDC.txt
#median Lum: 1.70017e+42
#Rest-frame wavelength (A) | Luminosity (erg/s/A)
#
          1110.00000	         0.00000e+00
          1110.80630	         2.77707e+59
          1111.61260	         2.52777e+59
          1112.41890	         2.25525e+59
          1113.22520	         1.11900e+59
          1114.03150	        -2.23677e+58
          1114.83780	        -4.67167e+58
          1115.64410	        -2.21450e+58
          1116.45040	         3.08393e+59
          1117.25670	         9.12795e+58
          1118.06300	         1.82764e+58
          1118.86930	        -6.17051e+58
          1119.67560	         1.40858e+59
          1120.48190	        -9.79897e+58
          1121.28820	        -1.64914e+59
          1122.09450	        -1.04388e+58
          1122.90080	         4.00040e+58
          1123.70710	         8.27352e+58
          1124.51340	         5.92494e+58
          1125.31970	         2.17469e+58
          1126.12600	        -5.26913e+57
          1126.93230	        -5.07894e+58
          1127.73860	        -1.24438e+59
          1128.54490	         1.03630e+58
          1129.35120	         1.39328e+58
          1130.15750	        -7.43605e+58
          1130.96380	        -3.32635e+58
          1131.77010	         6.25507e+58
          1132.57640	         5.68359e+58
          1133.38270	        -7.25642e+57
          1134.18900	        -6.98064e+57
          1134.99530	         5.05039e+58
          1135.80160	         3.94074e+58
          1136.60790	         5.42484e+57
          1137.41420	        -1.21075e+58
          1138.22050	         3.69530e+58
          1139.02680	         3.11990e+58
          1139.83310	         1.15732e+58
          1140.63940	        -2.76888e+57
          1141.44570	        -1.46112e+58
          1142.25200	        -7.89282e+57
          1143.05830	        -5.10100e+57
          1143.86460	         1.11176e+58
          1144.67090	         4.13010e+58
          1145.47720	         2.05519e+58
          1146.28350	         1.48853e+58
          1147.08980	         8.70640e+57
          1147.89610	         1.80334e+58
          1148.70240	         1.87585e+58
          1149.50870	         1.73539e+58
          1150.31500	         2.51291e+58
          1151.12130	         1.34669e+58
          1151.92760	        -3.49920e+57
          1152.73390	        -5.69755e+57
          1153.54020	        -4.99384e+57
          1154.34650	         1.64688e+58
          1155.15280	         2.25239e+58
          1155.95910	         5.85955e+57
          1156.76540	         1.51259e+58
          1157.57170	         1.31261e+58
          1158.37800	         2.89372e+57
          1159.18430	         2.09505e+56
          1159.99060	         3.07142e+57
          1160.79690	         1.47817e+57
          1161.60320	         1.24306e+58
          1162.40950	         5.91070e+57
          1163.21580	         6.46536e+57
          1164.02210	         1.01339e+58
          1164.82840	         1.64243e+57
          1165.63470	         2.11031e+58
          1166.44100	         2.90952e+58
          1167.24730	         1.89864e+58
          1168.05360	         1.72203e+58
          1168.85990	         4.61451e+57
          1169.66620	         8.88132e+57
          1170.47250	         8.57502e+57
          1171.27880	         1.38600e+58
          1172.08510	         2.11104e+58
          1172.89140	         1.74905e+58
          1173.69770	         9.77400e+57
          1174.50400	         1.25307e+58
          1175.31030	         1.36517e+58
          1176.11660	         1.81204e+58
          1176.92290	         1.24524e+58
          1177.72920	         1.41095e+58
          1178.53550	         1.23601e+58
          1179.34180	         1.03175e+58
          1180.14810	         1.28572e+58
          1180.95440	         1.84802e+58
          1181.76070	         1.18347e+58
          1182.56700	         5.00547e+57
          1183.37330	         4.68524e+57
          1184.17960	         1.18223e+58
          1184.98590	         8.73678e+57
          1185.79220	         1.31149e+58
          1186.59850	         1.74632e+58
          1187.40480	         2.06038e+58
          1188.21110	         1.76644e+58
          1189.01740	         1.22748e+58
          1189.82370	         1.08478e+58
          1190.63000	         1.11279e+58
          1191.43630	         1.26654e+58
          1192.24260	         5.74016e+57
          1193.04890	         6.98971e+57
          1193.85520	         7.94529e+57
          1194.66150	         4.23602e+57
          1195.46780	         8.31534e+57
          1196.27410	         1.67001e+58
          1197.08040	         1.20733e+58
          1197.88670	         1.28942e+58
          1198.69300	         1.51352e+58
          1199.49930	         1.60648e+58
          1200.30560	         9.70648e+57
          1201.11190	         5.77707e+57
          1201.91820	         6.90812e+57
          1202.72450	         8.51525e+57
          1203.53080	         1.39162e+58
          1204.33710	         9.54903e+57
          1205.14340	         1.03812e+58
          1205.94970	         7.42679e+57
          1206.75600	         5.34627e+57
          1207.56230	         6.02430e+57
          1208.36860	         9.11061e+57
          1209.17490	         5.32378e+57
          1209.98120	         8.71152e+57
          1210.78750	         1.14281e+58
          1211.59380	         1.03087e+58
          1212.40010	         1.44577e+58
          1213.20640	         2.03202e+58
          1214.01270	         1.93459e+58
          1214.81900	         2.48772e+58
          1215.62530	         4.38425e+58
          1216.43160	         8.91018e+58
          1217.23790	         1.51878e+59
          1218.04420	         1.13238e+59
          1218.85050	         8.79829e+58
          1219.65680	         5.79742e+58
          1220.46310	         3.13671e+58
          1221.26940	         2.27395e+58
          1222.07570	         1.69211e+58
          1222.88200	         1.27073e+58
          1223.68830	         7.75253e+57
          1224.49460	         6.50704e+57
          1225.30090	         8.06834e+57
          1226.10720	         8.81904e+57
          1226.91350	         8.57759e+57
          1227.71980	         1.01939e+58
          1228.52610	         1.31843e+58
          1229.33240	         6.26929e+57
          1230.13870	         7.94123e+57
          1230.94500	         8.18138e+57
          1231.75130	         8.18541e+57
          1232.55760	         8.09845e+57
          1233.36390	         8.22132e+57
          1234.17020	         9.50054e+57
          1234.97650	         7.27130e+57
          1235.78280	         7.45023e+57
          1236.58910	         1.01551e+58
          1237.39540	         1.09089e+58
          1238.20170	         9.85498e+57
          1239.00800	         1.01988e+58
          1239.81430	         1.38138e+58
          1240.62060	         1.01271e+58
          1241.42690	         8.00052e+57
          1242.23320	         1.17879e+58
          1243.03950	         7.16238e+57
          1243.84580	         8.50130e+57
          1244.65210	         1.01713e+58
          1245.45840	         8.03468e+57
          1246.26470	         8.25473e+57
          1247.07100	         8.39110e+57
          1247.87730	         7.13717e+57
          1248.68360	         2.66791e+57
          1249.48990	         8.99755e+57
          1250.29620	         8.75927e+57
          1251.10250	         8.47102e+57
          1251.90880	         7.18303e+57
          1252.71510	         8.57544e+57
          1253.52140	         8.61344e+57
          1254.32770	         8.72081e+57
          1255.13400	         1.52267e+58
          1255.94030	         1.43770e+58
          1256.74660	         1.08104e+58
          1257.55290	         1.03477e+58
          1258.35920	         6.93834e+57
          1259.16550	         4.37815e+57
          1259.97180	         3.72624e+57
          1260.77810	         7.61725e+57
          1261.58440	         8.63096e+57
          1262.39070	         7.46521e+57
          1263.19700	         9.08156e+57
          1264.00330	         1.00538e+58
          1264.80960	         1.32505e+58
          1265.61590	         1.28114e+58
          1266.42220	         1.05635e+58
          1267.22850	         1.12603e+58
          1268.03480	         1.48091e+58
          1268.84110	         1.39631e+58
          1269.64740	         1.04406e+58
          1270.45370	         1.18382e+58
          1271.26000	         1.35159e+58
          1272.06630	         1.40502e+58
          1272.87260	         1.30401e+58
          1273.67890	         1.26671e+58
          1274.48520	         1.36784e+58
          1275.29150	         1.49212e+58
          1276.09780	         1.24766e+58
          1276.90410	         1.39295e+58
          1277.71040	         1.39505e+58
          1278.51670	         1.31043e+58
          1279.32300	         1.51579e+58
          1280.12930	         1.30960e+58
          1280.93560	         1.24943e+58
          1281.74190	         1.38227e+58
          1282.54820	         1.20626e+58
          1283.35450	         9.32514e+57
          1284.16080	         1.43707e+58
          1284.96710	         1.72670e+58
          1285.77340	         1.18365e+58
          1286.57970	         9.31010e+57
          1287.38600	         1.25486e+58
          1288.19230	         1.80528e+58
          1288.99860	         1.60314e+58
          1289.80490	         1.32809e+58
          1290.61120	         1.36682e+58
          1291.41750	         1.44508e+58
          1292.22380	         1.25438e+58
          1293.03010	         1.01669e+58
          1293.83640	         1.17677e+58
          1294.64270	         1.05870e+58
          1295.44900	         6.56540e+57
          1296.25530	         6.29937e+57
          1297.06160	         9.26524e+57
          1297.86790	         1.05158e+58
          1298.67420	         1.07715e+58
          1299.48050	         1.12931e+58
          1300.28680	         1.07056e+58
          1301.09310	         9.01581e+57
          1301.89940	         3.74997e+57
          1302.70570	         5.60696e+57
          1303.51200	         8.55025e+57
          1304.31830	         9.49092e+57
          1305.12460	         1.02391e+58
          1305.93090	         9.66924e+57
          1306.73720	         1.10849e+58
          1307.54350	         1.45183e+58
          1308.34980	         1.52938e+58
          1309.15610	         1.51754e+58
          1309.96240	         1.48186e+58
          1310.76870	         1.21232e+58
          1311.57500	         8.79446e+57
          1312.38130	         9.66098e+57
          1313.18760	         1.56082e+58
          1313.99390	         1.70862e+58
          1314.80020	         1.70100e+58
          1315.60650	         1.55920e+58
          1316.41280	         1.29980e+58
          1317.21910	         8.79393e+57
          1318.02540	         1.03608e+58
          1318.83170	         1.22629e+58
          1319.63800	         1.12967e+58
          1320.44430	         1.09397e+58
          1321.25060	         1.08268e+58
          1322.05690	         1.11492e+58
          1322.86320	         1.18671e+58
          1323.66950	         1.08490e+58
          1324.47580	         9.14104e+57
          1325.28210	         1.01630e+58
          1326.08840	         1.20555e+58
          1326.89470	         1.37183e+58
          1327.70100	         1.01677e+58
          1328.50730	         7.13106e+57
          1329.31360	         9.13171e+57
          1330.11990	         1.01688e+58
          1330.92620	         1.01110e+58
          1331.73250	         1.10659e+58
          1332.53880	         9.79002e+57
          1333.34510	         1.00100e+58
          1334.15140	         1.07988e+58
          1334.95770	         1.04908e+58
          1335.76400	         1.10946e+58
          1336.57030	         1.09482e+58
          1337.37660	         1.03547e+58
          1338.18290	         1.20291e+58
          1338.98920	         1.24297e+58
          1339.79550	         1.15833e+58
          1340.60180	         1.19110e+58
          1341.40810	         1.38215e+58
          1342.21440	         1.34735e+58
          1343.02070	         1.20581e+58
          1343.82700	         1.36422e+58
          1344.63330	         1.36385e+58
          1345.43960	         1.34487e+58
          1346.24590	         1.15893e+58
          1347.05220	         1.17950e+58
          1347.85850	         1.11252e+58
          1348.66480	         1.25036e+58
          1349.47110	         1.27105e+58
          1350.27740	         1.10208e+58
          1351.08370	         1.16915e+58
          1351.89000	         1.24749e+58
          1352.69630	         1.18156e+58
          1353.50260	         1.26438e+58
          1354.30890	         1.25154e+58
          1355.11520	         1.20159e+58
          1355.92150	         1.09027e+58
          1356.72780	         1.09324e+58
          1357.53410	         1.08737e+58
          1358.34040	         1.04206e+58
          1359.14670	         9.94674e+57
          1359.95300	         1.03409e+58
          1360.75930	         1.16105e+58
          1361.56560	         9.85622e+57
          1362.37190	         1.10621e+58
          1363.17820	         1.29217e+58
          1363.98450	         1.33912e+58
          1364.79080	         1.35966e+58
          1365.59710	         1.30682e+58
          1366.40340	         1.20618e+58
          1367.20970	         1.11552e+58
          1368.01600	         1.02616e+58
          1368.82230	         8.79113e+57
          1369.62860	         9.85230e+57
          1370.43490	         1.01664e+58
          1371.24120	         9.43536e+57
          1372.04750	         8.34407e+57
          1372.85380	         1.14383e+58
          1373.66010	         1.19096e+58
          1374.46640	         1.12215e+58
          1375.27270	         1.15110e+58
          1376.07900	         9.87271e+57
          1376.88530	         8.73210e+57
          1377.69160	         8.19085e+57
          1378.49790	         7.23059e+57
          1379.30420	         8.99076e+57
          1380.11050	         1.05339e+58
          1380.91680	         9.24632e+57
          1381.72310	         8.84516e+57
          1382.52940	         1.04045e+58
          1383.33570	         1.00328e+58
          1384.14200	         9.75737e+57
          1384.94830	         9.64200e+57
          1385.75460	         9.56164e+57
          1386.56090	         9.60198e+57
          1387.36720	         1.07444e+58
          1388.17350	         1.31360e+58
          1388.97980	         1.28506e+58
          1389.78610	         1.11304e+58
          1390.59240	         7.27361e+57
          1391.39870	         6.65412e+57
          1392.20500	         7.58849e+57
          1393.01130	         7.21812e+57
          1393.81760	         7.61938e+57
          1394.62390	         6.61564e+57
          1395.43020	         5.75813e+57
          1396.23650	         7.08505e+57
          1397.04280	         7.77293e+57
          1397.84910	         8.84591e+57
          1398.65540	         8.64612e+57
          1399.46170	         9.42082e+57
          1400.26800	         8.64697e+57
          1401.07430	         7.35719e+57
          1401.88060	         8.63302e+57
          1402.68690	         9.30874e+57
          1403.49320	         9.28200e+57
          1404.29950	         9.03147e+57
          1405.10580	         1.01179e+58
          1405.91210	         1.14863e+58
          1406.71840	         1.13904e+58
          1407.52470	         1.08060e+58
          1408.33100	         1.04304e+58
          1409.13730	         1.17575e+58
          1409.94360	         1.26788e+58
          1410.74990	         1.20911e+58
          1411.55620	         1.01729e+58
          1412.36250	         9.41493e+57
          1413.16880	         9.57419e+57
          1413.97510	         8.65345e+57
          1414.78140	         7.74814e+57
          1415.58770	         1.01251e+58
          1416.39400	         1.15803e+58
          1417.20030	         9.64527e+57
          1418.00660	         9.08969e+57
          1418.81290	         1.11169e+58
          1419.61920	         1.26671e+58
          1420.42550	         1.38247e+58
          1421.23180	         1.46875e+58
          1422.03810	         1.25846e+58
          1422.84440	         1.23776e+58
          1423.65070	         1.34751e+58
          1424.45700	         1.24157e+58
          1425.26330	         9.73274e+57
          1426.06960	         8.09052e+57
          1426.87590	         8.75533e+57
          1427.68220	         9.82204e+57
          1428.48850	         1.15799e+58
          1429.29480	         1.20453e+58
          1430.10110	         1.12372e+58
          1430.90740	         8.60217e+57
          1431.71370	         9.09871e+57
          1432.52000	         9.11817e+57
          1433.32630	         7.68849e+57
          1434.13260	         9.32858e+57
          1434.93890	         9.26832e+57
          1435.74520	         9.63822e+57
          1436.55150	         9.30603e+57
          1437.35780	         8.75303e+57
          1438.16410	         9.67992e+57
          1438.97040	         9.83658e+57
          1439.77670	         8.94766e+57
          1440.58300	         8.61818e+57
          1441.38930	         9.22952e+57
          1442.19560	         1.00667e+58
          1443.00190	         9.87168e+57
          1443.80820	         1.03481e+58
          1444.61450	         9.40935e+57
          1445.42080	         8.18257e+57
          1446.22710	         9.89338e+57
          1447.03340	         1.06027e+58
          1447.83970	         1.05704e+58
          1448.64600	         1.09233e+58
          1449.45230	         1.01724e+58
          1450.25860	         9.84474e+57
          1451.06490	         7.88582e+57
          1451.87120	         6.38950e+57
          1452.67750	         7.57708e+57
          1453.48380	         9.13662e+57
          1454.29010	         7.80752e+57
          1455.09640	         7.17661e+57
          1455.90270	         8.52207e+57
          1456.70900	         8.12811e+57
          1457.51530	         8.61142e+57
          1458.32160	         1.12977e+58
          1459.12790	         1.31405e+58
          1459.93420	         1.06562e+58
          1460.74050	         7.49783e+57
          1461.54680	         7.68125e+57
          1462.35310	         8.30088e+57
          1463.15940	         1.04816e+58
          1463.96570	         1.15596e+58
          1464.77200	         1.07644e+58
          1465.57830	         1.02436e+58
          1466.38460	         9.18127e+57
          1467.19090	         8.37102e+57
          1467.99720	         8.43059e+57
          1468.80350	         8.81272e+57
          1469.60980	         9.39850e+57
          1470.41610	         1.00862e+58
          1471.22240	         9.10590e+57
          1472.02870	         8.71166e+57
          1472.83500	         9.62653e+57
          1473.64130	         1.01234e+58
          1474.44760	         9.57782e+57
          1475.25390	         9.11822e+57
          1476.06020	         8.84830e+57
          1476.86650	         8.89749e+57
          1477.67280	         8.43766e+57
          1478.47910	         7.32971e+57
          1479.28540	         7.22580e+57
          1480.09170	         8.06501e+57
          1480.89800	         8.35341e+57
          1481.70430	         8.23680e+57
          1482.51060	         8.33696e+57
          1483.31690	         8.13578e+57
          1484.12320	         7.74734e+57
          1484.92950	         7.83379e+57
          1485.73580	         8.60921e+57
          1486.54210	         9.37099e+57
          1487.34840	         8.58520e+57
          1488.15470	         8.56603e+57
          1488.96100	         9.33340e+57
          1489.76730	         1.03087e+58
