#sample_219_stacked_spectrum_rest_UV-bands_median_H-alpha_noDC.txt
#median Lum: 1.69989e+42
#Rest-frame wavelength (A) | Luminosity (erg/s/A)
#
          1110.00000	         0.00000e+00
          1110.80630	         4.13914e+59
          1111.61260	         7.39790e+58
          1112.41890	         9.73974e+58
          1113.22520	         1.44595e+59
          1114.03150	         2.36606e+59
          1114.83780	         9.99816e+57
          1115.64410	         9.75835e+58
          1116.45040	        -3.87450e+58
          1117.25670	         1.05966e+59
          1118.06300	         8.47995e+58
          1118.86930	        -2.94439e+58
          1119.67560	         7.33836e+58
          1120.48190	         2.10186e+58
          1121.28820	        -1.01725e+59
          1122.09450	        -1.50214e+58
          1122.90080	         4.24361e+58
          1123.70710	         1.43863e+59
          1124.51340	         8.57403e+58
          1125.31970	        -6.54044e+58
          1126.12600	         2.01013e+58
          1126.93230	        -6.45624e+58
          1127.73860	        -7.98712e+58
          1128.54490	         1.51720e+58
          1129.35120	         3.27238e+58
          1130.15750	         1.39024e+58
          1130.96380	        -1.08636e+58
          1131.77010	         2.69772e+58
          1132.57640	         5.78121e+58
          1133.38270	         3.82009e+58
          1134.18900	         2.20331e+58
          1134.99530	        -3.24763e+57
          1135.80160	         2.23007e+58
          1136.60790	         3.49718e+58
          1137.41420	         9.58347e+57
          1138.22050	         3.03948e+58
          1139.02680	         2.88388e+58
          1139.83310	         1.57683e+58
          1140.63940	         2.36127e+58
          1141.44570	        -6.84386e+57
          1142.25200	         1.85530e+57
          1143.05830	         3.37695e+58
          1143.86460	         1.69992e+58
          1144.67090	         1.35238e+58
          1145.47720	         5.03804e+57
          1146.28350	         9.03286e+57
          1147.08980	         6.39485e+57
          1147.89610	         2.22672e+58
          1148.70240	         1.82396e+58
          1149.50870	         2.51496e+58
          1150.31500	         8.56776e+57
          1151.12130	         4.68909e+56
          1151.92760	         2.94013e+57
          1152.73390	         1.49469e+58
          1153.54020	         1.12880e+58
          1154.34650	         2.18742e+58
          1155.15280	         2.26786e+58
          1155.95910	         5.09662e+57
          1156.76540	         5.61057e+57
          1157.57170	         5.46481e+57
          1158.37800	         4.77834e+57
          1159.18430	         1.40943e+57
          1159.99060	        -1.46058e+57
          1160.79690	         6.48806e+57
          1161.60320	         1.75193e+58
          1162.40950	         2.29940e+58
          1163.21580	         1.07782e+58
          1164.02210	         8.89974e+57
          1164.82840	         1.73608e+58
          1165.63470	         1.94976e+58
          1166.44100	         3.03980e+58
          1167.24730	         2.79838e+58
          1168.05360	         1.41619e+58
          1168.85990	         7.61085e+57
          1169.66620	         6.03398e+57
          1170.47250	         1.03848e+58
          1171.27880	         1.07755e+58
          1172.08510	         4.47719e+57
          1172.89140	         5.52374e+57
          1173.69770	         2.20544e+57
          1174.50400	         1.00078e+58
          1175.31030	         1.91303e+58
          1176.11660	         1.26722e+58
          1176.92290	         1.13742e+58
          1177.72920	         1.22831e+58
          1178.53550	         4.88297e+57
          1179.34180	        -1.72384e+57
          1180.14810	         6.86579e+57
          1180.95440	         1.07037e+58
          1181.76070	         5.92063e+57
          1182.56700	         7.09605e+57
          1183.37330	         6.78074e+57
          1184.17960	         1.18498e+58
          1184.98590	         1.15691e+58
          1185.79220	         5.28121e+57
          1186.59850	         7.25598e+57
          1187.40480	         1.22738e+58
          1188.21110	         1.71854e+58
          1189.01740	         1.41211e+58
          1189.82370	         5.95981e+57
          1190.63000	         9.79528e+57
          1191.43630	         1.42424e+58
          1192.24260	         1.06700e+58
          1193.04890	         9.71811e+57
          1193.85520	         9.24891e+57
          1194.66150	         8.48389e+57
          1195.46780	         1.07667e+58
          1196.27410	         1.33220e+58
          1197.08040	         7.53678e+57
          1197.88670	         1.50992e+58
          1198.69300	         1.95188e+58
          1199.49930	         1.83089e+58
          1200.30560	         1.25447e+58
          1201.11190	         1.30757e+58
          1201.91820	         1.06711e+58
          1202.72450	         9.36788e+57
          1203.53080	         1.45198e+58
          1204.33710	         1.00699e+58
          1205.14340	         6.35473e+57
          1205.94970	         9.02346e+57
          1206.75600	         8.58400e+57
          1207.56230	         3.82258e+57
          1208.36860	         5.51471e+57
          1209.17490	         3.19639e+57
          1209.98120	         6.06341e+57
          1210.78750	         3.79374e+57
          1211.59380	         1.18238e+58
          1212.40010	         1.88038e+58
          1213.20640	         2.15116e+58
          1214.01270	         2.09423e+58
          1214.81900	         2.44045e+58
          1215.62530	         4.41805e+58
          1216.43160	         8.98590e+58
          1217.23790	         1.48082e+59
          1218.04420	         1.15131e+59
          1218.85050	         8.83424e+58
          1219.65680	         6.03827e+58
          1220.46310	         3.50216e+58
          1221.26940	         2.34611e+58
          1222.07570	         1.28956e+58
          1222.88200	         1.05302e+58
          1223.68830	         8.74252e+57
          1224.49460	         6.68666e+57
          1225.30090	         5.37323e+57
          1226.10720	         5.53085e+57
          1226.91350	         5.00946e+57
          1227.71980	         7.34404e+57
          1228.52610	         1.34315e+58
          1229.33240	         9.79435e+57
          1230.13870	         8.53465e+57
          1230.94500	         8.65357e+57
          1231.75130	         7.92955e+57
          1232.55760	         6.92889e+57
          1233.36390	         8.17899e+57
          1234.17020	         8.18016e+57
          1234.97650	         7.44222e+57
          1235.78280	         7.54965e+57
          1236.58910	         7.61840e+57
          1237.39540	         1.10172e+58
          1238.20170	         1.35264e+58
          1239.00800	         1.39904e+58
          1239.81430	         1.40551e+58
          1240.62060	         1.03073e+58
          1241.42690	         1.13001e+58
          1242.23320	         1.33764e+58
          1243.03950	         1.00291e+58
          1243.84580	         9.52931e+57
          1244.65210	         1.03940e+58
          1245.45840	         1.10913e+58
          1246.26470	         1.10152e+58
          1247.07100	         7.16738e+57
          1247.87730	         6.35618e+57
          1248.68360	         4.03313e+57
          1249.48990	         1.10646e+58
          1250.29620	         1.43946e+58
          1251.10250	         1.05459e+58
          1251.90880	         7.72199e+57
          1252.71510	         6.79844e+57
          1253.52140	         5.89659e+57
          1254.32770	         1.02764e+58
          1255.13400	         1.27242e+58
          1255.94030	         9.61867e+57
          1256.74660	         8.21870e+57
          1257.55290	         9.94922e+57
          1258.35920	         8.66242e+57
          1259.16550	         6.86061e+57
          1259.97180	         4.33704e+57
          1260.77810	         6.22595e+57
          1261.58440	         1.20195e+58
          1262.39070	         1.20282e+58
          1263.19700	         1.02545e+58
          1264.00330	         1.04570e+58
          1264.80960	         1.13087e+58
          1265.61590	         1.04410e+58
          1266.42220	         1.06000e+58
          1267.22850	         1.05358e+58
          1268.03480	         1.40285e+58
          1268.84110	         1.62375e+58
          1269.64740	         1.50940e+58
          1270.45370	         1.26925e+58
          1271.26000	         9.49063e+57
          1272.06630	         8.84628e+57
          1272.87260	         1.26631e+58
          1273.67890	         1.31823e+58
          1274.48520	         1.16002e+58
          1275.29150	         1.15550e+58
          1276.09780	         1.15238e+58
          1276.90410	         1.37622e+58
          1277.71040	         1.37867e+58
          1278.51670	         1.23946e+58
          1279.32300	         1.38566e+58
          1280.12930	         1.24633e+58
          1280.93560	         1.12336e+58
          1281.74190	         1.21437e+58
          1282.54820	         1.19272e+58
          1283.35450	         1.08833e+58
          1284.16080	         1.12159e+58
          1284.96710	         1.39751e+58
          1285.77340	         1.07857e+58
          1286.57970	         8.13366e+57
          1287.38600	         1.44094e+58
          1288.19230	         1.66567e+58
          1288.99860	         1.32502e+58
          1289.80490	         8.72256e+57
          1290.61120	         1.04479e+58
          1291.41750	         1.34283e+58
          1292.22380	         1.19646e+58
          1293.03010	         9.28891e+57
          1293.83640	         1.02124e+58
          1294.64270	         9.93118e+57
          1295.44900	         8.91219e+57
          1296.25530	         8.37268e+57
          1297.06160	         1.05190e+58
          1297.86790	         1.07045e+58
          1298.67420	         8.29955e+57
          1299.48050	         8.69812e+57
          1300.28680	         9.06446e+57
          1301.09310	         7.84666e+57
          1301.89940	         4.79977e+57
          1302.70570	         5.77240e+57
          1303.51200	         6.14491e+57
          1304.31830	         9.59982e+57
          1305.12460	         1.15277e+58
          1305.93090	         1.16380e+58
          1306.73720	         1.28929e+58
          1307.54350	         1.48994e+58
          1308.34980	         1.59042e+58
          1309.15610	         1.52921e+58
          1309.96240	         1.34113e+58
          1310.76870	         1.11972e+58
          1311.57500	         1.06755e+58
          1312.38130	         1.38819e+58
          1313.18760	         1.63048e+58
          1313.99390	         1.53772e+58
          1314.80020	         1.56699e+58
          1315.60650	         1.41341e+58
          1316.41280	         1.34504e+58
          1317.21910	         1.13802e+58
          1318.02540	         1.10758e+58
          1318.83170	         1.27954e+58
          1319.63800	         1.22868e+58
          1320.44430	         1.10499e+58
          1321.25060	         1.28280e+58
          1322.05690	         1.22437e+58
          1322.86320	         1.30560e+58
          1323.66950	         1.35209e+58
          1324.47580	         1.09766e+58
          1325.28210	         9.89141e+57
          1326.08840	         1.13361e+58
          1326.89470	         1.36609e+58
          1327.70100	         1.28889e+58
          1328.50730	         9.95590e+57
          1329.31360	         9.74404e+57
          1330.11990	         1.09787e+58
          1330.92620	         8.76329e+57
          1331.73250	         1.01499e+58
          1332.53880	         1.13304e+58
          1333.34510	         9.47649e+57
          1334.15140	         9.33204e+57
          1334.95770	         1.11954e+58
          1335.76400	         1.12241e+58
          1336.57030	         1.04835e+58
          1337.37660	         1.07108e+58
          1338.18290	         1.10757e+58
          1338.98920	         1.09449e+58
          1339.79550	         1.08928e+58
          1340.60180	         1.22374e+58
          1341.40810	         1.43884e+58
          1342.21440	         1.23028e+58
          1343.02070	         1.22326e+58
          1343.82700	         1.33318e+58
          1344.63330	         1.31184e+58
          1345.43960	         1.53204e+58
          1346.24590	         1.23359e+58
          1347.05220	         1.17953e+58
          1347.85850	         1.06381e+58
          1348.66480	         1.12003e+58
          1349.47110	         1.27193e+58
          1350.27740	         1.05178e+58
          1351.08370	         1.01701e+58
          1351.89000	         1.16265e+58
          1352.69630	         1.26966e+58
          1353.50260	         1.29422e+58
          1354.30890	         1.19383e+58
          1355.11520	         1.24463e+58
          1355.92150	         1.22422e+58
          1356.72780	         9.57438e+57
          1357.53410	         9.81220e+57
          1358.34040	         1.12222e+58
          1359.14670	         1.13875e+58
          1359.95300	         1.16796e+58
          1360.75930	         1.12954e+58
          1361.56560	         1.05349e+58
          1362.37190	         1.20729e+58
          1363.17820	         1.15001e+58
          1363.98450	         1.12206e+58
          1364.79080	         1.34081e+58
          1365.59710	         1.47811e+58
          1366.40340	         1.35925e+58
          1367.20970	         9.98456e+57
          1368.01600	         1.05373e+58
          1368.82230	         1.17439e+58
          1369.62860	         1.06099e+58
          1370.43490	         8.59518e+57
          1371.24120	         8.67788e+57
          1372.04750	         8.40003e+57
          1372.85380	         1.04020e+58
          1373.66010	         1.09939e+58
          1374.46640	         1.08400e+58
          1375.27270	         1.07163e+58
          1376.07900	         9.40872e+57
          1376.88530	         7.87521e+57
          1377.69160	         7.86014e+57
          1378.49790	         6.35978e+57
          1379.30420	         6.67667e+57
          1380.11050	         8.94482e+57
          1380.91680	         8.70436e+57
          1381.72310	         7.96936e+57
          1382.52940	         8.53284e+57
          1383.33570	         1.00624e+58
          1384.14200	         1.00288e+58
          1384.94830	         1.03011e+58
          1385.75460	         9.07519e+57
          1386.56090	         1.02109e+58
          1387.36720	         1.35242e+58
          1388.17350	         1.37091e+58
          1388.97980	         1.06510e+58
          1389.78610	         9.85154e+57
          1390.59240	         9.28603e+57
          1391.39870	         6.90304e+57
          1392.20500	         8.62786e+57
          1393.01130	         7.34933e+57
          1393.81760	         6.65118e+57
          1394.62390	         7.55178e+57
          1395.43020	         5.75728e+57
          1396.23650	         6.64816e+57
          1397.04280	         7.40550e+57
          1397.84910	         7.52622e+57
          1398.65540	         8.69282e+57
          1399.46170	         9.33808e+57
          1400.26800	         9.47291e+57
          1401.07430	         8.43764e+57
          1401.88060	         9.39963e+57
          1402.68690	         1.08084e+58
          1403.49320	         1.02322e+58
          1404.29950	         9.88170e+57
          1405.10580	         1.03226e+58
          1405.91210	         1.04759e+58
          1406.71840	         1.05984e+58
          1407.52470	         1.13335e+58
          1408.33100	         1.13327e+58
          1409.13730	         1.22046e+58
          1409.94360	         1.22573e+58
          1410.74990	         1.12596e+58
          1411.55620	         9.75386e+57
          1412.36250	         1.02111e+58
          1413.16880	         9.20006e+57
          1413.97510	         8.35029e+57
          1414.78140	         9.00141e+57
          1415.58770	         1.01961e+58
          1416.39400	         1.14504e+58
          1417.20030	         1.18320e+58
          1418.00660	         9.46519e+57
          1418.81290	         8.94311e+57
          1419.61920	         1.02899e+58
          1420.42550	         1.20106e+58
          1421.23180	         1.32202e+58
          1422.03810	         1.39738e+58
          1422.84440	         1.25723e+58
          1423.65070	         1.30068e+58
          1424.45700	         1.17483e+58
          1425.26330	         8.99685e+57
          1426.06960	         8.82820e+57
          1426.87590	         1.06762e+58
          1427.68220	         1.12475e+58
          1428.48850	         1.08604e+58
          1429.29480	         1.06747e+58
          1430.10110	         9.84867e+57
          1430.90740	         8.55753e+57
          1431.71370	         8.46813e+57
          1432.52000	         8.75535e+57
          1433.32630	         8.28479e+57
          1434.13260	         7.45591e+57
          1434.93890	         6.95975e+57
          1435.74520	         9.11432e+57
          1436.55150	         1.07908e+58
          1437.35780	         9.80838e+57
          1438.16410	         9.62438e+57
          1438.97040	         8.98722e+57
          1439.77670	         9.01084e+57
          1440.58300	         9.36418e+57
          1441.38930	         8.98675e+57
          1442.19560	         1.01095e+58
          1443.00190	         9.76707e+57
          1443.80820	         1.05621e+58
          1444.61450	         9.36023e+57
          1445.42080	         7.98190e+57
          1446.22710	         1.06725e+58
          1447.03340	         1.05622e+58
          1447.83970	         1.11357e+58
          1448.64600	         1.12646e+58
          1449.45230	         1.05452e+58
          1450.25860	         1.19694e+58
          1451.06490	         1.07363e+58
          1451.87120	         8.32227e+57
          1452.67750	         7.40000e+57
          1453.48380	         8.75772e+57
          1454.29010	         7.04193e+57
          1455.09640	         7.27571e+57
          1455.90270	         8.73612e+57
          1456.70900	         9.80744e+57
          1457.51530	         1.13644e+58
          1458.32160	         1.38699e+58
          1459.12790	         1.34107e+58
          1459.93420	         9.97853e+57
          1460.74050	         7.84907e+57
          1461.54680	         8.22616e+57
          1462.35310	         8.84476e+57
          1463.15940	         9.06246e+57
          1463.96570	         1.01904e+58
          1464.77200	         1.20519e+58
          1465.57830	         1.05531e+58
          1466.38460	         1.02351e+58
          1467.19090	         1.01732e+58
          1467.99720	         8.90762e+57
          1468.80350	         9.42567e+57
          1469.60980	         1.09629e+58
          1470.41610	         1.13024e+58
          1471.22240	         1.00509e+58
          1472.02870	         1.04247e+58
          1472.83500	         9.54182e+57
          1473.64130	         8.52749e+57
          1474.44760	         8.44324e+57
          1475.25390	         7.61011e+57
          1476.06020	         8.06975e+57
          1476.86650	         7.66283e+57
          1477.67280	         8.07780e+57
          1478.47910	         6.64019e+57
          1479.28540	         6.85229e+57
          1480.09170	         8.68083e+57
          1480.89800	         9.12441e+57
          1481.70430	         8.11872e+57
          1482.51060	         7.41523e+57
          1483.31690	         7.21740e+57
          1484.12320	         7.29800e+57
          1484.92950	         7.34364e+57
          1485.73580	         7.25604e+57
          1486.54210	         8.32793e+57
          1487.34840	         9.62351e+57
          1488.15470	         9.51549e+57
          1488.96100	         8.68369e+57
          1489.76730	         8.38808e+57
