#sample_96_stacked_spectrum_rest_UV-bands_median_H-alpha_noDC.txt
#median Lum: 1.66856e+42
#Rest-frame wavelength (A) | Luminosity (erg/s/A)
#
          1110.00000	         0.00000e+00
          1110.80630	         1.82068e+56
          1111.61260	         1.54122e+59
          1112.41890	        -9.63018e+58
          1113.22520	        -4.40874e+58
          1114.03150	        -3.81087e+58
          1114.83780	         2.57884e+59
          1115.64410	         8.77233e+58
          1116.45040	         1.83248e+59
          1117.25670	         1.49754e+59
          1118.06300	        -3.81673e+58
          1118.86930	        -6.05458e+58
          1119.67560	         4.12352e+58
          1120.48190	        -4.93028e+57
          1121.28820	        -6.49313e+58
          1122.09450	         4.86466e+58
          1122.90080	         5.22308e+58
          1123.70710	         5.07389e+58
          1124.51340	         1.66308e+59
          1125.31970	         5.63775e+58
          1126.12600	        -9.17962e+56
          1126.93230	        -2.57478e+58
          1127.73860	        -6.16320e+58
          1128.54490	        -4.94999e+58
          1129.35120	         9.32417e+57
          1130.15750	        -1.49830e+58
          1130.96380	        -3.29100e+58
          1131.77010	         4.00594e+58
          1132.57640	         4.25713e+58
          1133.38270	         3.85413e+58
          1134.18900	         3.01384e+58
          1134.99530	         4.70060e+58
          1135.80160	         9.68018e+57
          1136.60790	         1.83549e+58
          1137.41420	         3.37209e+57
          1138.22050	         5.12686e+58
          1139.02680	         1.06680e+58
          1139.83310	         1.90798e+58
          1140.63940	         2.09319e+58
          1141.44570	        -1.32944e+58
          1142.25200	         1.46131e+57
          1143.05830	         2.13394e+58
          1143.86460	         1.43405e+58
          1144.67090	         3.86090e+58
          1145.47720	         9.01699e+57
          1146.28350	         7.81228e+57
          1147.08980	         1.12366e+58
          1147.89610	         2.43188e+58
          1148.70240	         2.72703e+58
          1149.50870	         2.69859e+58
          1150.31500	         1.16303e+58
          1151.12130	         2.73998e+57
          1151.92760	         1.26778e+58
          1152.73390	         1.13340e+58
          1153.54020	         1.08834e+58
          1154.34650	         2.07484e+58
          1155.15280	         2.32913e+58
          1155.95910	         1.54470e+58
          1156.76540	        -7.52252e+56
          1157.57170	        -1.05871e+57
          1158.37800	         1.95650e+57
          1159.18430	        -7.42798e+57
          1159.99060	         6.60188e+57
          1160.79690	         5.45001e+57
          1161.60320	         1.36954e+58
          1162.40950	         1.97513e+58
          1163.21580	         1.35821e+58
          1164.02210	         1.06597e+58
          1164.82840	         9.05171e+57
          1165.63470	         2.36765e+58
          1166.44100	         2.96156e+58
          1167.24730	         2.28934e+58
          1168.05360	         9.66697e+55
          1168.85990	         9.35893e+57
          1169.66620	         1.87507e+58
          1170.47250	         2.21720e+58
          1171.27880	         1.51820e+58
          1172.08510	         1.50548e+58
          1172.89140	         1.54553e+58
          1173.69770	         9.03111e+57
          1174.50400	         1.39725e+58
          1175.31030	         1.78451e+58
          1176.11660	         2.18721e+58
          1176.92290	         1.64042e+58
          1177.72920	         8.35897e+57
          1178.53550	         3.96652e+57
          1179.34180	        -8.38583e+56
          1180.14810	         4.61895e+57
          1180.95440	         1.13083e+58
          1181.76070	         8.62872e+57
          1182.56700	         1.06514e+58
          1183.37330	         8.71433e+57
          1184.17960	         7.87839e+57
          1184.98590	         7.30415e+57
          1185.79220	         7.54287e+57
          1186.59850	         9.95589e+57
          1187.40480	         6.28830e+57
          1188.21110	         1.09766e+58
          1189.01740	         6.25019e+57
          1189.82370	         3.61918e+57
          1190.63000	         6.88823e+57
          1191.43630	         1.23026e+58
          1192.24260	         6.84523e+57
          1193.04890	         7.77132e+57
          1193.85520	         1.01151e+58
          1194.66150	         2.80284e+57
          1195.46780	         7.84403e+57
          1196.27410	         1.00217e+58
          1197.08040	         7.00474e+57
          1197.88670	         1.13258e+58
          1198.69300	         1.53721e+58
          1199.49930	         1.70913e+58
          1200.30560	         8.41596e+57
          1201.11190	         8.04355e+57
          1201.91820	         6.63197e+57
          1202.72450	         9.31242e+57
          1203.53080	         1.43551e+58
          1204.33710	         9.51924e+57
          1205.14340	         5.48225e+57
          1205.94970	         6.81539e+57
          1206.75600	         7.88567e+57
          1207.56230	         8.47546e+57
          1208.36860	         1.15071e+58
          1209.17490	         1.08457e+58
          1209.98120	         1.05712e+58
          1210.78750	         9.53293e+57
          1211.59380	         1.78313e+58
          1212.40010	         2.01413e+58
          1213.20640	         2.22366e+58
          1214.01270	         2.15062e+58
          1214.81900	         2.67607e+58
          1215.62530	         4.39082e+58
          1216.43160	         8.98224e+58
          1217.23790	         1.55457e+59
          1218.04420	         1.15000e+59
          1218.85050	         8.59794e+58
          1219.65680	         5.62598e+58
          1220.46310	         3.17928e+58
          1221.26940	         2.54740e+58
          1222.07570	         1.47626e+58
          1222.88200	         1.20349e+58
          1223.68830	         1.26366e+58
          1224.49460	         8.02141e+57
          1225.30090	         3.40731e+57
          1226.10720	         5.28617e+57
          1226.91350	         6.62028e+57
          1227.71980	         8.07718e+57
          1228.52610	         1.11781e+58
          1229.33240	         9.68652e+57
          1230.13870	         6.86349e+57
          1230.94500	         6.42285e+57
          1231.75130	         5.33976e+57
          1232.55760	         8.39366e+57
          1233.36390	         1.08795e+58
          1234.17020	         9.30428e+57
          1234.97650	         9.09014e+57
          1235.78280	         8.93235e+57
          1236.58910	         7.43841e+57
          1237.39540	         1.00102e+58
          1238.20170	         1.00957e+58
          1239.00800	         1.23265e+58
          1239.81430	         1.42613e+58
          1240.62060	         1.00172e+58
          1241.42690	         1.02129e+58
          1242.23320	         1.35279e+58
          1243.03950	         8.32051e+57
          1243.84580	         7.56044e+57
          1244.65210	         1.11123e+58
          1245.45840	         1.08590e+58
          1246.26470	         8.00318e+57
          1247.07100	         8.80501e+57
          1247.87730	         6.01491e+57
          1248.68360	         4.58286e+57
          1249.48990	         1.01165e+58
          1250.29620	         1.18665e+58
          1251.10250	         8.76580e+57
          1251.90880	         5.41160e+57
          1252.71510	         5.54201e+57
          1253.52140	         6.21563e+57
          1254.32770	         9.89279e+57
          1255.13400	         1.31588e+58
          1255.94030	         1.07265e+58
          1256.74660	         8.89500e+57
          1257.55290	         1.06255e+58
          1258.35920	         8.52090e+57
          1259.16550	         5.57375e+57
          1259.97180	         5.88432e+57
          1260.77810	         1.05898e+58
          1261.58440	         1.25638e+58
          1262.39070	         7.86302e+57
          1263.19700	         7.70809e+57
          1264.00330	         7.89507e+57
          1264.80960	         1.21732e+58
          1265.61590	         1.49651e+58
          1266.42220	         1.38112e+58
          1267.22850	         1.14236e+58
          1268.03480	         1.17817e+58
          1268.84110	         1.52650e+58
          1269.64740	         1.32446e+58
          1270.45370	         1.32498e+58
          1271.26000	         1.30963e+58
          1272.06630	         1.16674e+58
          1272.87260	         1.22246e+58
          1273.67890	         1.29308e+58
          1274.48520	         1.42384e+58
          1275.29150	         1.41355e+58
          1276.09780	         1.12658e+58
          1276.90410	         1.31016e+58
          1277.71040	         1.38145e+58
          1278.51670	         1.09139e+58
          1279.32300	         1.18000e+58
          1280.12930	         1.38610e+58
          1280.93560	         1.16654e+58
          1281.74190	         1.12715e+58
          1282.54820	         1.17183e+58
          1283.35450	         1.04099e+58
          1284.16080	         1.07690e+58
          1284.96710	         1.36004e+58
          1285.77340	         1.26696e+58
          1286.57970	         8.75293e+57
          1287.38600	         1.12367e+58
          1288.19230	         1.63661e+58
          1288.99860	         1.62516e+58
          1289.80490	         1.12883e+58
          1290.61120	         1.37056e+58
          1291.41750	         1.52200e+58
          1292.22380	         1.22578e+58
          1293.03010	         1.09316e+58
          1293.83640	         1.13005e+58
          1294.64270	         9.77855e+57
          1295.44900	         7.54259e+57
          1296.25530	         7.86666e+57
          1297.06160	         8.09894e+57
          1297.86790	         9.34303e+57
          1298.67420	         1.06259e+58
          1299.48050	         1.00937e+58
          1300.28680	         1.13514e+58
          1301.09310	         8.06089e+57
          1301.89940	         4.19343e+57
          1302.70570	         6.06756e+57
          1303.51200	         7.40723e+57
          1304.31830	         9.70125e+57
          1305.12460	         1.07945e+58
          1305.93090	         1.19506e+58
          1306.73720	         1.17555e+58
          1307.54350	         1.21013e+58
          1308.34980	         1.25251e+58
          1309.15610	         1.48392e+58
          1309.96240	         1.67425e+58
          1310.76870	         1.34679e+58
          1311.57500	         1.14816e+58
          1312.38130	         1.04974e+58
          1313.18760	         1.34506e+58
          1313.99390	         1.60420e+58
          1314.80020	         1.53525e+58
          1315.60650	         1.47392e+58
          1316.41280	         1.43398e+58
          1317.21910	         1.07680e+58
          1318.02540	         1.10428e+58
          1318.83170	         1.41514e+58
          1319.63800	         1.22225e+58
          1320.44430	         1.10011e+58
          1321.25060	         1.20943e+58
          1322.05690	         1.33203e+58
          1322.86320	         1.21702e+58
          1323.66950	         1.09600e+58
          1324.47580	         9.07719e+57
          1325.28210	         9.18581e+57
          1326.08840	         1.21836e+58
          1326.89470	         1.25029e+58
          1327.70100	         8.63086e+57
          1328.50730	         6.65205e+57
          1329.31360	         7.54824e+57
          1330.11990	         7.88702e+57
          1330.92620	         9.54593e+57
          1331.73250	         1.03059e+58
          1332.53880	         9.56815e+57
          1333.34510	         8.02275e+57
          1334.15140	         8.26777e+57
          1334.95770	         9.68721e+57
          1335.76400	         1.19010e+58
          1336.57030	         1.15172e+58
          1337.37660	         1.03405e+58
          1338.18290	         1.13374e+58
          1338.98920	         1.29207e+58
          1339.79550	         1.20122e+58
          1340.60180	         1.09069e+58
          1341.40810	         1.38359e+58
          1342.21440	         1.24981e+58
          1343.02070	         1.13487e+58
          1343.82700	         1.37872e+58
          1344.63330	         1.28132e+58
          1345.43960	         1.27571e+58
          1346.24590	         1.01370e+58
          1347.05220	         1.05538e+58
          1347.85850	         9.67202e+57
          1348.66480	         1.02066e+58
          1349.47110	         1.14232e+58
          1350.27740	         1.07473e+58
          1351.08370	         1.07426e+58
          1351.89000	         1.11486e+58
          1352.69630	         1.22141e+58
          1353.50260	         1.16922e+58
          1354.30890	         1.26391e+58
          1355.11520	         1.35778e+58
          1355.92150	         1.13606e+58
          1356.72780	         1.03836e+58
          1357.53410	         1.12846e+58
          1358.34040	         1.17095e+58
          1359.14670	         1.08872e+58
          1359.95300	         1.08480e+58
          1360.75930	         1.15161e+58
          1361.56560	         1.07911e+58
          1362.37190	         1.15035e+58
          1363.17820	         1.11487e+58
          1363.98450	         1.20618e+58
          1364.79080	         1.32027e+58
          1365.59710	         1.43099e+58
          1366.40340	         1.30139e+58
          1367.20970	         1.08070e+58
          1368.01600	         9.47096e+57
          1368.82230	         1.09598e+58
          1369.62860	         1.20733e+58
          1370.43490	         9.52950e+57
          1371.24120	         8.97904e+57
          1372.04750	         9.42904e+57
          1372.85380	         1.26399e+58
          1373.66010	         1.19752e+58
          1374.46640	         1.02852e+58
          1375.27270	         9.37344e+57
          1376.07900	         8.72064e+57
          1376.88530	         9.70628e+57
          1377.69160	         8.96674e+57
          1378.49790	         7.83776e+57
          1379.30420	         8.05953e+57
          1380.11050	         9.18541e+57
          1380.91680	         8.13654e+57
          1381.72310	         8.21891e+57
          1382.52940	         9.69779e+57
          1383.33570	         9.55722e+57
          1384.14200	         1.02351e+58
          1384.94830	         1.11832e+58
          1385.75460	         1.07358e+58
          1386.56090	         1.06687e+58
          1387.36720	         1.04434e+58
          1388.17350	         1.31182e+58
          1388.97980	         1.30661e+58
          1389.78610	         9.01350e+57
          1390.59240	         7.35074e+57
          1391.39870	         7.75769e+57
          1392.20500	         8.33060e+57
          1393.01130	         7.64899e+57
          1393.81760	         6.83461e+57
          1394.62390	         8.40547e+57
          1395.43020	         7.70407e+57
          1396.23650	         6.07904e+57
          1397.04280	         6.88495e+57
          1397.84910	         8.88952e+57
          1398.65540	         8.85516e+57
          1399.46170	         1.04890e+58
          1400.26800	         9.38176e+57
          1401.07430	         7.36410e+57
          1401.88060	         7.65873e+57
          1402.68690	         8.69440e+57
          1403.49320	         8.78522e+57
          1404.29950	         9.72359e+57
          1405.10580	         1.18505e+58
          1405.91210	         1.19374e+58
          1406.71840	         1.17992e+58
          1407.52470	         1.03198e+58
          1408.33100	         9.86218e+57
          1409.13730	         1.23708e+58
          1409.94360	         1.23268e+58
          1410.74990	         1.06665e+58
          1411.55620	         1.01059e+58
          1412.36250	         8.57761e+57
          1413.16880	         8.70873e+57
          1413.97510	         8.49323e+57
          1414.78140	         8.17342e+57
          1415.58770	         1.05112e+58
          1416.39400	         1.03198e+58
          1417.20030	         1.01415e+58
          1418.00660	         1.02527e+58
          1418.81290	         1.03430e+58
          1419.61920	         9.86642e+57
          1420.42550	         1.05815e+58
          1421.23180	         1.15238e+58
          1422.03810	         1.12918e+58
          1422.84440	         1.12665e+58
          1423.65070	         1.27647e+58
          1424.45700	         1.14466e+58
          1425.26330	         9.19295e+57
          1426.06960	         9.24010e+57
          1426.87590	         1.05024e+58
          1427.68220	         9.97589e+57
          1428.48850	         9.73697e+57
          1429.29480	         1.03637e+58
          1430.10110	         9.78631e+57
          1430.90740	         8.96895e+57
          1431.71370	         9.54683e+57
          1432.52000	         1.01081e+58
          1433.32630	         8.48925e+57
          1434.13260	         7.23178e+57
          1434.93890	         8.33649e+57
          1435.74520	         9.75862e+57
          1436.55150	         9.59234e+57
          1437.35780	         8.10253e+57
          1438.16410	         7.98480e+57
          1438.97040	         9.31730e+57
          1439.77670	         8.00472e+57
          1440.58300	         8.61124e+57
          1441.38930	         1.03653e+58
          1442.19560	         1.05503e+58
          1443.00190	         9.84403e+57
          1443.80820	         1.08348e+58
          1444.61450	         1.02613e+58
          1445.42080	         9.12727e+57
          1446.22710	         9.59347e+57
          1447.03340	         8.79099e+57
          1447.83970	         9.09082e+57
          1448.64600	         1.00825e+58
          1449.45230	         1.08661e+58
          1450.25860	         1.04560e+58
          1451.06490	         8.90252e+57
          1451.87120	         7.23201e+57
          1452.67750	         6.56445e+57
          1453.48380	         7.16562e+57
          1454.29010	         7.51617e+57
          1455.09640	         8.29631e+57
          1455.90270	         8.96649e+57
          1456.70900	         8.51454e+57
          1457.51530	         9.68414e+57
          1458.32160	         1.16208e+58
          1459.12790	         1.20961e+58
          1459.93420	         9.50018e+57
          1460.74050	         8.36949e+57
          1461.54680	         8.60267e+57
          1462.35310	         8.56807e+57
          1463.15940	         9.13675e+57
          1463.96570	         9.62995e+57
          1464.77200	         1.10223e+58
          1465.57830	         1.11784e+58
          1466.38460	         1.00207e+58
          1467.19090	         8.81200e+57
          1467.99720	         9.47047e+57
          1468.80350	         9.89319e+57
          1469.60980	         1.06834e+58
          1470.41610	         1.09933e+58
          1471.22240	         9.24991e+57
          1472.02870	         9.33906e+57
          1472.83500	         9.52505e+57
          1473.64130	         9.94911e+57
          1474.44760	         9.62851e+57
          1475.25390	         9.10967e+57
          1476.06020	         8.30785e+57
          1476.86650	         8.65310e+57
          1477.67280	         7.38890e+57
          1478.47910	         6.70159e+57
          1479.28540	         7.22677e+57
          1480.09170	         8.39874e+57
          1480.89800	         8.52975e+57
          1481.70430	         9.35670e+57
          1482.51060	         8.70421e+57
          1483.31690	         7.93779e+57
          1484.12320	         9.22528e+57
          1484.92950	         8.33178e+57
          1485.73580	         8.63721e+57
          1486.54210	         8.92850e+57
          1487.34840	         8.60114e+57
          1488.15470	         8.29319e+57
          1488.96100	         8.04248e+57
          1489.76730	         9.16327e+57
