#sample_410_stacked_spectrum_rest_UV-bands_median_H-alpha_noDC.txt
#median Lum: 1.68775e+42
#Rest-frame wavelength (A) | Luminosity (erg/s/A)
#
          1110.00000	         0.00000e+00
          1110.80630	         4.88228e+59
          1111.61260	         1.98747e+59
          1112.41890	         5.60096e+58
          1113.22520	        -5.35036e+58
          1114.03150	        -5.91159e+58
          1114.83780	         3.04204e+59
          1115.64410	         5.71061e+58
          1116.45040	         1.07916e+59
          1117.25670	         1.00587e+59
          1118.06300	         1.66414e+59
          1118.86930	         2.28620e+58
          1119.67560	         1.88822e+58
          1120.48190	        -5.19019e+58
          1121.28820	        -8.64735e+58
          1122.09450	         8.57991e+58
          1122.90080	         9.26347e+58
          1123.70710	         8.15835e+58
          1124.51340	         9.15852e+58
          1125.31970	         1.89476e+58
          1126.12600	         6.52765e+57
          1126.93230	        -2.90316e+58
          1127.73860	        -2.53137e+58
          1128.54490	         1.09375e+58
          1129.35120	         6.59660e+57
          1130.15750	        -5.15382e+58
          1130.96380	         4.93089e+57
          1131.77010	         8.27376e+58
          1132.57640	         4.86677e+58
          1133.38270	         4.88775e+58
          1134.18900	         3.92101e+58
          1134.99530	         3.04917e+58
          1135.80160	         1.26661e+58
          1136.60790	         1.44784e+58
          1137.41420	         1.69971e+58
          1138.22050	         6.16107e+58
          1139.02680	         2.84200e+58
          1139.83310	         3.28366e+58
          1140.63940	         7.08842e+57
          1141.44570	        -3.57965e+58
          1142.25200	        -6.96235e+57
          1143.05830	         3.67678e+58
          1143.86460	         2.63070e+58
          1144.67090	         4.83554e+58
          1145.47720	         1.75116e+58
          1146.28350	         8.81357e+57
          1147.08980	         1.31927e+58
          1147.89610	         2.24015e+58
          1148.70240	         2.65087e+58
          1149.50870	         2.07380e+58
          1150.31500	         9.12001e+57
          1151.12130	        -6.64659e+57
          1151.92760	         3.63788e+57
          1152.73390	         4.92608e+57
          1153.54020	         5.80936e+57
          1154.34650	         2.10018e+58
          1155.15280	         1.69276e+58
          1155.95910	         1.14657e+58
          1156.76540	         1.20647e+58
          1157.57170	        -2.46856e+56
          1158.37800	        -6.60068e+57
          1159.18430	         2.51267e+57
          1159.99060	         1.84955e+58
          1160.79690	         1.33456e+58
          1161.60320	         1.45058e+58
          1162.40950	         1.54814e+58
          1163.21580	         1.15530e+58
          1164.02210	         1.53794e+58
          1164.82840	         1.22767e+58
          1165.63470	         1.58750e+58
          1166.44100	         2.86312e+58
          1167.24730	         2.27759e+58
          1168.05360	         6.10154e+57
          1168.85990	         4.47926e+56
          1169.66620	         4.77400e+57
          1170.47250	         9.63613e+57
          1171.27880	         1.25018e+58
          1172.08510	         1.31061e+58
          1172.89140	         6.58938e+57
          1173.69770	         1.12935e+58
          1174.50400	         1.92489e+58
          1175.31030	         2.09793e+58
          1176.11660	         1.08668e+58
          1176.92290	         9.69632e+57
          1177.72920	         1.14384e+58
          1178.53550	         9.20570e+57
          1179.34180	         5.55841e+57
          1180.14810	         7.06410e+57
          1180.95440	         1.03685e+58
          1181.76070	         7.29974e+57
          1182.56700	         6.38748e+57
          1183.37330	         5.00770e+57
          1184.17960	         7.13491e+57
          1184.98590	         1.10186e+58
          1185.79220	         1.14931e+58
          1186.59850	         1.19238e+58
          1187.40480	         1.18259e+58
          1188.21110	         1.50101e+58
          1189.01740	         7.93903e+57
          1189.82370	         4.95556e+57
          1190.63000	         5.85593e+57
          1191.43630	         9.46239e+57
          1192.24260	         9.18363e+57
          1193.04890	         1.13607e+58
          1193.85520	         1.23002e+58
          1194.66150	         7.54786e+57
          1195.46780	         1.30598e+58
          1196.27410	         1.28228e+58
          1197.08040	         1.04912e+58
          1197.88670	         1.42259e+58
          1198.69300	         1.40732e+58
          1199.49930	         1.44339e+58
          1200.30560	         9.42362e+57
          1201.11190	         7.72751e+57
          1201.91820	         9.50200e+57
          1202.72450	         6.75867e+57
          1203.53080	         1.32099e+58
          1204.33710	         1.04987e+58
          1205.14340	         4.69623e+57
          1205.94970	         7.75112e+57
          1206.75600	         8.29330e+57
          1207.56230	         5.50633e+57
          1208.36860	         1.22294e+58
          1209.17490	         7.22511e+57
          1209.98120	         8.99388e+57
          1210.78750	         5.19247e+57
          1211.59380	         7.53347e+57
          1212.40010	         1.66333e+58
          1213.20640	         1.83698e+58
          1214.01270	         1.90713e+58
          1214.81900	         2.86214e+58
          1215.62530	         4.79828e+58
          1216.43160	         8.85902e+58
          1217.23790	         1.49855e+59
          1218.04420	         1.15581e+59
          1218.85050	         9.21460e+58
          1219.65680	         5.98536e+58
          1220.46310	         3.02530e+58
          1221.26940	         1.95289e+58
          1222.07570	         1.33693e+58
          1222.88200	         1.02104e+58
          1223.68830	         9.70160e+57
          1224.49460	         5.48613e+57
          1225.30090	         4.22323e+57
          1226.10720	         6.74277e+57
          1226.91350	         7.78624e+57
          1227.71980	         1.11709e+58
          1228.52610	         1.22728e+58
          1229.33240	         7.02407e+57
          1230.13870	         9.99591e+57
          1230.94500	         1.01461e+58
          1231.75130	         4.26701e+57
          1232.55760	         7.95351e+57
          1233.36390	         9.22664e+57
          1234.17020	         9.63758e+57
          1234.97650	         9.33277e+57
          1235.78280	         8.05832e+57
          1236.58910	         6.57789e+57
          1237.39540	         8.69200e+57
          1238.20170	         1.01013e+58
          1239.00800	         1.27010e+58
          1239.81430	         1.45969e+58
          1240.62060	         9.85109e+57
          1241.42690	         8.71515e+57
          1242.23320	         1.08661e+58
          1243.03950	         9.27521e+57
          1243.84580	         9.97348e+57
          1244.65210	         1.07299e+58
          1245.45840	         1.01497e+58
          1246.26470	         1.19411e+58
          1247.07100	         8.89573e+57
          1247.87730	         7.32695e+57
          1248.68360	         4.26861e+57
          1249.48990	         7.30984e+57
          1250.29620	         1.04824e+58
          1251.10250	         5.83536e+57
          1251.90880	         2.94210e+57
          1252.71510	         5.85203e+57
          1253.52140	         7.10928e+57
          1254.32770	         1.07722e+58
          1255.13400	         1.36075e+58
          1255.94030	         1.13320e+58
          1256.74660	         1.19435e+58
          1257.55290	         1.20457e+58
          1258.35920	         9.94273e+57
          1259.16550	         4.67468e+57
          1259.97180	         5.97403e+57
          1260.77810	         8.07013e+57
          1261.58440	         1.20484e+58
          1262.39070	         1.09699e+58
          1263.19700	         9.49264e+57
          1264.00330	         1.07017e+58
          1264.80960	         9.98651e+57
          1265.61590	         1.07203e+58
          1266.42220	         1.27100e+58
          1267.22850	         1.30358e+58
          1268.03480	         1.40777e+58
          1268.84110	         1.47332e+58
          1269.64740	         1.42189e+58
          1270.45370	         1.48205e+58
          1271.26000	         1.32641e+58
          1272.06630	         1.35834e+58
          1272.87260	         1.28164e+58
          1273.67890	         1.26745e+58
          1274.48520	         1.33414e+58
          1275.29150	         1.14082e+58
          1276.09780	         1.02932e+58
          1276.90410	         1.39874e+58
          1277.71040	         1.34179e+58
          1278.51670	         1.36188e+58
          1279.32300	         1.38683e+58
          1280.12930	         1.26460e+58
          1280.93560	         1.08204e+58
          1281.74190	         1.05816e+58
          1282.54820	         1.27840e+58
          1283.35450	         1.28992e+58
          1284.16080	         1.21297e+58
          1284.96710	         1.44562e+58
          1285.77340	         1.25009e+58
          1286.57970	         1.11046e+58
          1287.38600	         1.50684e+58
          1288.19230	         1.82482e+58
          1288.99860	         1.53211e+58
          1289.80490	         9.49576e+57
          1290.61120	         1.31967e+58
          1291.41750	         1.60143e+58
          1292.22380	         1.19848e+58
          1293.03010	         9.82615e+57
          1293.83640	         1.16070e+58
          1294.64270	         1.19522e+58
          1295.44900	         8.02119e+57
          1296.25530	         7.13360e+57
          1297.06160	         1.09769e+58
          1297.86790	         9.41072e+57
          1298.67420	         6.56863e+57
          1299.48050	         8.91200e+57
          1300.28680	         1.07080e+58
          1301.09310	         9.17903e+57
          1301.89940	         5.41281e+57
          1302.70570	         5.57210e+57
          1303.51200	         8.00834e+57
          1304.31830	         1.05863e+58
          1305.12460	         1.18022e+58
          1305.93090	         1.12082e+58
          1306.73720	         1.20773e+58
          1307.54350	         1.27867e+58
          1308.34980	         1.47801e+58
          1309.15610	         1.60403e+58
          1309.96240	         1.59853e+58
          1310.76870	         1.32896e+58
          1311.57500	         1.02697e+58
          1312.38130	         1.01295e+58
          1313.18760	         1.45152e+58
          1313.99390	         1.70818e+58
          1314.80020	         1.61666e+58
          1315.60650	         1.38008e+58
          1316.41280	         1.07092e+58
          1317.21910	         9.50688e+57
          1318.02540	         1.12112e+58
          1318.83170	         1.27654e+58
          1319.63800	         1.06927e+58
          1320.44430	         9.47088e+57
          1321.25060	         1.14898e+58
          1322.05690	         1.30318e+58
          1322.86320	         1.24648e+58
          1323.66950	         1.07162e+58
          1324.47580	         8.88883e+57
          1325.28210	         1.00722e+58
          1326.08840	         1.05668e+58
          1326.89470	         1.15011e+58
          1327.70100	         1.12914e+58
          1328.50730	         8.21066e+57
          1329.31360	         8.45842e+57
          1330.11990	         9.04817e+57
          1330.92620	         8.85354e+57
          1331.73250	         1.10061e+58
          1332.53880	         1.00740e+58
          1333.34510	         8.93954e+57
          1334.15140	         8.93616e+57
          1334.95770	         8.54192e+57
          1335.76400	         1.01164e+58
          1336.57030	         1.11623e+58
          1337.37660	         1.15239e+58
          1338.18290	         1.05136e+58
          1338.98920	         1.04533e+58
          1339.79550	         1.17540e+58
          1340.60180	         1.13234e+58
          1341.40810	         1.17593e+58
          1342.21440	         1.07642e+58
          1343.02070	         1.29214e+58
          1343.82700	         1.66966e+58
          1344.63330	         1.37194e+58
          1345.43960	         1.27733e+58
          1346.24590	         1.30562e+58
          1347.05220	         1.36052e+58
          1347.85850	         1.18176e+58
          1348.66480	         1.25067e+58
          1349.47110	         1.25220e+58
          1350.27740	         1.08167e+58
          1351.08370	         1.15537e+58
          1351.89000	         1.16121e+58
          1352.69630	         1.10318e+58
          1353.50260	         1.13172e+58
          1354.30890	         1.30491e+58
          1355.11520	         1.21433e+58
          1355.92150	         9.63765e+57
          1356.72780	         9.58562e+57
          1357.53410	         9.92848e+57
          1358.34040	         1.05027e+58
          1359.14670	         1.00944e+58
          1359.95300	         1.15030e+58
          1360.75930	         1.15224e+58
          1361.56560	         1.05055e+58
          1362.37190	         1.13363e+58
          1363.17820	         1.07875e+58
          1363.98450	         1.24309e+58
          1364.79080	         1.35580e+58
          1365.59710	         1.21041e+58
          1366.40340	         1.05486e+58
          1367.20970	         9.76593e+57
          1368.01600	         1.02222e+58
          1368.82230	         9.69999e+57
          1369.62860	         1.02289e+58
          1370.43490	         9.49718e+57
          1371.24120	         9.06983e+57
          1372.04750	         9.26023e+57
          1372.85380	         1.07301e+58
          1373.66010	         1.12179e+58
          1374.46640	         1.06540e+58
          1375.27270	         1.10077e+58
          1376.07900	         9.48348e+57
          1376.88530	         8.57313e+57
          1377.69160	         9.04864e+57
          1378.49790	         7.40778e+57
          1379.30420	         7.83803e+57
          1380.11050	         9.34311e+57
          1380.91680	         9.13709e+57
          1381.72310	         8.67862e+57
          1382.52940	         9.23161e+57
          1383.33570	         1.05264e+58
          1384.14200	         1.08430e+58
          1384.94830	         1.03996e+58
          1385.75460	         1.21490e+58
          1386.56090	         1.20595e+58
          1387.36720	         1.08756e+58
          1388.17350	         1.21198e+58
          1388.97980	         1.15131e+58
          1389.78610	         9.22916e+57
          1390.59240	         7.93544e+57
          1391.39870	         8.13595e+57
          1392.20500	         8.71104e+57
          1393.01130	         8.11292e+57
          1393.81760	         7.47360e+57
          1394.62390	         6.96905e+57
          1395.43020	         5.34511e+57
          1396.23650	         5.59304e+57
          1397.04280	         7.71080e+57
          1397.84910	         8.65071e+57
          1398.65540	         8.98794e+57
          1399.46170	         9.32713e+57
          1400.26800	         7.55354e+57
          1401.07430	         8.22473e+57
          1401.88060	         8.68177e+57
          1402.68690	         8.83351e+57
          1403.49320	         9.78220e+57
          1404.29950	         1.00023e+58
          1405.10580	         1.17025e+58
          1405.91210	         1.15859e+58
          1406.71840	         9.81247e+57
          1407.52470	         1.00076e+58
          1408.33100	         9.94360e+57
          1409.13730	         1.02376e+58
          1409.94360	         1.12336e+58
          1410.74990	         1.01695e+58
          1411.55620	         9.36537e+57
          1412.36250	         8.95968e+57
          1413.16880	         9.78944e+57
          1413.97510	         8.62035e+57
          1414.78140	         8.05149e+57
          1415.58770	         1.13953e+58
          1416.39400	         1.20334e+58
          1417.20030	         9.58006e+57
          1418.00660	         7.18968e+57
          1418.81290	         9.86828e+57
          1419.61920	         1.20140e+58
          1420.42550	         1.26295e+58
          1421.23180	         1.27256e+58
          1422.03810	         1.25858e+58
          1422.84440	         1.14260e+58
          1423.65070	         1.23268e+58
          1424.45700	         1.01625e+58
          1425.26330	         7.50990e+57
          1426.06960	         8.15273e+57
          1426.87590	         1.00927e+58
          1427.68220	         1.05565e+58
          1428.48850	         1.02263e+58
          1429.29480	         1.00241e+58
          1430.10110	         9.43052e+57
          1430.90740	         8.20184e+57
          1431.71370	         8.46516e+57
          1432.52000	         8.20836e+57
          1433.32630	         6.83582e+57
          1434.13260	         7.28257e+57
          1434.93890	         8.34198e+57
          1435.74520	         8.74924e+57
          1436.55150	         9.70731e+57
          1437.35780	         9.35163e+57
          1438.16410	         9.18558e+57
          1438.97040	         9.37686e+57
          1439.77670	         8.69766e+57
          1440.58300	         8.48954e+57
          1441.38930	         9.78673e+57
          1442.19560	         1.07857e+58
          1443.00190	         1.10885e+58
          1443.80820	         1.10527e+58
          1444.61450	         9.21253e+57
          1445.42080	         9.15524e+57
          1446.22710	         9.80237e+57
          1447.03340	         9.17011e+57
          1447.83970	         1.04383e+58
          1448.64600	         9.79650e+57
          1449.45230	         9.43601e+57
          1450.25860	         9.26646e+57
          1451.06490	         8.42711e+57
          1451.87120	         7.31136e+57
          1452.67750	         7.99534e+57
          1453.48380	         8.81848e+57
          1454.29010	         7.27665e+57
          1455.09640	         7.27426e+57
          1455.90270	         8.85332e+57
          1456.70900	         9.36095e+57
          1457.51530	         9.71120e+57
          1458.32160	         1.17456e+58
          1459.12790	         1.22374e+58
          1459.93420	         1.10885e+58
          1460.74050	         8.96381e+57
          1461.54680	         8.88921e+57
          1462.35310	         7.99118e+57
          1463.15940	         8.45633e+57
          1463.96570	         1.06781e+58
          1464.77200	         1.04291e+58
          1465.57830	         9.76655e+57
          1466.38460	         1.00599e+58
          1467.19090	         8.42759e+57
          1467.99720	         9.27342e+57
          1468.80350	         1.03728e+58
          1469.60980	         1.12945e+58
          1470.41610	         1.14364e+58
          1471.22240	         9.27985e+57
          1472.02870	         9.37141e+57
          1472.83500	         8.83530e+57
          1473.64130	         9.14490e+57
          1474.44760	         9.56241e+57
          1475.25390	         9.48671e+57
          1476.06020	         1.02365e+58
          1476.86650	         1.02130e+58
          1477.67280	         1.00277e+58
          1478.47910	         7.86082e+57
          1479.28540	         6.58489e+57
          1480.09170	         7.96258e+57
          1480.89800	         8.36678e+57
          1481.70430	         8.28437e+57
          1482.51060	         7.83713e+57
          1483.31690	         7.63327e+57
          1484.12320	         7.84909e+57
          1484.92950	         7.46809e+57
          1485.73580	         8.03624e+57
          1486.54210	         9.45470e+57
          1487.34840	         8.95913e+57
          1488.15470	         8.09473e+57
          1488.96100	         8.83246e+57
          1489.76730	         9.64081e+57
