#sample_303_stacked_spectrum_rest_UV-bands_median_H-alpha_noDC.txt
#median Lum: 1.70038e+42
#Rest-frame wavelength (A) | Luminosity (erg/s/A)
#
          1110.00000	         0.00000e+00
          1110.80630	         2.50642e+59
          1111.61260	        -1.63143e+59
          1112.41890	         8.89429e+58
          1113.22520	        -1.44041e+59
          1114.03150	        -5.63162e+58
          1114.83780	         1.30023e+59
          1115.64410	         1.76984e+59
          1116.45040	         2.74864e+59
          1117.25670	         2.46221e+57
          1118.06300	         3.07613e+59
          1118.86930	        -1.43297e+58
          1119.67560	         3.95179e+58
          1120.48190	        -8.82377e+58
          1121.28820	        -1.84411e+59
          1122.09450	         1.42730e+58
          1122.90080	         9.49174e+58
          1123.70710	         1.01642e+59
          1124.51340	         1.14566e+59
          1125.31970	         6.08065e+58
          1126.12600	         4.54212e+58
          1126.93230	        -5.24682e+58
          1127.73860	        -5.92117e+58
          1128.54490	        -1.25386e+58
          1129.35120	        -1.05012e+58
          1130.15750	        -4.80768e+58
          1130.96380	        -1.92085e+58
          1131.77010	         7.19693e+58
          1132.57640	         9.18084e+57
          1133.38270	         3.57695e+58
          1134.18900	         2.37605e+58
          1134.99530	         3.15834e+58
          1135.80160	         2.34056e+58
          1136.60790	         1.45588e+58
          1137.41420	        -1.55845e+58
          1138.22050	         4.41605e+58
          1139.02680	         4.96093e+58
          1139.83310	         3.82175e+58
          1140.63940	         3.04337e+58
          1141.44570	        -1.40175e+58
          1142.25200	        -9.15215e+57
          1143.05830	         3.16451e+58
          1143.86460	         2.01860e+58
          1144.67090	         2.68384e+58
          1145.47720	         1.50599e+58
          1146.28350	         2.23947e+58
          1147.08980	         1.74703e+58
          1147.89610	         2.20308e+58
          1148.70240	         1.69707e+58
          1149.50870	         3.69240e+58
          1150.31500	         2.31249e+58
          1151.12130	         1.02395e+58
          1151.92760	         8.33708e+57
          1152.73390	         1.11625e+58
          1153.54020	         7.17699e+57
          1154.34650	         2.44609e+58
          1155.15280	         1.81030e+58
          1155.95910	         7.64703e+57
          1156.76540	         1.25572e+58
          1157.57170	        -3.74719e+57
          1158.37800	        -4.78309e+57
          1159.18430	        -3.90440e+57
          1159.99060	         5.95281e+57
          1160.79690	         3.91105e+57
          1161.60320	         1.47515e+58
          1162.40950	         2.51954e+58
          1163.21580	         2.25223e+58
          1164.02210	         2.02339e+58
          1164.82840	         5.37772e+57
          1165.63470	         1.69856e+58
          1166.44100	         2.49660e+58
          1167.24730	         1.46810e+58
          1168.05360	         7.37152e+57
          1168.85990	         6.94883e+57
          1169.66620	         1.23429e+58
          1170.47250	         1.78044e+58
          1171.27880	         1.24080e+58
          1172.08510	         9.97291e+57
          1172.89140	         5.32138e+57
          1173.69770	         2.01984e+57
          1174.50400	         1.49134e+58
          1175.31030	         1.73426e+58
          1176.11660	         1.59121e+58
          1176.92290	         1.04470e+58
          1177.72920	         9.52383e+57
          1178.53550	         7.02470e+57
          1179.34180	        -9.11835e+56
          1180.14810	         1.93689e+57
          1180.95440	         3.89688e+57
          1181.76070	         3.47197e+57
          1182.56700	         6.45478e+57
          1183.37330	         8.63465e+57
          1184.17960	         1.23905e+58
          1184.98590	         9.71743e+57
          1185.79220	         5.05496e+57
          1186.59850	         1.20052e+58
          1187.40480	         1.04611e+58
          1188.21110	         1.74095e+58
          1189.01740	         1.25959e+58
          1189.82370	         1.50878e+58
          1190.63000	         1.55004e+58
          1191.43630	         1.09514e+58
          1192.24260	         8.78438e+57
          1193.04890	         9.05603e+57
          1193.85520	         1.36184e+58
          1194.66150	         4.44925e+57
          1195.46780	         9.05861e+57
          1196.27410	         1.76059e+58
          1197.08040	         7.73585e+57
          1197.88670	         1.18536e+58
          1198.69300	         1.41340e+58
          1199.49930	         1.28749e+58
          1200.30560	         9.23210e+57
          1201.11190	         8.27230e+57
          1201.91820	         7.30434e+57
          1202.72450	         9.48130e+57
          1203.53080	         1.38330e+58
          1204.33710	         6.09231e+57
          1205.14340	         2.56921e+57
          1205.94970	         5.55141e+57
          1206.75600	         7.57058e+57
          1207.56230	         9.67121e+56
          1208.36860	         1.02877e+58
          1209.17490	         1.00526e+58
          1209.98120	         9.66046e+57
          1210.78750	         1.37545e+58
          1211.59380	         1.39234e+58
          1212.40010	         1.64330e+58
          1213.20640	         1.90859e+58
          1214.01270	         2.02711e+58
          1214.81900	         2.49854e+58
          1215.62530	         4.38609e+58
          1216.43160	         9.12439e+58
          1217.23790	         1.54994e+59
          1218.04420	         1.15783e+59
          1218.85050	         8.42207e+58
          1219.65680	         5.26132e+58
          1220.46310	         3.29310e+58
          1221.26940	         1.91966e+58
          1222.07570	         1.06492e+58
          1222.88200	         9.10095e+57
          1223.68830	         7.69914e+57
          1224.49460	         8.72875e+57
          1225.30090	         6.17955e+57
          1226.10720	         4.93677e+57
          1226.91350	         8.12800e+57
          1227.71980	         1.08970e+58
          1228.52610	         1.52032e+58
          1229.33240	         8.61492e+57
          1230.13870	         7.83016e+57
          1230.94500	         7.74074e+57
          1231.75130	         5.61343e+57
          1232.55760	         9.40737e+57
          1233.36390	         9.07050e+57
          1234.17020	         8.90601e+57
          1234.97650	         8.79079e+57
          1235.78280	         7.94350e+57
          1236.58910	         7.55552e+57
          1237.39540	         1.14807e+58
          1238.20170	         1.24028e+58
          1239.00800	         1.13036e+58
          1239.81430	         1.22741e+58
          1240.62060	         1.01527e+58
          1241.42690	         1.00758e+58
          1242.23320	         1.04894e+58
          1243.03950	         9.02222e+57
          1243.84580	         1.22597e+58
          1244.65210	         1.20011e+58
          1245.45840	         8.14149e+57
          1246.26470	         8.18559e+57
          1247.07100	         6.33998e+57
          1247.87730	         2.89848e+57
          1248.68360	         3.74430e+57
          1249.48990	         7.25732e+57
          1250.29620	         1.07770e+58
          1251.10250	         9.98408e+57
          1251.90880	         6.77987e+57
          1252.71510	         6.13405e+57
          1253.52140	         5.73290e+57
          1254.32770	         1.00367e+58
          1255.13400	         1.36520e+58
          1255.94030	         1.17672e+58
          1256.74660	         1.11784e+58
          1257.55290	         1.16640e+58
          1258.35920	         8.80394e+57
          1259.16550	         5.63627e+57
          1259.97180	         6.96949e+57
          1260.77810	         9.03996e+57
          1261.58440	         1.14968e+58
          1262.39070	         9.12879e+57
          1263.19700	         8.49564e+57
          1264.00330	         1.00186e+58
          1264.80960	         9.80625e+57
          1265.61590	         1.18636e+58
          1266.42220	         1.19483e+58
          1267.22850	         9.86210e+57
          1268.03480	         1.24329e+58
          1268.84110	         1.46879e+58
          1269.64740	         1.23330e+58
          1270.45370	         1.28877e+58
          1271.26000	         1.36314e+58
          1272.06630	         1.27314e+58
          1272.87260	         1.22290e+58
          1273.67890	         1.26782e+58
          1274.48520	         1.36301e+58
          1275.29150	         1.45727e+58
          1276.09780	         1.32538e+58
          1276.90410	         1.57046e+58
          1277.71040	         1.35715e+58
          1278.51670	         1.20791e+58
          1279.32300	         1.49623e+58
          1280.12930	         1.31098e+58
          1280.93560	         1.22893e+58
          1281.74190	         1.48058e+58
          1282.54820	         1.38140e+58
          1283.35450	         1.01561e+58
          1284.16080	         1.11921e+58
          1284.96710	         1.15014e+58
          1285.77340	         9.20450e+57
          1286.57970	         9.81395e+57
          1287.38600	         1.35555e+58
          1288.19230	         1.58580e+58
          1288.99860	         1.27225e+58
          1289.80490	         7.19305e+57
          1290.61120	         1.10776e+58
          1291.41750	         1.43918e+58
          1292.22380	         1.20992e+58
          1293.03010	         1.06187e+58
          1293.83640	         1.22515e+58
          1294.64270	         1.24298e+58
          1295.44900	         8.04503e+57
          1296.25530	         9.18779e+57
          1297.06160	         1.11949e+58
          1297.86790	         9.37821e+57
          1298.67420	         7.86526e+57
          1299.48050	         8.97671e+57
          1300.28680	         1.00485e+58
          1301.09310	         8.20121e+57
          1301.89940	         4.14623e+57
          1302.70570	         6.31761e+57
          1303.51200	         8.64109e+57
          1304.31830	         1.06961e+58
          1305.12460	         1.02741e+58
          1305.93090	         9.66135e+57
          1306.73720	         1.25714e+58
          1307.54350	         1.42838e+58
          1308.34980	         1.54494e+58
          1309.15610	         1.54017e+58
          1309.96240	         1.44239e+58
          1310.76870	         1.41329e+58
          1311.57500	         1.47667e+58
          1312.38130	         1.24481e+58
          1313.18760	         1.17278e+58
          1313.99390	         1.39813e+58
          1314.80020	         1.47012e+58
          1315.60650	         1.45000e+58
          1316.41280	         1.04345e+58
          1317.21910	         9.23582e+57
          1318.02540	         1.19395e+58
          1318.83170	         1.27026e+58
          1319.63800	         1.24988e+58
          1320.44430	         1.21617e+58
          1321.25060	         1.22132e+58
          1322.05690	         1.25134e+58
          1322.86320	         1.13781e+58
          1323.66950	         1.04658e+58
          1324.47580	         8.69012e+57
          1325.28210	         7.10979e+57
          1326.08840	         1.15124e+58
          1326.89470	         1.20679e+58
          1327.70100	         9.79577e+57
          1328.50730	         7.80946e+57
          1329.31360	         1.01604e+58
          1330.11990	         1.12045e+58
          1330.92620	         9.30621e+57
          1331.73250	         9.60062e+57
          1332.53880	         1.02450e+58
          1333.34510	         1.05407e+58
          1334.15140	         9.47703e+57
          1334.95770	         8.76698e+57
          1335.76400	         9.93154e+57
          1336.57030	         9.41479e+57
          1337.37660	         9.63879e+57
          1338.18290	         1.07661e+58
          1338.98920	         1.12341e+58
          1339.79550	         1.13197e+58
          1340.60180	         1.28082e+58
          1341.40810	         1.37578e+58
          1342.21440	         1.23792e+58
          1343.02070	         1.28914e+58
          1343.82700	         1.35346e+58
          1344.63330	         1.20813e+58
          1345.43960	         1.23201e+58
          1346.24590	         1.17207e+58
          1347.05220	         1.20085e+58
          1347.85850	         1.04100e+58
          1348.66480	         1.09290e+58
          1349.47110	         1.13042e+58
          1350.27740	         1.18207e+58
          1351.08370	         1.07916e+58
          1351.89000	         1.05578e+58
          1352.69630	         1.16547e+58
          1353.50260	         1.17918e+58
          1354.30890	         1.28213e+58
          1355.11520	         1.30096e+58
          1355.92150	         1.08462e+58
          1356.72780	         9.37584e+57
          1357.53410	         9.87425e+57
          1358.34040	         1.03858e+58
          1359.14670	         9.05570e+57
          1359.95300	         1.00385e+58
          1360.75930	         1.12323e+58
          1361.56560	         9.69903e+57
          1362.37190	         1.06324e+58
          1363.17820	         1.12270e+58
          1363.98450	         1.25481e+58
          1364.79080	         1.39449e+58
          1365.59710	         1.48309e+58
          1366.40340	         1.31705e+58
          1367.20970	         1.01983e+58
          1368.01600	         8.86465e+57
          1368.82230	         8.97523e+57
          1369.62860	         9.29545e+57
          1370.43490	         8.30716e+57
          1371.24120	         8.26752e+57
          1372.04750	         8.37965e+57
          1372.85380	         1.08574e+58
          1373.66010	         9.93360e+57
          1374.46640	         1.12224e+58
          1375.27270	         1.19080e+58
          1376.07900	         9.44017e+57
          1376.88530	         7.80925e+57
          1377.69160	         7.83157e+57
          1378.49790	         6.27101e+57
          1379.30420	         7.35995e+57
          1380.11050	         9.82623e+57
          1380.91680	         7.68085e+57
          1381.72310	         6.45862e+57
          1382.52940	         8.91089e+57
          1383.33570	         9.46812e+57
          1384.14200	         1.00127e+58
          1384.94830	         1.15204e+58
          1385.75460	         1.19792e+58
          1386.56090	         1.18598e+58
          1387.36720	         1.00758e+58
          1388.17350	         1.11153e+58
          1388.97980	         1.04291e+58
          1389.78610	         9.07945e+57
          1390.59240	         8.73237e+57
          1391.39870	         7.58079e+57
          1392.20500	         8.92213e+57
          1393.01130	         8.49988e+57
          1393.81760	         7.82198e+57
          1394.62390	         7.58389e+57
          1395.43020	         6.53731e+57
          1396.23650	         5.93927e+57
          1397.04280	         6.02750e+57
          1397.84910	         7.36984e+57
          1398.65540	         8.52985e+57
          1399.46170	         9.94337e+57
          1400.26800	         8.36026e+57
          1401.07430	         7.96698e+57
          1401.88060	         8.63342e+57
          1402.68690	         9.10465e+57
          1403.49320	         9.22555e+57
          1404.29950	         1.04087e+58
          1405.10580	         1.16512e+58
          1405.91210	         1.07795e+58
          1406.71840	         1.11516e+58
          1407.52470	         1.15407e+58
          1408.33100	         1.08636e+58
          1409.13730	         1.11520e+58
          1409.94360	         1.20729e+58
          1410.74990	         1.16953e+58
          1411.55620	         9.78098e+57
          1412.36250	         8.77998e+57
          1413.16880	         8.88856e+57
          1413.97510	         8.77947e+57
          1414.78140	         8.47165e+57
          1415.58770	         8.98304e+57
          1416.39400	         9.97241e+57
          1417.20030	         9.64793e+57
          1418.00660	         9.34860e+57
          1418.81290	         1.04125e+58
          1419.61920	         9.82301e+57
          1420.42550	         1.02788e+58
          1421.23180	         1.20866e+58
          1422.03810	         1.23085e+58
          1422.84440	         1.28255e+58
          1423.65070	         1.35620e+58
          1424.45700	         1.18496e+58
          1425.26330	         9.68456e+57
          1426.06960	         9.57642e+57
          1426.87590	         1.01771e+58
          1427.68220	         1.02922e+58
          1428.48850	         1.11479e+58
          1429.29480	         1.03791e+58
          1430.10110	         1.01203e+58
          1430.90740	         9.60724e+57
          1431.71370	         9.56818e+57
          1432.52000	         9.20419e+57
          1433.32630	         8.11156e+57
          1434.13260	         7.43584e+57
          1434.93890	         7.59608e+57
          1435.74520	         9.06450e+57
          1436.55150	         1.01313e+58
          1437.35780	         8.95353e+57
          1438.16410	         8.66378e+57
          1438.97040	         9.29130e+57
          1439.77670	         9.48900e+57
          1440.58300	         1.08415e+58
          1441.38930	         1.04550e+58
          1442.19560	         9.64535e+57
          1443.00190	         1.01030e+58
          1443.80820	         1.14186e+58
          1444.61450	         1.04768e+58
          1445.42080	         9.42442e+57
          1446.22710	         1.11520e+58
          1447.03340	         1.07541e+58
          1447.83970	         9.97805e+57
          1448.64600	         1.01091e+58
          1449.45230	         9.59577e+57
          1450.25860	         9.19375e+57
          1451.06490	         8.49164e+57
          1451.87120	         7.08981e+57
          1452.67750	         7.87073e+57
          1453.48380	         9.65655e+57
          1454.29010	         8.40757e+57
          1455.09640	         7.03675e+57
          1455.90270	         8.64712e+57
          1456.70900	         9.46426e+57
          1457.51530	         1.07994e+58
          1458.32160	         1.14151e+58
          1459.12790	         1.07402e+58
          1459.93420	         9.61008e+57
          1460.74050	         7.57984e+57
          1461.54680	         7.16912e+57
          1462.35310	         9.17462e+57
          1463.15940	         1.06849e+58
          1463.96570	         1.14716e+58
          1464.77200	         1.29975e+58
          1465.57830	         1.08127e+58
          1466.38460	         8.64520e+57
          1467.19090	         9.53031e+57
          1467.99720	         8.79616e+57
          1468.80350	         1.00194e+58
          1469.60980	         1.03230e+58
          1470.41610	         1.13509e+58
          1471.22240	         9.90520e+57
          1472.02870	         9.30882e+57
          1472.83500	         1.04742e+58
          1473.64130	         1.03622e+58
          1474.44760	         9.97619e+57
          1475.25390	         8.69135e+57
          1476.06020	         8.19673e+57
          1476.86650	         8.36617e+57
          1477.67280	         8.25666e+57
          1478.47910	         7.70903e+57
          1479.28540	         7.15290e+57
          1480.09170	         7.95290e+57
          1480.89800	         9.18190e+57
          1481.70430	         9.49385e+57
          1482.51060	         7.86494e+57
          1483.31690	         7.43368e+57
          1484.12320	         7.31538e+57
          1484.92950	         7.89577e+57
          1485.73580	         9.02591e+57
          1486.54210	         8.57137e+57
          1487.34840	         9.28992e+57
          1488.15470	         8.74793e+57
          1488.96100	         6.97922e+57
          1489.76730	         7.93280e+57
