#sample_184_stacked_spectrum_rest_UV-bands_median_H-alpha_noDC.txt
#median Lum: 1.69496e+42
#Rest-frame wavelength (A) | Luminosity (erg/s/A)
#
          1110.00000	         0.00000e+00
          1110.80630	         3.63641e+59
          1111.61260	         3.30641e+58
          1112.41890	         3.08772e+59
          1113.22520	         4.92307e+58
          1114.03150	         1.69035e+59
          1114.83780	         1.48906e+59
          1115.64410	         3.94175e+58
          1116.45040	        -3.94673e+58
          1117.25670	         2.89742e+58
          1118.06300	         2.01546e+59
          1118.86930	        -5.07800e+58
          1119.67560	         3.29935e+58
          1120.48190	        -1.22850e+58
          1121.28820	        -8.49323e+58
          1122.09450	         7.01688e+58
          1122.90080	         5.24023e+58
          1123.70710	         8.04196e+58
          1124.51340	         6.51878e+58
          1125.31970	        -3.76953e+57
          1126.12600	         2.54812e+58
          1126.93230	        -4.39588e+58
          1127.73860	        -3.88945e+58
          1128.54490	         8.75031e+57
          1129.35120	        -1.79808e+58
          1130.15750	        -5.15847e+58
          1130.96380	        -1.89707e+58
          1131.77010	         3.56265e+58
          1132.57640	         4.96958e+58
          1133.38270	         2.30833e+58
          1134.18900	         1.84117e+58
          1134.99530	         3.22996e+58
          1135.80160	         2.62730e+58
          1136.60790	         1.65060e+58
          1137.41420	        -1.52827e+58
          1138.22050	         3.15213e+58
          1139.02680	         2.71898e+58
          1139.83310	         1.86704e+58
          1140.63940	         2.56628e+58
          1141.44570	        -1.95218e+58
          1142.25200	         2.68041e+57
          1143.05830	         2.44664e+58
          1143.86460	         3.54548e+58
          1144.67090	         2.35843e+58
          1145.47720	         1.22976e+58
          1146.28350	         2.43227e+58
          1147.08980	         1.80662e+58
          1147.89610	         1.43519e+58
          1148.70240	         1.49854e+58
          1149.50870	         2.06357e+58
          1150.31500	         2.73037e+57
          1151.12130	         6.50913e+57
          1151.92760	         1.27864e+58
          1152.73390	         1.00571e+58
          1153.54020	         1.85314e+58
          1154.34650	         2.08074e+58
          1155.15280	         1.85514e+58
          1155.95910	         1.08494e+58
          1156.76540	        -3.02558e+57
          1157.57170	        -4.91186e+57
          1158.37800	         4.01496e+57
          1159.18430	         6.75132e+57
          1159.99060	         9.16814e+57
          1160.79690	         1.01109e+58
          1161.60320	         1.24796e+58
          1162.40950	         1.60348e+58
          1163.21580	         8.39706e+57
          1164.02210	         2.24116e+58
          1164.82840	         1.05810e+58
          1165.63470	         2.17844e+58
          1166.44100	         2.81810e+58
          1167.24730	         2.27212e+58
          1168.05360	         1.05885e+58
          1168.85990	         9.77759e+57
          1169.66620	         3.87707e+57
          1170.47250	         7.53437e+57
          1171.27880	         1.24005e+58
          1172.08510	         1.31031e+58
          1172.89140	         1.07206e+58
          1173.69770	         7.15887e+57
          1174.50400	         1.26664e+58
          1175.31030	         1.83299e+58
          1176.11660	         2.21085e+58
          1176.92290	         1.69308e+58
          1177.72920	         1.24938e+58
          1178.53550	         1.05262e+58
          1179.34180	         9.78210e+57
          1180.14810	         8.12907e+57
          1180.95440	         1.16750e+58
          1181.76070	         7.85736e+57
          1182.56700	         1.01655e+58
          1183.37330	         9.33627e+57
          1184.17960	         1.27098e+58
          1184.98590	         1.27966e+58
          1185.79220	         6.98688e+57
          1186.59850	         9.99168e+57
          1187.40480	         1.16314e+58
          1188.21110	         1.33700e+58
          1189.01740	         5.83683e+57
          1189.82370	         6.69442e+57
          1190.63000	         9.31205e+57
          1191.43630	         1.08894e+58
          1192.24260	         8.10600e+57
          1193.04890	         9.72370e+57
          1193.85520	         1.10884e+58
          1194.66150	         3.20845e+57
          1195.46780	         1.35086e+58
          1196.27410	         1.67197e+58
          1197.08040	         8.51032e+57
          1197.88670	         1.39245e+58
          1198.69300	         1.90126e+58
          1199.49930	         2.08553e+58
          1200.30560	         1.35396e+58
          1201.11190	         1.13776e+58
          1201.91820	         1.47215e+58
          1202.72450	         9.98089e+57
          1203.53080	         1.52300e+58
          1204.33710	         7.36758e+57
          1205.14340	         6.82096e+57
          1205.94970	         8.34822e+57
          1206.75600	         9.71868e+57
          1207.56230	         6.50048e+57
          1208.36860	         9.32543e+57
          1209.17490	         3.21600e+57
          1209.98120	         4.94661e+57
          1210.78750	         5.55247e+57
          1211.59380	         6.69967e+57
          1212.40010	         1.79586e+58
          1213.20640	         2.06705e+58
          1214.01270	         2.25336e+58
          1214.81900	         2.71363e+58
          1215.62530	         4.75246e+58
          1216.43160	         9.15915e+58
          1217.23790	         1.51668e+59
          1218.04420	         1.16344e+59
          1218.85050	         8.90592e+58
          1219.65680	         5.94541e+58
          1220.46310	         3.59336e+58
          1221.26940	         2.30023e+58
          1222.07570	         1.21246e+58
          1222.88200	         9.46866e+57
          1223.68830	         6.81495e+57
          1224.49460	         6.78851e+57
          1225.30090	         5.24588e+57
          1226.10720	         2.98989e+57
          1226.91350	         5.39898e+57
          1227.71980	         9.58114e+57
          1228.52610	         1.46250e+58
          1229.33240	         1.22881e+58
          1230.13870	         9.11762e+57
          1230.94500	         7.84027e+57
          1231.75130	         8.47263e+57
          1232.55760	         1.02631e+58
          1233.36390	         1.00496e+58
          1234.17020	         9.46812e+57
          1234.97650	         8.45102e+57
          1235.78280	         7.61565e+57
          1236.58910	         6.21550e+57
          1237.39540	         7.80206e+57
          1238.20170	         1.10327e+58
          1239.00800	         1.32399e+58
          1239.81430	         1.31493e+58
          1240.62060	         1.09814e+58
          1241.42690	         1.19374e+58
          1242.23320	         1.36219e+58
          1243.03950	         1.09278e+58
          1243.84580	         8.36954e+57
          1244.65210	         8.42631e+57
          1245.45840	         1.03127e+58
          1246.26470	         8.81030e+57
          1247.07100	         8.42806e+57
          1247.87730	         6.47661e+57
          1248.68360	         5.18890e+57
          1249.48990	         4.33764e+57
          1250.29620	         7.27669e+57
          1251.10250	         6.57968e+57
          1251.90880	         3.68306e+57
          1252.71510	         6.13654e+57
          1253.52140	         8.61655e+57
          1254.32770	         9.77414e+57
          1255.13400	         1.01515e+58
          1255.94030	         1.10368e+58
          1256.74660	         9.19084e+57
          1257.55290	         8.26528e+57
          1258.35920	         6.46511e+57
          1259.16550	         4.99213e+57
          1259.97180	         5.38361e+57
          1260.77810	         9.57598e+57
          1261.58440	         1.09763e+58
          1262.39070	         8.43938e+57
          1263.19700	         8.43082e+57
          1264.00330	         1.01202e+58
          1264.80960	         1.19446e+58
          1265.61590	         1.15874e+58
          1266.42220	         1.13110e+58
          1267.22850	         1.00648e+58
          1268.03480	         1.38014e+58
          1268.84110	         1.60355e+58
          1269.64740	         1.44569e+58
          1270.45370	         1.34861e+58
          1271.26000	         1.18076e+58
          1272.06630	         1.23005e+58
          1272.87260	         1.11561e+58
          1273.67890	         1.16153e+58
          1274.48520	         1.27322e+58
          1275.29150	         1.29516e+58
          1276.09780	         1.15030e+58
          1276.90410	         1.54017e+58
          1277.71040	         1.47561e+58
          1278.51670	         1.19627e+58
          1279.32300	         1.41005e+58
          1280.12930	         1.39325e+58
          1280.93560	         1.06915e+58
          1281.74190	         1.16425e+58
          1282.54820	         1.36939e+58
          1283.35450	         1.08230e+58
          1284.16080	         1.02554e+58
          1284.96710	         1.37663e+58
          1285.77340	         1.28693e+58
          1286.57970	         1.06104e+58
          1287.38600	         1.36005e+58
          1288.19230	         1.77986e+58
          1288.99860	         1.54256e+58
          1289.80490	         1.08082e+58
          1290.61120	         1.34109e+58
          1291.41750	         1.52579e+58
          1292.22380	         1.17996e+58
          1293.03010	         1.00972e+58
          1293.83640	         1.03176e+58
          1294.64270	         9.38522e+57
          1295.44900	         6.70832e+57
          1296.25530	         6.13215e+57
          1297.06160	         7.01892e+57
          1297.86790	         7.81559e+57
          1298.67420	         9.04209e+57
          1299.48050	         1.10826e+58
          1300.28680	         1.12206e+58
          1301.09310	         1.03549e+58
          1301.89940	         5.23780e+57
          1302.70570	         6.44099e+57
          1303.51200	         7.62986e+57
          1304.31830	         1.04489e+58
          1305.12460	         1.11588e+58
          1305.93090	         1.01535e+58
          1306.73720	         1.13159e+58
          1307.54350	         1.45048e+58
          1308.34980	         1.53359e+58
          1309.15610	         1.39250e+58
          1309.96240	         1.49834e+58
          1310.76870	         1.40265e+58
          1311.57500	         1.16094e+58
          1312.38130	         1.23043e+58
          1313.18760	         1.34618e+58
          1313.99390	         1.67408e+58
          1314.80020	         1.85109e+58
          1315.60650	         1.64747e+58
          1316.41280	         1.43986e+58
          1317.21910	         1.05164e+58
          1318.02540	         1.10829e+58
          1318.83170	         1.27374e+58
          1319.63800	         1.11565e+58
          1320.44430	         1.02571e+58
          1321.25060	         1.08823e+58
          1322.05690	         1.21657e+58
          1322.86320	         1.20562e+58
          1323.66950	         1.17833e+58
          1324.47580	         1.05865e+58
          1325.28210	         9.58557e+57
          1326.08840	         1.12311e+58
          1326.89470	         1.27428e+58
          1327.70100	         1.00992e+58
          1328.50730	         7.98591e+57
          1329.31360	         8.84895e+57
          1330.11990	         9.27712e+57
          1330.92620	         8.13562e+57
          1331.73250	         9.73948e+57
          1332.53880	         9.39114e+57
          1333.34510	         9.05895e+57
          1334.15140	         9.95742e+57
          1334.95770	         9.32752e+57
          1335.76400	         9.52572e+57
          1336.57030	         1.20440e+58
          1337.37660	         1.16554e+58
          1338.18290	         1.05734e+58
          1338.98920	         1.15820e+58
          1339.79550	         1.20822e+58
          1340.60180	         1.29571e+58
          1341.40810	         1.21826e+58
          1342.21440	         9.60074e+57
          1343.02070	         1.16132e+58
          1343.82700	         1.32762e+58
          1344.63330	         1.27713e+58
          1345.43960	         1.42731e+58
          1346.24590	         9.79750e+57
          1347.05220	         9.68618e+57
          1347.85850	         1.27319e+58
          1348.66480	         1.38518e+58
          1349.47110	         1.39941e+58
          1350.27740	         1.24408e+58
          1351.08370	         1.19344e+58
          1351.89000	         1.19190e+58
          1352.69630	         1.10134e+58
          1353.50260	         1.04340e+58
          1354.30890	         1.24627e+58
          1355.11520	         1.40609e+58
          1355.92150	         1.21353e+58
          1356.72780	         1.15120e+58
          1357.53410	         1.14010e+58
          1358.34040	         1.05017e+58
          1359.14670	         9.46660e+57
          1359.95300	         1.08511e+58
          1360.75930	         1.21985e+58
          1361.56560	         1.15223e+58
          1362.37190	         1.20108e+58
          1363.17820	         1.03137e+58
          1363.98450	         1.02132e+58
          1364.79080	         1.28769e+58
          1365.59710	         1.42721e+58
          1366.40340	         1.24772e+58
          1367.20970	         9.21995e+57
          1368.01600	         8.04673e+57
          1368.82230	         7.60912e+57
          1369.62860	         8.87853e+57
          1370.43490	         9.01109e+57
          1371.24120	         1.00065e+58
          1372.04750	         1.05005e+58
          1372.85380	         1.08398e+58
          1373.66010	         1.01440e+58
          1374.46640	         1.03462e+58
          1375.27270	         1.08320e+58
          1376.07900	         8.98128e+57
          1376.88530	         9.45325e+57
          1377.69160	         9.26976e+57
          1378.49790	         7.67281e+57
          1379.30420	         7.21873e+57
          1380.11050	         7.76820e+57
          1380.91680	         7.34634e+57
          1381.72310	         7.30996e+57
          1382.52940	         8.05870e+57
          1383.33570	         9.28368e+57
          1384.14200	         1.03852e+58
          1384.94830	         1.09912e+58
          1385.75460	         8.66775e+57
          1386.56090	         9.98294e+57
          1387.36720	         1.02876e+58
          1388.17350	         1.17321e+58
          1388.97980	         1.02378e+58
          1389.78610	         8.97941e+57
          1390.59240	         8.07316e+57
          1391.39870	         5.37346e+57
          1392.20500	         7.14789e+57
          1393.01130	         7.26425e+57
          1393.81760	         7.37773e+57
          1394.62390	         7.32790e+57
          1395.43020	         6.95334e+57
          1396.23650	         7.02594e+57
          1397.04280	         6.91022e+57
          1397.84910	         8.19293e+57
          1398.65540	         7.96602e+57
          1399.46170	         8.76258e+57
          1400.26800	         8.24535e+57
          1401.07430	         7.79736e+57
          1401.88060	         8.15423e+57
          1402.68690	         9.97679e+57
          1403.49320	         9.09178e+57
          1404.29950	         8.64067e+57
          1405.10580	         1.03369e+58
          1405.91210	         1.10966e+58
          1406.71840	         1.08298e+58
          1407.52470	         1.01569e+58
          1408.33100	         1.04962e+58
          1409.13730	         1.06886e+58
          1409.94360	         1.09050e+58
          1410.74990	         1.14708e+58
          1411.55620	         1.03517e+58
          1412.36250	         9.17107e+57
          1413.16880	         8.85128e+57
          1413.97510	         7.50251e+57
          1414.78140	         8.47421e+57
          1415.58770	         1.05961e+58
          1416.39400	         1.11883e+58
          1417.20030	         1.29863e+58
          1418.00660	         1.09578e+58
          1418.81290	         9.78230e+57
          1419.61920	         1.10025e+58
          1420.42550	         1.27429e+58
          1421.23180	         1.30319e+58
          1422.03810	         1.26227e+58
          1422.84440	         1.17758e+58
          1423.65070	         1.32441e+58
          1424.45700	         1.12265e+58
          1425.26330	         7.98974e+57
          1426.06960	         8.15523e+57
          1426.87590	         1.02428e+58
          1427.68220	         1.10956e+58
          1428.48850	         9.75920e+57
          1429.29480	         9.01170e+57
          1430.10110	         1.01727e+58
          1430.90740	         1.00284e+58
          1431.71370	         1.01102e+58
          1432.52000	         9.45310e+57
          1433.32630	         7.68631e+57
          1434.13260	         8.00757e+57
          1434.93890	         8.87415e+57
          1435.74520	         8.68847e+57
          1436.55150	         8.28267e+57
          1437.35780	         8.32107e+57
          1438.16410	         9.51761e+57
          1438.97040	         9.67824e+57
          1439.77670	         9.41937e+57
          1440.58300	         9.80855e+57
          1441.38930	         1.03062e+58
          1442.19560	         1.03602e+58
          1443.00190	         9.24149e+57
          1443.80820	         1.04751e+58
          1444.61450	         9.91144e+57
          1445.42080	         7.41337e+57
          1446.22710	         1.04241e+58
          1447.03340	         1.04937e+58
          1447.83970	         1.04084e+58
          1448.64600	         1.06068e+58
          1449.45230	         8.76579e+57
          1450.25860	         8.70960e+57
          1451.06490	         8.00551e+57
          1451.87120	         7.49744e+57
          1452.67750	         7.36524e+57
          1453.48380	         8.55147e+57
          1454.29010	         8.83038e+57
          1455.09640	         8.45055e+57
          1455.90270	         9.22168e+57
          1456.70900	         8.75164e+57
          1457.51530	         9.90479e+57
          1458.32160	         1.19200e+58
          1459.12790	         1.10913e+58
          1459.93420	         1.02354e+58
          1460.74050	         8.56689e+57
          1461.54680	         8.79825e+57
          1462.35310	         8.12843e+57
          1463.15940	         8.95220e+57
          1463.96570	         1.10580e+58
          1464.77200	         1.17009e+58
          1465.57830	         1.05642e+58
          1466.38460	         9.26925e+57
          1467.19090	         8.33742e+57
          1467.99720	         8.47590e+57
          1468.80350	         9.15189e+57
          1469.60980	         1.01525e+58
          1470.41610	         1.10228e+58
          1471.22240	         9.17689e+57
          1472.02870	         8.91499e+57
          1472.83500	         9.20414e+57
          1473.64130	         8.55811e+57
          1474.44760	         9.70924e+57
          1475.25390	         9.01925e+57
          1476.06020	         8.57151e+57
          1476.86650	         9.05810e+57
          1477.67280	         8.65485e+57
          1478.47910	         8.56965e+57
          1479.28540	         8.41636e+57
          1480.09170	         8.63609e+57
          1480.89800	         9.41502e+57
          1481.70430	         8.13856e+57
          1482.51060	         7.02359e+57
          1483.31690	         7.25190e+57
          1484.12320	         7.92876e+57
          1484.92950	         8.47193e+57
          1485.73580	         9.40315e+57
          1486.54210	         8.93078e+57
          1487.34840	         7.73921e+57
          1488.15470	         8.43931e+57
          1488.96100	         8.75393e+57
          1489.76730	         8.52166e+57
