#sample_214_stacked_spectrum_rest_UV-bands_median_H-alpha_noDC.txt
#median Lum: 1.70065e+42
#Rest-frame wavelength (A) | Luminosity (erg/s/A)
#
          1110.00000	         0.00000e+00
          1110.80630	         1.98039e+59
          1111.61260	         3.62255e+59
          1112.41890	         2.74529e+58
          1113.22520	        -9.63933e+58
          1114.03150	        -7.37996e+58
          1114.83780	         2.69376e+59
          1115.64410	         5.97346e+58
          1116.45040	         8.82406e+58
          1117.25670	        -7.98794e+58
          1118.06300	         1.14454e+59
          1118.86930	        -2.95902e+58
          1119.67560	         1.64527e+59
          1120.48190	        -3.48329e+58
          1121.28820	        -1.46760e+59
          1122.09450	        -3.33092e+58
          1122.90080	         5.96159e+58
          1123.70710	         6.91259e+58
          1124.51340	         4.44648e+58
          1125.31970	         1.58322e+58
          1126.12600	         2.39857e+58
          1126.93230	        -4.10058e+58
          1127.73860	        -9.68352e+58
          1128.54490	         6.20899e+58
          1129.35120	         4.80449e+58
          1130.15750	        -5.30834e+58
          1130.96380	        -5.19570e+58
          1131.77010	        -5.49837e+57
          1132.57640	         5.33323e+58
          1133.38270	         1.29717e+58
          1134.18900	         2.79208e+58
          1134.99530	         2.42238e+58
          1135.80160	         1.54782e+58
          1136.60790	         1.86109e+58
          1137.41420	         1.30317e+58
          1138.22050	         4.39639e+58
          1139.02680	         4.18384e+57
          1139.83310	         2.70995e+57
          1140.63940	         1.40222e+58
          1141.44570	         3.76053e+57
          1142.25200	        -1.42577e+56
          1143.05830	         1.98277e+58
          1143.86460	         2.33792e+58
          1144.67090	         1.66874e+58
          1145.47720	         1.54249e+58
          1146.28350	         9.60551e+57
          1147.08980	         5.06034e+57
          1147.89610	         9.48985e+57
          1148.70240	         2.60493e+58
          1149.50870	         1.71834e+58
          1150.31500	         2.96636e+57
          1151.12130	         1.90858e+58
          1151.92760	         1.36621e+58
          1152.73390	         6.17584e+57
          1153.54020	        -4.91831e+57
          1154.34650	         2.33528e+58
          1155.15280	         1.97342e+58
          1155.95910	         1.43275e+58
          1156.76540	         2.48877e+58
          1157.57170	         1.49075e+58
          1158.37800	        -2.56693e+57
          1159.18430	         3.49220e+56
          1159.99060	         8.48787e+57
          1160.79690	         1.89620e+57
          1161.60320	         1.04505e+58
          1162.40950	         2.07752e+58
          1163.21580	         2.20768e+58
          1164.02210	         6.70954e+57
          1164.82840	         1.81911e+58
          1165.63470	         1.58112e+58
          1166.44100	         2.48235e+58
          1167.24730	         2.11253e+58
          1168.05360	         1.38867e+58
          1168.85990	         7.61049e+57
          1169.66620	         4.12025e+57
          1170.47250	         1.05494e+58
          1171.27880	         1.40361e+58
          1172.08510	         1.41950e+58
          1172.89140	         1.86338e+58
          1173.69770	         3.61381e+57
          1174.50400	         8.55714e+57
          1175.31030	         2.01960e+58
          1176.11660	         1.63759e+58
          1176.92290	         1.26440e+58
          1177.72920	         1.02727e+58
          1178.53550	         9.83700e+57
          1179.34180	         5.34553e+57
          1180.14810	         7.51441e+57
          1180.95440	         1.08531e+58
          1181.76070	         9.00171e+57
          1182.56700	         7.86953e+57
          1183.37330	         5.61666e+57
          1184.17960	         9.17449e+57
          1184.98590	         9.59606e+57
          1185.79220	         8.09478e+57
          1186.59850	         1.18734e+58
          1187.40480	         1.17982e+58
          1188.21110	         1.56956e+58
          1189.01740	         8.81105e+57
          1189.82370	         1.14010e+58
          1190.63000	         1.15264e+58
          1191.43630	         8.89020e+57
          1192.24260	         6.59465e+57
          1193.04890	         7.78906e+57
          1193.85520	         9.80892e+57
          1194.66150	         5.93114e+57
          1195.46780	         7.78278e+57
          1196.27410	         1.11159e+58
          1197.08040	         1.24315e+58
          1197.88670	         1.37741e+58
          1198.69300	         1.61589e+58
          1199.49930	         1.77620e+58
          1200.30560	         1.27497e+58
          1201.11190	         1.10417e+58
          1201.91820	         1.05856e+58
          1202.72450	         8.07193e+57
          1203.53080	         1.60105e+58
          1204.33710	         1.23331e+58
          1205.14340	         8.03837e+57
          1205.94970	         8.56541e+57
          1206.75600	         8.10680e+57
          1207.56230	         7.09753e+57
          1208.36860	         1.15173e+58
          1209.17490	         3.96423e+57
          1209.98120	         6.02437e+57
          1210.78750	         5.88501e+57
          1211.59380	         1.14502e+58
          1212.40010	         1.59922e+58
          1213.20640	         2.01129e+58
          1214.01270	         2.30950e+58
          1214.81900	         2.72246e+58
          1215.62530	         4.55158e+58
          1216.43160	         8.54301e+58
          1217.23790	         1.49326e+59
          1218.04420	         1.13492e+59
          1218.85050	         8.67478e+58
          1219.65680	         5.79207e+58
          1220.46310	         3.35640e+58
          1221.26940	         2.26559e+58
          1222.07570	         1.36184e+58
          1222.88200	         1.11971e+58
          1223.68830	         9.35560e+57
          1224.49460	         7.42958e+57
          1225.30090	         8.22560e+57
          1226.10720	         7.29716e+57
          1226.91350	         6.72493e+57
          1227.71980	         9.73980e+57
          1228.52610	         1.35195e+58
          1229.33240	         8.78140e+57
          1230.13870	         1.01457e+58
          1230.94500	         1.06279e+58
          1231.75130	         7.18121e+57
          1232.55760	         8.42867e+57
          1233.36390	         9.49099e+57
          1234.17020	         7.98535e+57
          1234.97650	         9.45981e+57
          1235.78280	         9.44100e+57
          1236.58910	         8.50922e+57
          1237.39540	         1.20040e+58
          1238.20170	         1.04610e+58
          1239.00800	         1.34279e+58
          1239.81430	         1.44406e+58
          1240.62060	         1.17977e+58
          1241.42690	         1.35102e+58
          1242.23320	         1.09740e+58
          1243.03950	         7.43946e+57
          1243.84580	         8.22242e+57
          1244.65210	         1.31224e+58
          1245.45840	         1.19010e+58
          1246.26470	         1.08495e+58
          1247.07100	         8.60464e+57
          1247.87730	         6.29287e+57
          1248.68360	         5.08595e+57
          1249.48990	         8.68575e+57
          1250.29620	         1.03485e+58
          1251.10250	         8.78423e+57
          1251.90880	         6.22414e+57
          1252.71510	         5.36521e+57
          1253.52140	         5.46159e+57
          1254.32770	         7.76313e+57
          1255.13400	         1.25900e+58
          1255.94030	         1.33105e+58
          1256.74660	         1.01220e+58
          1257.55290	         8.76608e+57
          1258.35920	         8.43247e+57
          1259.16550	         4.11685e+57
          1259.97180	         4.36635e+57
          1260.77810	         6.93402e+57
          1261.58440	         1.07546e+58
          1262.39070	         8.56124e+57
          1263.19700	         8.53567e+57
          1264.00330	         9.35711e+57
          1264.80960	         1.04638e+58
          1265.61590	         1.20438e+58
          1266.42220	         1.31416e+58
          1267.22850	         1.17072e+58
          1268.03480	         1.28343e+58
          1268.84110	         1.40513e+58
          1269.64740	         1.43429e+58
          1270.45370	         1.30954e+58
          1271.26000	         1.28884e+58
          1272.06630	         1.27647e+58
          1272.87260	         1.27703e+58
          1273.67890	         1.05538e+58
          1274.48520	         1.13991e+58
          1275.29150	         1.24023e+58
          1276.09780	         1.25882e+58
          1276.90410	         1.45725e+58
          1277.71040	         1.25363e+58
          1278.51670	         1.15553e+58
          1279.32300	         1.35656e+58
          1280.12930	         1.21898e+58
          1280.93560	         1.07839e+58
          1281.74190	         1.19133e+58
          1282.54820	         1.11177e+58
          1283.35450	         1.05014e+58
          1284.16080	         1.05964e+58
          1284.96710	         1.18435e+58
          1285.77340	         1.22708e+58
          1286.57970	         1.20599e+58
          1287.38600	         1.44447e+58
          1288.19230	         1.65921e+58
          1288.99860	         1.53571e+58
          1289.80490	         1.16268e+58
          1290.61120	         1.34318e+58
          1291.41750	         1.46174e+58
          1292.22380	         1.20892e+58
          1293.03010	         1.16990e+58
          1293.83640	         1.09846e+58
          1294.64270	         8.78684e+57
          1295.44900	         7.65280e+57
          1296.25530	         7.70595e+57
          1297.06160	         9.74912e+57
          1297.86790	         9.82076e+57
          1298.67420	         8.68538e+57
          1299.48050	         9.87754e+57
          1300.28680	         1.03451e+58
          1301.09310	         8.02642e+57
          1301.89940	         3.87802e+57
          1302.70570	         4.92763e+57
          1303.51200	         7.50214e+57
          1304.31830	         8.58230e+57
          1305.12460	         9.64788e+57
          1305.93090	         1.06388e+58
          1306.73720	         1.16444e+58
          1307.54350	         1.37885e+58
          1308.34980	         1.32086e+58
          1309.15610	         1.51034e+58
          1309.96240	         1.43565e+58
          1310.76870	         1.05734e+58
          1311.57500	         1.23947e+58
          1312.38130	         1.14396e+58
          1313.18760	         1.33650e+58
          1313.99390	         1.71812e+58
          1314.80020	         1.69757e+58
          1315.60650	         1.55676e+58
          1316.41280	         1.28887e+58
          1317.21910	         9.95171e+57
          1318.02540	         1.27235e+58
          1318.83170	         1.37444e+58
          1319.63800	         1.30773e+58
          1320.44430	         1.23480e+58
          1321.25060	         1.29789e+58
          1322.05690	         1.28837e+58
          1322.86320	         1.10466e+58
          1323.66950	         1.04915e+58
          1324.47580	         9.26061e+57
          1325.28210	         9.69794e+57
          1326.08840	         1.21560e+58
          1326.89470	         1.31866e+58
          1327.70100	         1.11504e+58
          1328.50730	         7.94249e+57
          1329.31360	         8.23701e+57
          1330.11990	         9.74201e+57
          1330.92620	         9.91957e+57
          1331.73250	         1.02108e+58
          1332.53880	         9.37130e+57
          1333.34510	         9.32417e+57
          1334.15140	         9.95915e+57
          1334.95770	         9.37958e+57
          1335.76400	         1.02320e+58
          1336.57030	         1.11259e+58
          1337.37660	         1.09937e+58
          1338.18290	         1.15889e+58
          1338.98920	         1.21118e+58
          1339.79550	         1.13627e+58
          1340.60180	         1.21186e+58
          1341.40810	         1.31132e+58
          1342.21440	         1.13283e+58
          1343.02070	         1.15214e+58
          1343.82700	         1.31176e+58
          1344.63330	         1.24587e+58
          1345.43960	         1.22956e+58
          1346.24590	         1.16492e+58
          1347.05220	         1.30878e+58
          1347.85850	         1.14216e+58
          1348.66480	         1.12585e+58
          1349.47110	         1.26674e+58
          1350.27740	         1.27377e+58
          1351.08370	         1.25133e+58
          1351.89000	         1.18357e+58
          1352.69630	         1.24905e+58
          1353.50260	         1.07338e+58
          1354.30890	         1.09630e+58
          1355.11520	         1.12463e+58
          1355.92150	         1.19733e+58
          1356.72780	         1.29766e+58
          1357.53410	         1.14839e+58
          1358.34040	         1.13259e+58
          1359.14670	         1.10383e+58
          1359.95300	         1.20793e+58
          1360.75930	         1.14771e+58
          1361.56560	         1.00736e+58
          1362.37190	         1.11151e+58
          1363.17820	         1.07289e+58
          1363.98450	         1.06631e+58
          1364.79080	         1.22569e+58
          1365.59710	         1.28211e+58
          1366.40340	         1.25385e+58
          1367.20970	         1.10119e+58
          1368.01600	         9.13838e+57
          1368.82230	         9.68291e+57
          1369.62860	         1.03608e+58
          1370.43490	         9.35200e+57
          1371.24120	         9.34627e+57
          1372.04750	         8.11860e+57
          1372.85380	         9.86613e+57
          1373.66010	         1.06744e+58
          1374.46640	         1.11108e+58
          1375.27270	         1.16102e+58
          1376.07900	         1.08119e+58
          1376.88530	         9.28223e+57
          1377.69160	         9.02583e+57
          1378.49790	         7.61734e+57
          1379.30420	         8.11655e+57
          1380.11050	         9.48304e+57
          1380.91680	         8.15001e+57
          1381.72310	         8.15059e+57
          1382.52940	         9.07331e+57
          1383.33570	         8.80794e+57
          1384.14200	         1.09840e+58
          1384.94830	         1.25053e+58
          1385.75460	         1.20187e+58
          1386.56090	         1.06009e+58
          1387.36720	         1.00860e+58
          1388.17350	         1.28593e+58
          1388.97980	         1.15610e+58
          1389.78610	         8.51070e+57
          1390.59240	         7.88878e+57
          1391.39870	         7.69620e+57
          1392.20500	         8.54732e+57
          1393.01130	         7.11670e+57
          1393.81760	         6.88118e+57
          1394.62390	         7.99309e+57
          1395.43020	         6.66512e+57
          1396.23650	         6.93583e+57
          1397.04280	         7.27533e+57
          1397.84910	         8.93269e+57
          1398.65540	         9.06801e+57
          1399.46170	         9.08217e+57
          1400.26800	         8.40921e+57
          1401.07430	         7.74423e+57
          1401.88060	         8.59883e+57
          1402.68690	         9.93767e+57
          1403.49320	         1.05338e+58
          1404.29950	         9.83377e+57
          1405.10580	         1.08153e+58
          1405.91210	         1.14828e+58
          1406.71840	         1.07395e+58
          1407.52470	         9.70483e+57
          1408.33100	         8.42983e+57
          1409.13730	         1.09613e+58
          1409.94360	         1.15544e+58
          1410.74990	         1.08593e+58
          1411.55620	         9.99214e+57
          1412.36250	         8.98128e+57
          1413.16880	         8.11231e+57
          1413.97510	         7.82987e+57
          1414.78140	         8.12629e+57
          1415.58770	         1.05754e+58
          1416.39400	         1.30387e+58
          1417.20030	         1.40953e+58
          1418.00660	         1.15612e+58
          1418.81290	         1.02532e+58
          1419.61920	         8.95984e+57
          1420.42550	         1.21925e+58
          1421.23180	         1.41997e+58
          1422.03810	         1.33575e+58
          1422.84440	         1.12104e+58
          1423.65070	         1.15717e+58
          1424.45700	         1.09428e+58
          1425.26330	         9.38750e+57
          1426.06960	         8.91147e+57
          1426.87590	         1.01040e+58
          1427.68220	         1.06696e+58
          1428.48850	         1.07505e+58
          1429.29480	         1.04965e+58
          1430.10110	         9.64221e+57
          1430.90740	         8.80964e+57
          1431.71370	         8.25296e+57
          1432.52000	         7.96378e+57
          1433.32630	         7.44674e+57
          1434.13260	         7.10076e+57
          1434.93890	         8.07999e+57
          1435.74520	         9.38913e+57
          1436.55150	         8.65764e+57
          1437.35780	         8.04284e+57
          1438.16410	         8.85203e+57
          1438.97040	         9.42697e+57
          1439.77670	         9.18591e+57
          1440.58300	         7.72659e+57
          1441.38930	         8.07157e+57
          1442.19560	         1.01301e+58
          1443.00190	         9.90703e+57
          1443.80820	         1.02619e+58
          1444.61450	         9.75929e+57
          1445.42080	         8.57051e+57
          1446.22710	         9.28483e+57
          1447.03340	         9.76249e+57
          1447.83970	         1.02650e+58
          1448.64600	         1.05998e+58
          1449.45230	         9.83532e+57
          1450.25860	         1.06003e+58
          1451.06490	         1.02782e+58
          1451.87120	         8.63214e+57
          1452.67750	         8.24026e+57
          1453.48380	         8.56304e+57
          1454.29010	         7.02978e+57
          1455.09640	         6.57439e+57
          1455.90270	         8.18445e+57
          1456.70900	         8.97854e+57
          1457.51530	         1.03241e+58
          1458.32160	         1.16620e+58
          1459.12790	         1.17228e+58
          1459.93420	         1.08007e+58
          1460.74050	         8.35902e+57
          1461.54680	         8.62294e+57
          1462.35310	         9.22852e+57
          1463.15940	         9.83799e+57
          1463.96570	         1.07750e+58
          1464.77200	         1.37226e+58
          1465.57830	         1.19591e+58
          1466.38460	         8.13152e+57
          1467.19090	         6.80454e+57
          1467.99720	         8.32675e+57
          1468.80350	         8.91220e+57
          1469.60980	         8.85008e+57
          1470.41610	         9.99456e+57
          1471.22240	         9.99872e+57
          1472.02870	         1.07948e+58
          1472.83500	         1.06649e+58
          1473.64130	         1.05604e+58
          1474.44760	         1.01267e+58
          1475.25390	         8.66506e+57
          1476.06020	         8.45029e+57
          1476.86650	         7.95675e+57
          1477.67280	         7.87152e+57
          1478.47910	         7.05341e+57
          1479.28540	         7.43703e+57
          1480.09170	         7.48104e+57
          1480.89800	         6.79124e+57
          1481.70430	         7.78098e+57
          1482.51060	         7.59197e+57
          1483.31690	         7.48724e+57
          1484.12320	         7.30121e+57
          1484.92950	         7.55551e+57
          1485.73580	         8.17793e+57
          1486.54210	         9.31848e+57
          1487.34840	         1.02291e+58
          1488.15470	         9.08557e+57
          1488.96100	         9.39497e+57
          1489.76730	         1.01156e+58
