#sample_480_stacked_spectrum_rest_UV-bands_median_H-alpha_noDC.txt
#median Lum: 1.70856e+42
#Rest-frame wavelength (A) | Luminosity (erg/s/A)
#
          1110.00000	         0.00000e+00
          1110.80630	         3.07717e+59
          1111.61260	        -2.58793e+57
          1112.41890	         3.33830e+58
          1113.22520	         1.70495e+58
          1114.03150	        -1.72784e+59
          1114.83780	         1.28473e+59
          1115.64410	         4.35676e+58
          1116.45040	         1.53587e+59
          1117.25670	         9.28913e+58
          1118.06300	         6.50452e+58
          1118.86930	         4.34114e+58
          1119.67560	        -1.09019e+58
          1120.48190	        -3.02040e+58
          1121.28820	        -9.78304e+58
          1122.09450	        -5.26437e+58
          1122.90080	        -1.01353e+59
          1123.70710	         1.25098e+57
          1124.51340	         1.20919e+58
          1125.31970	        -2.93891e+57
          1126.12600	         3.47850e+57
          1126.93230	        -4.83961e+58
          1127.73860	        -7.68507e+58
          1128.54490	        -1.90254e+57
          1129.35120	         5.66679e+58
          1130.15750	        -2.24453e+58
          1130.96380	        -3.28842e+58
          1131.77010	         8.68038e+57
          1132.57640	         2.07949e+58
          1133.38270	         4.59664e+57
          1134.18900	         1.34223e+58
          1134.99530	         2.36217e+58
          1135.80160	         3.23253e+58
          1136.60790	         1.23542e+58
          1137.41420	        -1.50382e+58
          1138.22050	         3.45760e+58
          1139.02680	         3.66680e+58
          1139.83310	         2.66571e+58
          1140.63940	         3.37153e+58
          1141.44570	        -7.39895e+57
          1142.25200	        -2.14509e+58
          1143.05830	        -1.40162e+58
          1143.86460	         5.42575e+56
          1144.67090	         9.08783e+56
          1145.47720	         8.37257e+57
          1146.28350	         1.43165e+58
          1147.08980	         1.62033e+58
          1147.89610	         8.86773e+57
          1148.70240	         1.36301e+58
          1149.50870	         1.55423e+58
          1150.31500	         1.07764e+58
          1151.12130	         2.32920e+57
          1151.92760	         1.59490e+57
          1152.73390	        -5.07998e+57
          1153.54020	        -3.13986e+57
          1154.34650	         2.16644e+58
          1155.15280	         2.28186e+58
          1155.95910	         5.58515e+57
          1156.76540	         1.65521e+58
          1157.57170	        -1.39374e+57
          1158.37800	         1.43375e+58
          1159.18430	         1.29120e+58
          1159.99060	         1.84995e+58
          1160.79690	         1.08874e+58
          1161.60320	         1.35155e+58
          1162.40950	         1.67957e+58
          1163.21580	         2.43611e+58
          1164.02210	         1.57224e+58
          1164.82840	         2.13752e+57
          1165.63470	         2.41826e+58
          1166.44100	         2.65323e+58
          1167.24730	         8.26974e+57
          1168.05360	        -1.30940e+57
          1168.85990	         1.95245e+57
          1169.66620	         1.46107e+58
          1170.47250	         1.43141e+58
          1171.27880	         6.46286e+57
          1172.08510	         1.45308e+58
          1172.89140	         1.56974e+58
          1173.69770	         1.75577e+58
          1174.50400	         1.52206e+58
          1175.31030	         1.92896e+58
          1176.11660	         2.10252e+58
          1176.92290	         1.61728e+58
          1177.72920	         1.25303e+58
          1178.53550	         6.55705e+57
          1179.34180	         9.45929e+56
          1180.14810	         7.08682e+57
          1180.95440	         1.26775e+58
          1181.76070	         6.66318e+57
          1182.56700	         5.75481e+57
          1183.37330	         8.83609e+57
          1184.17960	         1.17970e+58
          1184.98590	         1.06151e+58
          1185.79220	         8.09502e+57
          1186.59850	         1.06991e+58
          1187.40480	         9.16980e+57
          1188.21110	         8.76580e+57
          1189.01740	         8.35234e+57
          1189.82370	         1.36708e+58
          1190.63000	         1.44495e+58
          1191.43630	         1.59532e+58
          1192.24260	         1.13213e+58
          1193.04890	         9.18686e+57
          1193.85520	         1.03841e+58
          1194.66150	         5.07879e+57
          1195.46780	         7.92648e+57
          1196.27410	         1.14311e+58
          1197.08040	         1.01853e+58
          1197.88670	         1.61607e+58
          1198.69300	         1.74166e+58
          1199.49930	         1.64146e+58
          1200.30560	         1.35072e+58
          1201.11190	         1.23077e+58
          1201.91820	         8.91520e+57
          1202.72450	         6.86454e+57
          1203.53080	         1.18002e+58
          1204.33710	         6.39640e+57
          1205.14340	         7.63714e+57
          1205.94970	         5.35937e+57
          1206.75600	         7.25479e+57
          1207.56230	         8.45447e+57
          1208.36860	         1.13460e+58
          1209.17490	         5.16262e+57
          1209.98120	         5.25184e+57
          1210.78750	         7.06780e+57
          1211.59380	         1.29419e+58
          1212.40010	         1.78978e+58
          1213.20640	         2.02843e+58
          1214.01270	         2.15178e+58
          1214.81900	         2.75113e+58
          1215.62530	         4.91622e+58
          1216.43160	         9.49566e+58
          1217.23790	         1.54719e+59
          1218.04420	         1.15205e+59
          1218.85050	         8.59605e+58
          1219.65680	         5.75387e+58
          1220.46310	         3.20867e+58
          1221.26940	         2.49633e+58
          1222.07570	         1.67813e+58
          1222.88200	         1.34415e+58
          1223.68830	         1.24109e+58
          1224.49460	         7.99724e+57
          1225.30090	         5.18998e+57
          1226.10720	         4.42390e+57
          1226.91350	         6.58134e+57
          1227.71980	         1.25376e+58
          1228.52610	         1.51804e+58
          1229.33240	         1.04826e+58
          1230.13870	         6.31815e+57
          1230.94500	         7.50109e+57
          1231.75130	         9.39611e+57
          1232.55760	         9.00801e+57
          1233.36390	         9.44203e+57
          1234.17020	         1.03032e+58
          1234.97650	         9.40177e+57
          1235.78280	         8.17983e+57
          1236.58910	         8.03389e+57
          1237.39540	         1.01233e+58
          1238.20170	         8.35236e+57
          1239.00800	         1.03274e+58
          1239.81430	         1.26346e+58
          1240.62060	         8.63362e+57
          1241.42690	         1.05027e+58
          1242.23320	         1.12572e+58
          1243.03950	         9.77610e+57
          1243.84580	         9.63666e+57
          1244.65210	         6.15409e+57
          1245.45840	         6.67578e+57
          1246.26470	         6.70396e+57
          1247.07100	         5.54753e+57
          1247.87730	         6.80836e+57
          1248.68360	         5.06110e+57
          1249.48990	         7.50230e+57
          1250.29620	         9.98933e+57
          1251.10250	         6.08131e+57
          1251.90880	         2.58688e+57
          1252.71510	         2.99658e+57
          1253.52140	         6.02235e+57
          1254.32770	         1.10233e+58
          1255.13400	         1.35859e+58
          1255.94030	         1.11767e+58
          1256.74660	         1.01752e+58
          1257.55290	         1.17475e+58
          1258.35920	         8.72171e+57
          1259.16550	         3.35000e+57
          1259.97180	         4.87717e+57
          1260.77810	         8.17114e+57
          1261.58440	         1.24078e+58
          1262.39070	         1.00813e+58
          1263.19700	         8.94383e+57
          1264.00330	         9.54648e+57
          1264.80960	         9.33785e+57
          1265.61590	         1.20090e+58
          1266.42220	         1.31788e+58
          1267.22850	         1.13318e+58
          1268.03480	         1.36473e+58
          1268.84110	         1.29615e+58
          1269.64740	         1.14885e+58
          1270.45370	         1.31930e+58
          1271.26000	         1.18240e+58
          1272.06630	         1.14296e+58
          1272.87260	         1.40671e+58
          1273.67890	         1.46761e+58
          1274.48520	         1.28512e+58
          1275.29150	         1.21694e+58
          1276.09780	         1.14229e+58
          1276.90410	         1.28743e+58
          1277.71040	         1.20096e+58
          1278.51670	         1.15333e+58
          1279.32300	         1.07571e+58
          1280.12930	         1.16754e+58
          1280.93560	         1.22711e+58
          1281.74190	         1.15854e+58
          1282.54820	         1.30039e+58
          1283.35450	         1.16690e+58
          1284.16080	         1.03518e+58
          1284.96710	         1.19817e+58
          1285.77340	         1.04310e+58
          1286.57970	         7.90670e+57
          1287.38600	         1.09297e+58
          1288.19230	         1.57759e+58
          1288.99860	         1.46867e+58
          1289.80490	         1.02939e+58
          1290.61120	         1.20531e+58
          1291.41750	         1.42849e+58
          1292.22380	         1.10966e+58
          1293.03010	         1.05623e+58
          1293.83640	         1.37271e+58
          1294.64270	         1.18601e+58
          1295.44900	         7.56004e+57
          1296.25530	         7.60416e+57
          1297.06160	         8.07694e+57
          1297.86790	         8.64167e+57
          1298.67420	         8.62068e+57
          1299.48050	         8.87548e+57
          1300.28680	         1.07296e+58
          1301.09310	         9.16819e+57
          1301.89940	         4.77490e+57
          1302.70570	         8.22709e+57
          1303.51200	         1.02510e+58
          1304.31830	         1.12185e+58
          1305.12460	         1.06486e+58
          1305.93090	         1.07727e+58
          1306.73720	         1.28157e+58
          1307.54350	         1.48726e+58
          1308.34980	         1.48913e+58
          1309.15610	         1.49020e+58
          1309.96240	         1.51293e+58
          1310.76870	         1.35642e+58
          1311.57500	         1.09744e+58
          1312.38130	         1.09097e+58
          1313.18760	         1.24886e+58
          1313.99390	         1.28235e+58
          1314.80020	         1.41420e+58
          1315.60650	         1.45404e+58
          1316.41280	         1.31911e+58
          1317.21910	         1.19699e+58
          1318.02540	         1.26068e+58
          1318.83170	         1.22864e+58
          1319.63800	         1.22122e+58
          1320.44430	         1.16311e+58
          1321.25060	         1.14649e+58
          1322.05690	         1.18806e+58
          1322.86320	         1.32715e+58
          1323.66950	         1.12957e+58
          1324.47580	         9.34573e+57
          1325.28210	         1.02038e+58
          1326.08840	         1.14656e+58
          1326.89470	         1.19031e+58
          1327.70100	         9.22851e+57
          1328.50730	         9.04081e+57
          1329.31360	         1.15152e+58
          1330.11990	         1.12418e+58
          1330.92620	         1.10785e+58
          1331.73250	         1.11189e+58
          1332.53880	         9.65260e+57
          1333.34510	         8.93714e+57
          1334.15140	         8.89055e+57
          1334.95770	         8.30220e+57
          1335.76400	         9.50042e+57
          1336.57030	         1.08735e+58
          1337.37660	         1.02197e+58
          1338.18290	         1.09136e+58
          1338.98920	         1.17837e+58
          1339.79550	         1.19393e+58
          1340.60180	         1.16657e+58
          1341.40810	         1.26928e+58
          1342.21440	         1.17465e+58
          1343.02070	         1.14313e+58
          1343.82700	         1.44392e+58
          1344.63330	         1.40067e+58
          1345.43960	         1.51079e+58
          1346.24590	         1.42316e+58
          1347.05220	         1.22655e+58
          1347.85850	         1.01889e+58
          1348.66480	         1.18980e+58
          1349.47110	         1.36618e+58
          1350.27740	         1.24921e+58
          1351.08370	         1.01029e+58
          1351.89000	         9.21479e+57
          1352.69630	         1.11359e+58
          1353.50260	         1.16691e+58
          1354.30890	         1.23156e+58
          1355.11520	         1.22451e+58
          1355.92150	         1.16264e+58
          1356.72780	         1.14240e+58
          1357.53410	         1.10153e+58
          1358.34040	         1.11006e+58
          1359.14670	         9.95291e+57
          1359.95300	         1.07589e+58
          1360.75930	         1.09661e+58
          1361.56560	         1.05898e+58
          1362.37190	         1.13592e+58
          1363.17820	         1.05330e+58
          1363.98450	         1.15202e+58
          1364.79080	         1.34141e+58
          1365.59710	         1.38095e+58
          1366.40340	         1.18092e+58
          1367.20970	         9.22226e+57
          1368.01600	         9.46379e+57
          1368.82230	         9.32262e+57
          1369.62860	         1.01207e+58
          1370.43490	         1.02414e+58
          1371.24120	         1.03968e+58
          1372.04750	         9.49187e+57
          1372.85380	         1.02408e+58
          1373.66010	         9.87665e+57
          1374.46640	         1.02880e+58
          1375.27270	         1.08092e+58
          1376.07900	         9.82255e+57
          1376.88530	         8.98606e+57
          1377.69160	         9.48218e+57
          1378.49790	         7.40106e+57
          1379.30420	         7.33548e+57
          1380.11050	         8.93404e+57
          1380.91680	         7.08345e+57
          1381.72310	         5.19793e+57
          1382.52940	         6.67232e+57
          1383.33570	         8.20683e+57
          1384.14200	         1.07531e+58
          1384.94830	         1.22431e+58
          1385.75460	         1.09947e+58
          1386.56090	         9.80003e+57
          1387.36720	         1.05296e+58
          1388.17350	         1.25018e+58
          1388.97980	         1.06828e+58
          1389.78610	         9.57593e+57
          1390.59240	         7.56645e+57
          1391.39870	         6.55298e+57
          1392.20500	         7.43999e+57
          1393.01130	         7.60589e+57
          1393.81760	         7.37533e+57
          1394.62390	         7.20556e+57
          1395.43020	         6.61300e+57
          1396.23650	         6.50020e+57
          1397.04280	         8.31403e+57
          1397.84910	         9.25949e+57
          1398.65540	         8.62719e+57
          1399.46170	         8.16091e+57
          1400.26800	         7.43275e+57
          1401.07430	         7.64415e+57
          1401.88060	         8.78773e+57
          1402.68690	         9.64079e+57
          1403.49320	         1.04678e+58
          1404.29950	         1.07276e+58
          1405.10580	         1.13146e+58
          1405.91210	         1.14372e+58
          1406.71840	         9.69128e+57
          1407.52470	         1.00424e+58
          1408.33100	         1.02564e+58
          1409.13730	         9.95713e+57
          1409.94360	         1.11978e+58
          1410.74990	         1.17135e+58
          1411.55620	         1.01267e+58
          1412.36250	         9.57855e+57
          1413.16880	         8.42025e+57
          1413.97510	         7.61138e+57
          1414.78140	         8.38999e+57
          1415.58770	         9.62049e+57
          1416.39400	         1.07939e+58
          1417.20030	         1.17075e+58
          1418.00660	         9.97579e+57
          1418.81290	         9.75526e+57
          1419.61920	         1.06103e+58
          1420.42550	         1.11660e+58
          1421.23180	         1.26509e+58
          1422.03810	         1.13803e+58
          1422.84440	         9.71997e+57
          1423.65070	         1.08662e+58
          1424.45700	         9.60267e+57
          1425.26330	         7.71729e+57
          1426.06960	         9.64686e+57
          1426.87590	         9.87391e+57
          1427.68220	         9.48139e+57
          1428.48850	         1.08519e+58
          1429.29480	         1.02121e+58
          1430.10110	         9.92692e+57
          1430.90740	         8.57562e+57
          1431.71370	         8.20608e+57
          1432.52000	         9.32867e+57
          1433.32630	         8.45899e+57
          1434.13260	         8.16522e+57
          1434.93890	         7.46851e+57
          1435.74520	         8.02446e+57
          1436.55150	         8.57679e+57
          1437.35780	         9.12807e+57
          1438.16410	         9.24465e+57
          1438.97040	         8.23937e+57
          1439.77670	         8.77002e+57
          1440.58300	         9.18163e+57
          1441.38930	         9.78145e+57
          1442.19560	         9.56219e+57
          1443.00190	         9.60837e+57
          1443.80820	         1.09949e+58
          1444.61450	         1.04849e+58
          1445.42080	         9.43530e+57
          1446.22710	         9.94439e+57
          1447.03340	         1.02152e+58
          1447.83970	         9.98457e+57
          1448.64600	         1.04652e+58
          1449.45230	         9.30287e+57
          1450.25860	         9.39785e+57
          1451.06490	         9.21534e+57
          1451.87120	         6.68668e+57
          1452.67750	         6.57902e+57
          1453.48380	         8.30853e+57
          1454.29010	         8.46350e+57
          1455.09640	         8.95477e+57
          1455.90270	         9.37579e+57
          1456.70900	         8.83701e+57
          1457.51530	         9.97712e+57
          1458.32160	         1.17672e+58
          1459.12790	         1.19834e+58
          1459.93420	         1.12085e+58
          1460.74050	         7.64871e+57
          1461.54680	         8.21664e+57
          1462.35310	         7.95228e+57
          1463.15940	         8.55135e+57
          1463.96570	         9.64849e+57
          1464.77200	         1.07082e+58
          1465.57830	         1.02727e+58
          1466.38460	         9.17577e+57
          1467.19090	         8.18481e+57
          1467.99720	         8.57276e+57
          1468.80350	         8.96070e+57
          1469.60980	         9.33104e+57
          1470.41610	         9.90225e+57
          1471.22240	         8.95805e+57
          1472.02870	         1.00603e+58
          1472.83500	         1.04988e+58
          1473.64130	         9.27559e+57
          1474.44760	         8.97235e+57
          1475.25390	         9.89884e+57
          1476.06020	         8.95672e+57
          1476.86650	         6.95653e+57
          1477.67280	         7.07143e+57
          1478.47910	         7.47561e+57
          1479.28540	         6.62279e+57
          1480.09170	         8.03523e+57
          1480.89800	         8.75815e+57
          1481.70430	         9.24835e+57
          1482.51060	         8.86132e+57
          1483.31690	         8.50045e+57
          1484.12320	         8.54712e+57
          1484.92950	         7.54591e+57
          1485.73580	         8.60654e+57
          1486.54210	         9.48674e+57
          1487.34840	         9.27669e+57
          1488.15470	         7.56969e+57
          1488.96100	         8.00313e+57
          1489.76730	         9.37999e+57
