#sample_179_stacked_spectrum_rest_UV-bands_median_H-alpha_noDC.txt
#median Lum: 1.71029e+42
#Rest-frame wavelength (A) | Luminosity (erg/s/A)
#
          1110.00000	         0.00000e+00
          1110.80630	        -3.05956e+59
          1111.61260	         8.12359e+58
          1112.41890	        -1.93930e+59
          1113.22520	        -2.31179e+58
          1114.03150	        -1.53114e+59
          1114.83780	         1.65515e+59
          1115.64410	         1.56198e+59
          1116.45040	         1.74446e+59
          1117.25670	         8.89969e+58
          1118.06300	         1.95190e+59
          1118.86930	        -7.17802e+58
          1119.67560	         5.53663e+58
          1120.48190	         9.37686e+57
          1121.28820	        -1.45986e+59
          1122.09450	         2.04336e+57
          1122.90080	         2.74974e+57
          1123.70710	         2.97156e+58
          1124.51340	         4.95290e+58
          1125.31970	         2.68069e+58
          1126.12600	         4.87957e+58
          1126.93230	        -2.42183e+58
          1127.73860	        -6.44908e+58
          1128.54490	         2.67403e+58
          1129.35120	         1.44297e+58
          1130.15750	         5.37593e+57
          1130.96380	        -3.65856e+58
          1131.77010	         4.34959e+58
          1132.57640	         1.68667e+58
          1133.38270	         1.95152e+58
          1134.18900	         2.59477e+58
          1134.99530	        -8.19782e+56
          1135.80160	        -3.28473e+57
          1136.60790	         1.81805e+58
          1137.41420	        -8.87187e+57
          1138.22050	         3.76223e+58
          1139.02680	         2.92232e+58
          1139.83310	         3.15432e+58
          1140.63940	         2.07567e+58
          1141.44570	        -8.59705e+57
          1142.25200	        -2.27936e+58
          1143.05830	        -8.01350e+56
          1143.86460	         1.18108e+58
          1144.67090	         2.56982e+58
          1145.47720	         1.31326e+58
          1146.28350	         8.77659e+57
          1147.08980	         2.22608e+58
          1147.89610	         3.07597e+58
          1148.70240	         2.38208e+58
          1149.50870	         1.62439e+58
          1150.31500	         1.44674e+58
          1151.12130	         1.44431e+58
          1151.92760	         4.27803e+57
          1152.73390	        -4.34483e+57
          1153.54020	         7.37088e+57
          1154.34650	         2.57020e+58
          1155.15280	         2.64778e+58
          1155.95910	         2.10769e+58
          1156.76540	         1.40206e+58
          1157.57170	         3.24564e+56
          1158.37800	        -6.79062e+57
          1159.18430	         1.20623e+57
          1159.99060	         6.10260e+57
          1160.79690	         9.97968e+57
          1161.60320	         2.23339e+58
          1162.40950	         1.48903e+58
          1163.21580	         9.27147e+57
          1164.02210	         2.11879e+58
          1164.82840	         1.54109e+58
          1165.63470	         2.88335e+58
          1166.44100	         3.13954e+58
          1167.24730	         2.65124e+58
          1168.05360	         1.97562e+58
          1168.85990	         1.12244e+58
          1169.66620	         4.89711e+57
          1170.47250	         1.20558e+58
          1171.27880	         8.60331e+57
          1172.08510	         1.41082e+58
          1172.89140	         1.86174e+58
          1173.69770	         1.01300e+58
          1174.50400	         1.66678e+58
          1175.31030	         1.98609e+58
          1176.11660	         1.78706e+58
          1176.92290	         1.17974e+58
          1177.72920	         1.15597e+58
          1178.53550	         4.72814e+57
          1179.34180	         4.48455e+57
          1180.14810	         7.18521e+57
          1180.95440	         8.65723e+57
          1181.76070	         1.03902e+58
          1182.56700	         7.24370e+57
          1183.37330	         4.93086e+57
          1184.17960	         1.45341e+58
          1184.98590	         1.09494e+58
          1185.79220	         4.02119e+57
          1186.59850	         7.50363e+57
          1187.40480	         1.07329e+58
          1188.21110	         1.49783e+58
          1189.01740	         1.34169e+58
          1189.82370	         1.51053e+58
          1190.63000	         1.23649e+58
          1191.43630	         1.07105e+58
          1192.24260	         1.14047e+58
          1193.04890	         1.04731e+58
          1193.85520	         7.20440e+57
          1194.66150	         2.58005e+57
          1195.46780	         1.29960e+58
          1196.27410	         1.85451e+58
          1197.08040	         1.45880e+58
          1197.88670	         1.49769e+58
          1198.69300	         1.61798e+58
          1199.49930	         1.47369e+58
          1200.30560	         1.57388e+58
          1201.11190	         1.69950e+58
          1201.91820	         1.06788e+58
          1202.72450	         8.20049e+57
          1203.53080	         1.56537e+58
          1204.33710	         6.71299e+57
          1205.14340	         7.11651e+57
          1205.94970	         4.95842e+57
          1206.75600	         5.02420e+57
          1207.56230	         5.26917e+57
          1208.36860	         7.97794e+57
          1209.17490	         2.59737e+57
          1209.98120	         6.14766e+57
          1210.78750	         8.53819e+57
          1211.59380	         1.08216e+58
          1212.40010	         1.87798e+58
          1213.20640	         1.86793e+58
          1214.01270	         2.16678e+58
          1214.81900	         2.90972e+58
          1215.62530	         4.67156e+58
          1216.43160	         9.28762e+58
          1217.23790	         1.49056e+59
          1218.04420	         1.11573e+59
          1218.85050	         8.53618e+58
          1219.65680	         5.65196e+58
          1220.46310	         3.19844e+58
          1221.26940	         2.11812e+58
          1222.07570	         1.16052e+58
          1222.88200	         1.17122e+58
          1223.68830	         1.23613e+58
          1224.49460	         6.19222e+57
          1225.30090	         8.21152e+57
          1226.10720	         7.36442e+57
          1226.91350	         8.54479e+57
          1227.71980	         1.01521e+58
          1228.52610	         1.12890e+58
          1229.33240	         1.10713e+58
          1230.13870	         1.01784e+58
          1230.94500	         9.60664e+57
          1231.75130	         7.43573e+57
          1232.55760	         6.14955e+57
          1233.36390	         7.02558e+57
          1234.17020	         6.94027e+57
          1234.97650	         5.63188e+57
          1235.78280	         8.39287e+57
          1236.58910	         1.05245e+58
          1237.39540	         1.13906e+58
          1238.20170	         1.01889e+58
          1239.00800	         1.06014e+58
          1239.81430	         1.54730e+58
          1240.62060	         1.42338e+58
          1241.42690	         9.85390e+57
          1242.23320	         1.14776e+58
          1243.03950	         1.07732e+58
          1243.84580	         9.52417e+57
          1244.65210	         9.54021e+57
          1245.45840	         1.08175e+58
          1246.26470	         8.67946e+57
          1247.07100	         6.29018e+57
          1247.87730	         6.18860e+57
          1248.68360	         5.07812e+57
          1249.48990	         8.80633e+57
          1250.29620	         1.17962e+58
          1251.10250	         9.91775e+57
          1251.90880	         7.55188e+57
          1252.71510	         8.22671e+57
          1253.52140	         6.30345e+57
          1254.32770	         9.35822e+57
          1255.13400	         1.27730e+58
          1255.94030	         9.28016e+57
          1256.74660	         9.69648e+57
          1257.55290	         9.69140e+57
          1258.35920	         5.50851e+57
          1259.16550	         5.19028e+57
          1259.97180	         5.40779e+57
          1260.77810	         9.33806e+57
          1261.58440	         1.12018e+58
          1262.39070	         6.68955e+57
          1263.19700	         7.89852e+57
          1264.00330	         1.06917e+58
          1264.80960	         1.16141e+58
          1265.61590	         1.34169e+58
          1266.42220	         1.21458e+58
          1267.22850	         9.40599e+57
          1268.03480	         1.10120e+58
          1268.84110	         1.18252e+58
          1269.64740	         1.04021e+58
          1270.45370	         1.22423e+58
          1271.26000	         1.31430e+58
          1272.06630	         9.66191e+57
          1272.87260	         9.83350e+57
          1273.67890	         1.05544e+58
          1274.48520	         1.04648e+58
          1275.29150	         1.14210e+58
          1276.09780	         1.07810e+58
          1276.90410	         1.32206e+58
          1277.71040	         1.26323e+58
          1278.51670	         1.26415e+58
          1279.32300	         1.41310e+58
          1280.12930	         1.40504e+58
          1280.93560	         1.36312e+58
          1281.74190	         1.23499e+58
          1282.54820	         1.14457e+58
          1283.35450	         1.06514e+58
          1284.16080	         1.07363e+58
          1284.96710	         1.26102e+58
          1285.77340	         1.16929e+58
          1286.57970	         1.01245e+58
          1287.38600	         1.36741e+58
          1288.19230	         1.63301e+58
          1288.99860	         1.43769e+58
          1289.80490	         9.14694e+57
          1290.61120	         1.30481e+58
          1291.41750	         1.45441e+58
          1292.22380	         1.23090e+58
          1293.03010	         1.16224e+58
          1293.83640	         1.08743e+58
          1294.64270	         8.88627e+57
          1295.44900	         7.37047e+57
          1296.25530	         7.55813e+57
          1297.06160	         9.41075e+57
          1297.86790	         1.08075e+58
          1298.67420	         9.12551e+57
          1299.48050	         9.31080e+57
          1300.28680	         9.50501e+57
          1301.09310	         6.99149e+57
          1301.89940	         5.50184e+57
          1302.70570	         8.09919e+57
          1303.51200	         8.97080e+57
          1304.31830	         9.68295e+57
          1305.12460	         1.07877e+58
          1305.93090	         1.11348e+58
          1306.73720	         1.32734e+58
          1307.54350	         1.44730e+58
          1308.34980	         1.52000e+58
          1309.15610	         1.44933e+58
          1309.96240	         1.40205e+58
          1310.76870	         1.54592e+58
          1311.57500	         1.30142e+58
          1312.38130	         1.10302e+58
          1313.18760	         1.25502e+58
          1313.99390	         1.57439e+58
          1314.80020	         1.73870e+58
          1315.60650	         1.68883e+58
          1316.41280	         1.60705e+58
          1317.21910	         1.28847e+58
          1318.02540	         1.12001e+58
          1318.83170	         1.28644e+58
          1319.63800	         1.27726e+58
          1320.44430	         1.11999e+58
          1321.25060	         1.13361e+58
          1322.05690	         1.12067e+58
          1322.86320	         1.09992e+58
          1323.66950	         9.50002e+57
          1324.47580	         9.11101e+57
          1325.28210	         1.01683e+58
          1326.08840	         9.64648e+57
          1326.89470	         1.22533e+58
          1327.70100	         1.12773e+58
          1328.50730	         9.10312e+57
          1329.31360	         1.04869e+58
          1330.11990	         1.02022e+58
          1330.92620	         8.12302e+57
          1331.73250	         1.09382e+58
          1332.53880	         1.21511e+58
          1333.34510	         9.91900e+57
          1334.15140	         9.17323e+57
          1334.95770	         9.43458e+57
          1335.76400	         1.07703e+58
          1336.57030	         1.14068e+58
          1337.37660	         1.14110e+58
          1338.18290	         1.11236e+58
          1338.98920	         1.26833e+58
          1339.79550	         1.20908e+58
          1340.60180	         1.13714e+58
          1341.40810	         1.40347e+58
          1342.21440	         1.32201e+58
          1343.02070	         1.21119e+58
          1343.82700	         1.24622e+58
          1344.63330	         1.10409e+58
          1345.43960	         9.60113e+57
          1346.24590	         1.17944e+58
          1347.05220	         1.25855e+58
          1347.85850	         9.97912e+57
          1348.66480	         1.11500e+58
          1349.47110	         1.32907e+58
          1350.27740	         1.21118e+58
          1351.08370	         1.16058e+58
          1351.89000	         1.11266e+58
          1352.69630	         1.20561e+58
          1353.50260	         1.28042e+58
          1354.30890	         1.33024e+58
          1355.11520	         1.26209e+58
          1355.92150	         1.09659e+58
          1356.72780	         9.76144e+57
          1357.53410	         9.44913e+57
          1358.34040	         1.09612e+58
          1359.14670	         1.18563e+58
          1359.95300	         1.18315e+58
          1360.75930	         1.14666e+58
          1361.56560	         9.98719e+57
          1362.37190	         1.04928e+58
          1363.17820	         1.00761e+58
          1363.98450	         1.02983e+58
          1364.79080	         1.28743e+58
          1365.59710	         1.39024e+58
          1366.40340	         1.25592e+58
          1367.20970	         9.77539e+57
          1368.01600	         9.61534e+57
          1368.82230	         1.04870e+58
          1369.62860	         1.01096e+58
          1370.43490	         8.62115e+57
          1371.24120	         9.15881e+57
          1372.04750	         9.94627e+57
          1372.85380	         1.09502e+58
          1373.66010	         1.14774e+58
          1374.46640	         1.04166e+58
          1375.27270	         9.75659e+57
          1376.07900	         8.89946e+57
          1376.88530	         9.30700e+57
          1377.69160	         9.60033e+57
          1378.49790	         7.02741e+57
          1379.30420	         7.76686e+57
          1380.11050	         8.25967e+57
          1380.91680	         7.04135e+57
          1381.72310	         8.04147e+57
          1382.52940	         8.10614e+57
          1383.33570	         8.46182e+57
          1384.14200	         9.97287e+57
          1384.94830	         1.04390e+58
          1385.75460	         1.11270e+58
          1386.56090	         1.18964e+58
          1387.36720	         1.07389e+58
          1388.17350	         1.25228e+58
          1388.97980	         1.31252e+58
          1389.78610	         1.09936e+58
          1390.59240	         8.36412e+57
          1391.39870	         7.56802e+57
          1392.20500	         7.99282e+57
          1393.01130	         7.42438e+57
          1393.81760	         7.96507e+57
          1394.62390	         8.36322e+57
          1395.43020	         6.78111e+57
          1396.23650	         6.57502e+57
          1397.04280	         7.85031e+57
          1397.84910	         8.25413e+57
          1398.65540	         8.55428e+57
          1399.46170	         1.01463e+58
          1400.26800	         9.94243e+57
          1401.07430	         8.24185e+57
          1401.88060	         8.39290e+57
          1402.68690	         8.58472e+57
          1403.49320	         9.47322e+57
          1404.29950	         9.73011e+57
          1405.10580	         1.03697e+58
          1405.91210	         1.10244e+58
          1406.71840	         1.08682e+58
          1407.52470	         1.08504e+58
          1408.33100	         1.06306e+58
          1409.13730	         1.20735e+58
          1409.94360	         1.15455e+58
          1410.74990	         1.08174e+58
          1411.55620	         9.26249e+57
          1412.36250	         8.46542e+57
          1413.16880	         8.91325e+57
          1413.97510	         8.45475e+57
          1414.78140	         8.24033e+57
          1415.58770	         9.18031e+57
          1416.39400	         1.06124e+58
          1417.20030	         1.20729e+58
          1418.00660	         1.02814e+58
          1418.81290	         1.03165e+58
          1419.61920	         9.88410e+57
          1420.42550	         1.18611e+58
          1421.23180	         1.44793e+58
          1422.03810	         1.28811e+58
          1422.84440	         1.17946e+58
          1423.65070	         1.27360e+58
          1424.45700	         1.10544e+58
          1425.26330	         8.40416e+57
          1426.06960	         8.88620e+57
          1426.87590	         1.03574e+58
          1427.68220	         9.65557e+57
          1428.48850	         1.05762e+58
          1429.29480	         1.05349e+58
          1430.10110	         1.06665e+58
          1430.90740	         8.66655e+57
          1431.71370	         7.82874e+57
          1432.52000	         7.74160e+57
          1433.32630	         7.55893e+57
          1434.13260	         8.15872e+57
          1434.93890	         8.14817e+57
          1435.74520	         8.25409e+57
          1436.55150	         9.29908e+57
          1437.35780	         8.83839e+57
          1438.16410	         8.31351e+57
          1438.97040	         8.32980e+57
          1439.77670	         9.11958e+57
          1440.58300	         9.41324e+57
          1441.38930	         9.57001e+57
          1442.19560	         9.87563e+57
          1443.00190	         1.00120e+58
          1443.80820	         1.08804e+58
          1444.61450	         9.60857e+57
          1445.42080	         8.35791e+57
          1446.22710	         9.97463e+57
          1447.03340	         1.01330e+58
          1447.83970	         1.03668e+58
          1448.64600	         1.03699e+58
          1449.45230	         9.75673e+57
          1450.25860	         1.06901e+58
          1451.06490	         1.02313e+58
          1451.87120	         8.54741e+57
          1452.67750	         8.24940e+57
          1453.48380	         8.73075e+57
          1454.29010	         7.74315e+57
          1455.09640	         7.50977e+57
          1455.90270	         8.22679e+57
          1456.70900	         8.64529e+57
          1457.51530	         1.02152e+58
          1458.32160	         1.23048e+58
          1459.12790	         1.17188e+58
          1459.93420	         1.04979e+58
          1460.74050	         9.73449e+57
          1461.54680	         1.00201e+58
          1462.35310	         8.91577e+57
          1463.15940	         1.00116e+58
          1463.96570	         1.18859e+58
          1464.77200	         1.23840e+58
          1465.57830	         1.08961e+58
          1466.38460	         9.50952e+57
          1467.19090	         7.78933e+57
          1467.99720	         7.80677e+57
          1468.80350	         9.66612e+57
          1469.60980	         1.03209e+58
          1470.41610	         1.01425e+58
          1471.22240	         9.60037e+57
          1472.02870	         1.00844e+58
          1472.83500	         9.84965e+57
          1473.64130	         8.98577e+57
          1474.44760	         9.77240e+57
          1475.25390	         9.99331e+57
          1476.06020	         8.98011e+57
          1476.86650	         9.47271e+57
          1477.67280	         9.43164e+57
          1478.47910	         7.79327e+57
          1479.28540	         7.07202e+57
          1480.09170	         8.71441e+57
          1480.89800	         9.15062e+57
          1481.70430	         8.72160e+57
          1482.51060	         8.26317e+57
          1483.31690	         7.50752e+57
          1484.12320	         7.83740e+57
          1484.92950	         8.51269e+57
          1485.73580	         9.22493e+57
          1486.54210	         9.49723e+57
          1487.34840	         8.66589e+57
          1488.15470	         8.29125e+57
          1488.96100	         8.10406e+57
          1489.76730	         9.18888e+57
