#sample_258_stacked_spectrum_rest_UV-bands_median_H-alpha_noDC.txt
#median Lum: 1.69369e+42
#Rest-frame wavelength (A) | Luminosity (erg/s/A)
#
          1110.00000	         0.00000e+00
          1110.80630	         1.69788e+59
          1111.61260	         1.95114e+59
          1112.41890	        -1.21460e+59
          1113.22520	        -3.85964e+58
          1114.03150	        -9.55490e+58
          1114.83780	         2.68018e+59
          1115.64410	         2.13756e+59
          1116.45040	         1.29893e+59
          1117.25670	        -1.94316e+58
          1118.06300	         1.11579e+59
          1118.86930	         1.01210e+58
          1119.67560	         4.54551e+58
          1120.48190	        -3.18413e+58
          1121.28820	        -1.25733e+59
          1122.09450	         2.08316e+58
          1122.90080	         5.13873e+58
          1123.70710	         5.93891e+58
          1124.51340	         6.25628e+58
          1125.31970	        -1.78541e+58
          1126.12600	        -3.93811e+58
          1126.93230	        -4.37201e+58
          1127.73860	        -4.84508e+58
          1128.54490	        -1.76595e+57
          1129.35120	         2.80033e+58
          1130.15750	        -5.05542e+57
          1130.96380	        -3.51991e+58
          1131.77010	         3.56740e+58
          1132.57640	         1.26492e+58
          1133.38270	         2.29703e+58
          1134.18900	        -1.59615e+58
          1134.99530	         3.28011e+58
          1135.80160	         1.14429e+58
          1136.60790	         2.46821e+57
          1137.41420	        -4.74575e+56
          1138.22050	         5.68533e+58
          1139.02680	         4.11481e+58
          1139.83310	         3.95992e+58
          1140.63940	         3.96758e+58
          1141.44570	        -1.01262e+58
          1142.25200	        -2.45057e+58
          1143.05830	        -4.05901e+57
          1143.86460	         2.40574e+58
          1144.67090	         2.77233e+58
          1145.47720	         2.12250e+57
          1146.28350	         1.02815e+58
          1147.08980	         2.11168e+58
          1147.89610	         2.61614e+58
          1148.70240	         2.66972e+58
          1149.50870	         1.72608e+58
          1150.31500	         1.33210e+57
          1151.12130	         3.04817e+57
          1151.92760	         6.22495e+57
          1152.73390	         7.69606e+57
          1153.54020	         1.19239e+58
          1154.34650	         3.13606e+58
          1155.15280	         3.85536e+58
          1155.95910	         1.66599e+58
          1156.76540	         4.55265e+57
          1157.57170	         1.05722e+57
          1158.37800	        -1.06172e+58
          1159.18430	        -6.67263e+57
          1159.99060	         8.92620e+57
          1160.79690	         6.57566e+57
          1161.60320	         1.84325e+58
          1162.40950	         1.57227e+58
          1163.21580	         1.67316e+58
          1164.02210	         1.57630e+58
          1164.82840	         1.32837e+58
          1165.63470	         2.55733e+58
          1166.44100	         3.14937e+58
          1167.24730	         1.95342e+58
          1168.05360	         6.81190e+57
          1168.85990	         8.77553e+57
          1169.66620	         1.02864e+58
          1170.47250	         4.42679e+57
          1171.27880	         3.27651e+57
          1172.08510	         9.96663e+57
          1172.89140	         5.03947e+57
          1173.69770	         7.28694e+57
          1174.50400	         1.19964e+58
          1175.31030	         1.49445e+58
          1176.11660	         2.11152e+58
          1176.92290	         1.47561e+58
          1177.72920	         1.06078e+58
          1178.53550	         6.83343e+57
          1179.34180	         3.92444e+57
          1180.14810	        -3.41278e+57
          1180.95440	         1.99405e+57
          1181.76070	         5.67520e+57
          1182.56700	         5.70046e+57
          1183.37330	         6.81966e+57
          1184.17960	         9.70168e+57
          1184.98590	         1.24557e+58
          1185.79220	         7.98921e+57
          1186.59850	         8.50580e+57
          1187.40480	         1.00410e+58
          1188.21110	         1.16028e+58
          1189.01740	         1.20541e+58
          1189.82370	         6.88401e+57
          1190.63000	         1.13790e+58
          1191.43630	         1.41730e+58
          1192.24260	         9.77887e+57
          1193.04890	         9.66099e+57
          1193.85520	         1.21072e+58
          1194.66150	         1.02163e+58
          1195.46780	         1.00378e+58
          1196.27410	         1.11228e+58
          1197.08040	         9.45915e+57
          1197.88670	         1.05787e+58
          1198.69300	         1.35017e+58
          1199.49930	         1.40465e+58
          1200.30560	         1.09604e+58
          1201.11190	         1.41260e+58
          1201.91820	         1.65085e+58
          1202.72450	         9.94008e+57
          1203.53080	         1.39750e+58
          1204.33710	         1.04810e+58
          1205.14340	         9.75217e+57
          1205.94970	         8.53884e+57
          1206.75600	         8.60568e+57
          1207.56230	         4.73403e+57
          1208.36860	         7.84105e+57
          1209.17490	         3.05089e+57
          1209.98120	         4.22672e+57
          1210.78750	         7.88283e+57
          1211.59380	         1.20483e+58
          1212.40010	         2.18208e+58
          1213.20640	         2.23895e+58
          1214.01270	         2.05458e+58
          1214.81900	         2.71611e+58
          1215.62530	         4.83588e+58
          1216.43160	         9.08982e+58
          1217.23790	         1.50235e+59
          1218.04420	         1.14331e+59
          1218.85050	         8.49844e+58
          1219.65680	         5.79167e+58
          1220.46310	         3.52439e+58
          1221.26940	         2.39362e+58
          1222.07570	         1.34824e+58
          1222.88200	         1.21587e+58
          1223.68830	         1.04413e+58
          1224.49460	         7.11933e+57
          1225.30090	         5.63321e+57
          1226.10720	         5.84778e+57
          1226.91350	         5.34491e+57
          1227.71980	         9.83110e+57
          1228.52610	         1.29040e+58
          1229.33240	         1.09148e+58
          1230.13870	         1.19440e+58
          1230.94500	         9.65003e+57
          1231.75130	         6.18496e+57
          1232.55760	         7.03766e+57
          1233.36390	         9.31880e+57
          1234.17020	         8.22191e+57
          1234.97650	         9.16564e+57
          1235.78280	         1.00118e+58
          1236.58910	         1.10646e+58
          1237.39540	         1.19858e+58
          1238.20170	         1.24304e+58
          1239.00800	         1.32988e+58
          1239.81430	         1.45998e+58
          1240.62060	         1.30123e+58
          1241.42690	         1.23288e+58
          1242.23320	         1.14651e+58
          1243.03950	         7.95852e+57
          1243.84580	         8.21352e+57
          1244.65210	         8.95301e+57
          1245.45840	         1.15099e+58
          1246.26470	         1.21626e+58
          1247.07100	         7.67240e+57
          1247.87730	         7.80631e+57
          1248.68360	         8.43105e+57
          1249.48990	         7.38449e+57
          1250.29620	         7.07714e+57
          1251.10250	         6.65101e+57
          1251.90880	         4.41924e+57
          1252.71510	         3.77386e+57
          1253.52140	         5.56594e+57
          1254.32770	         1.04488e+58
          1255.13400	         1.50947e+58
          1255.94030	         1.26312e+58
          1256.74660	         7.82263e+57
          1257.55290	         9.77995e+57
          1258.35920	         8.90120e+57
          1259.16550	         6.62295e+57
          1259.97180	         7.05245e+57
          1260.77810	         1.02826e+58
          1261.58440	         1.11683e+58
          1262.39070	         7.21304e+57
          1263.19700	         7.31549e+57
          1264.00330	         9.89291e+57
          1264.80960	         1.08396e+58
          1265.61590	         1.39269e+58
          1266.42220	         1.41164e+58
          1267.22850	         1.16888e+58
          1268.03480	         1.56093e+58
          1268.84110	         1.50860e+58
          1269.64740	         1.12397e+58
          1270.45370	         1.27911e+58
          1271.26000	         1.22948e+58
          1272.06630	         1.14557e+58
          1272.87260	         1.11579e+58
          1273.67890	         1.19606e+58
          1274.48520	         1.28277e+58
          1275.29150	         1.33508e+58
          1276.09780	         1.26516e+58
          1276.90410	         1.48529e+58
          1277.71040	         1.39741e+58
          1278.51670	         1.06691e+58
          1279.32300	         1.19994e+58
          1280.12930	         1.25505e+58
          1280.93560	         1.02232e+58
          1281.74190	         1.20222e+58
          1282.54820	         1.23443e+58
          1283.35450	         1.00394e+58
          1284.16080	         1.07925e+58
          1284.96710	         1.35652e+58
          1285.77340	         1.08421e+58
          1286.57970	         1.10269e+58
          1287.38600	         1.44219e+58
          1288.19230	         1.76532e+58
          1288.99860	         1.52080e+58
          1289.80490	         1.18921e+58
          1290.61120	         1.44937e+58
          1291.41750	         1.25977e+58
          1292.22380	         1.00959e+58
          1293.03010	         1.05564e+58
          1293.83640	         1.22553e+58
          1294.64270	         1.04954e+58
          1295.44900	         7.55511e+57
          1296.25530	         6.94867e+57
          1297.06160	         8.48530e+57
          1297.86790	         8.74668e+57
          1298.67420	         8.18953e+57
          1299.48050	         9.23341e+57
          1300.28680	         9.77149e+57
          1301.09310	         8.01226e+57
          1301.89940	         3.03828e+57
          1302.70570	         5.11580e+57
          1303.51200	         8.07229e+57
          1304.31830	         1.09611e+58
          1305.12460	         9.83204e+57
          1305.93090	         9.95249e+57
          1306.73720	         1.39055e+58
          1307.54350	         1.65088e+58
          1308.34980	         1.44905e+58
          1309.15610	         1.36774e+58
          1309.96240	         1.37152e+58
          1310.76870	         1.33503e+58
          1311.57500	         1.14844e+58
          1312.38130	         1.01743e+58
          1313.18760	         1.54725e+58
          1313.99390	         1.86362e+58
          1314.80020	         1.83396e+58
          1315.60650	         1.65885e+58
          1316.41280	         1.28634e+58
          1317.21910	         9.77852e+57
          1318.02540	         1.06623e+58
          1318.83170	         1.20880e+58
          1319.63800	         1.28065e+58
          1320.44430	         1.07613e+58
          1321.25060	         1.09854e+58
          1322.05690	         1.17887e+58
          1322.86320	         1.17589e+58
          1323.66950	         1.20829e+58
          1324.47580	         1.06519e+58
          1325.28210	         9.35851e+57
          1326.08840	         1.00446e+58
          1326.89470	         1.30927e+58
          1327.70100	         1.13042e+58
          1328.50730	         8.56658e+57
          1329.31360	         9.55605e+57
          1330.11990	         9.00523e+57
          1330.92620	         7.93741e+57
          1331.73250	         8.37257e+57
          1332.53880	         7.99648e+57
          1333.34510	         8.35096e+57
          1334.15140	         8.74402e+57
          1334.95770	         9.41532e+57
          1335.76400	         1.10737e+58
          1336.57030	         1.32462e+58
          1337.37660	         1.22727e+58
          1338.18290	         1.13411e+58
          1338.98920	         1.26169e+58
          1339.79550	         1.19876e+58
          1340.60180	         1.07464e+58
          1341.40810	         1.21805e+58
          1342.21440	         1.13139e+58
          1343.02070	         1.15959e+58
          1343.82700	         1.32065e+58
          1344.63330	         1.33764e+58
          1345.43960	         1.41236e+58
          1346.24590	         1.16753e+58
          1347.05220	         1.10721e+58
          1347.85850	         1.14533e+58
          1348.66480	         1.15781e+58
          1349.47110	         1.29161e+58
          1350.27740	         1.16350e+58
          1351.08370	         1.11014e+58
          1351.89000	         1.27112e+58
          1352.69630	         1.16277e+58
          1353.50260	         1.04266e+58
          1354.30890	         1.11148e+58
          1355.11520	         1.14131e+58
          1355.92150	         1.13542e+58
          1356.72780	         1.08000e+58
          1357.53410	         1.03088e+58
          1358.34040	         1.16340e+58
          1359.14670	         1.14764e+58
          1359.95300	         1.19140e+58
          1360.75930	         1.26697e+58
          1361.56560	         1.17126e+58
          1362.37190	         1.15121e+58
          1363.17820	         1.05687e+58
          1363.98450	         1.15366e+58
          1364.79080	         1.25538e+58
          1365.59710	         1.24130e+58
          1366.40340	         1.11698e+58
          1367.20970	         9.58339e+57
          1368.01600	         9.22041e+57
          1368.82230	         1.10707e+58
          1369.62860	         1.17269e+58
          1370.43490	         9.72993e+57
          1371.24120	         1.07615e+58
          1372.04750	         9.89565e+57
          1372.85380	         1.00203e+58
          1373.66010	         9.66210e+57
          1374.46640	         1.03939e+58
          1375.27270	         1.11611e+58
          1376.07900	         1.06128e+58
          1376.88530	         8.20309e+57
          1377.69160	         8.20513e+57
          1378.49790	         7.29576e+57
          1379.30420	         7.65726e+57
          1380.11050	         9.39740e+57
          1380.91680	         8.16373e+57
          1381.72310	         6.91125e+57
          1382.52940	         7.68421e+57
          1383.33570	         8.61400e+57
          1384.14200	         8.43863e+57
          1384.94830	         8.26165e+57
          1385.75460	         9.54884e+57
          1386.56090	         1.06724e+58
          1387.36720	         1.03517e+58
          1388.17350	         1.13160e+58
          1388.97980	         1.12840e+58
          1389.78610	         1.07812e+58
          1390.59240	         6.76789e+57
          1391.39870	         6.21569e+57
          1392.20500	         8.09880e+57
          1393.01130	         8.19137e+57
          1393.81760	         7.58205e+57
          1394.62390	         7.55450e+57
          1395.43020	         6.29489e+57
          1396.23650	         6.04136e+57
          1397.04280	         6.77112e+57
          1397.84910	         9.10097e+57
          1398.65540	         9.96533e+57
          1399.46170	         9.27684e+57
          1400.26800	         8.22473e+57
          1401.07430	         7.86745e+57
          1401.88060	         9.04711e+57
          1402.68690	         9.70156e+57
          1403.49320	         1.02494e+58
          1404.29950	         9.78574e+57
          1405.10580	         1.00065e+58
          1405.91210	         9.89250e+57
          1406.71840	         9.04054e+57
          1407.52470	         9.36254e+57
          1408.33100	         9.90360e+57
          1409.13730	         1.09635e+58
          1409.94360	         1.17267e+58
          1410.74990	         1.19452e+58
          1411.55620	         1.00428e+58
          1412.36250	         9.24739e+57
          1413.16880	         8.63098e+57
          1413.97510	         8.26146e+57
          1414.78140	         8.90260e+57
          1415.58770	         1.09116e+58
          1416.39400	         9.93051e+57
          1417.20030	         9.71767e+57
          1418.00660	         9.93773e+57
          1418.81290	         9.61021e+57
          1419.61920	         1.04388e+58
          1420.42550	         1.17716e+58
          1421.23180	         1.30883e+58
          1422.03810	         1.21656e+58
          1422.84440	         1.06293e+58
          1423.65070	         1.17557e+58
          1424.45700	         1.01115e+58
          1425.26330	         8.32150e+57
          1426.06960	         9.62214e+57
          1426.87590	         1.10695e+58
          1427.68220	         1.10506e+58
          1428.48850	         1.13539e+58
          1429.29480	         1.07473e+58
          1430.10110	         9.17330e+57
          1430.90740	         8.97056e+57
          1431.71370	         8.84392e+57
          1432.52000	         8.58148e+57
          1433.32630	         7.81637e+57
          1434.13260	         7.03915e+57
          1434.93890	         6.89356e+57
          1435.74520	         8.77428e+57
          1436.55150	         1.00876e+58
          1437.35780	         9.94317e+57
          1438.16410	         1.05209e+58
          1438.97040	         8.78885e+57
          1439.77670	         7.91975e+57
          1440.58300	         9.42846e+57
          1441.38930	         9.53215e+57
          1442.19560	         8.39244e+57
          1443.00190	         8.82164e+57
          1443.80820	         9.33841e+57
          1444.61450	         8.54174e+57
          1445.42080	         9.03793e+57
          1446.22710	         1.08642e+58
          1447.03340	         1.07327e+58
          1447.83970	         9.97098e+57
          1448.64600	         1.08210e+58
          1449.45230	         1.05542e+58
          1450.25860	         9.76699e+57
          1451.06490	         8.15123e+57
          1451.87120	         7.79365e+57
          1452.67750	         8.12830e+57
          1453.48380	         8.05665e+57
          1454.29010	         7.61215e+57
          1455.09640	         7.50982e+57
          1455.90270	         9.37030e+57
          1456.70900	         9.27521e+57
          1457.51530	         9.26349e+57
          1458.32160	         1.22530e+58
          1459.12790	         1.18167e+58
          1459.93420	         1.10670e+58
          1460.74050	         9.01630e+57
          1461.54680	         8.22997e+57
          1462.35310	         8.03834e+57
          1463.15940	         8.92308e+57
          1463.96570	         1.02819e+58
          1464.77200	         1.17592e+58
          1465.57830	         1.13987e+58
          1466.38460	         9.55991e+57
          1467.19090	         9.14187e+57
          1467.99720	         8.46582e+57
          1468.80350	         8.74987e+57
          1469.60980	         1.05296e+58
          1470.41610	         1.05222e+58
          1471.22240	         9.55650e+57
          1472.02870	         1.02102e+58
          1472.83500	         1.03556e+58
          1473.64130	         8.90263e+57
          1474.44760	         8.84834e+57
          1475.25390	         9.37536e+57
          1476.06020	         8.44514e+57
          1476.86650	         8.19257e+57
          1477.67280	         7.85610e+57
          1478.47910	         7.43912e+57
          1479.28540	         6.96445e+57
          1480.09170	         7.82397e+57
          1480.89800	         8.53802e+57
          1481.70430	         7.84100e+57
          1482.51060	         8.44674e+57
          1483.31690	         8.49921e+57
          1484.12320	         8.64644e+57
          1484.92950	         7.79263e+57
          1485.73580	         8.59879e+57
          1486.54210	         9.36048e+57
          1487.34840	         8.46604e+57
          1488.15470	         8.05745e+57
          1488.96100	         7.94188e+57
          1489.76730	         9.33016e+57
