#sample_439_stacked_spectrum_rest_UV-bands_median_H-alpha_noDC.txt
#median Lum: 1.67723e+42
#Rest-frame wavelength (A) | Luminosity (erg/s/A)
#
          1110.00000	         0.00000e+00
          1110.80630	         1.78543e+59
          1111.61260	         2.51953e+59
          1112.41890	         1.06728e+59
          1113.22520	         5.25525e+58
          1114.03150	        -2.84180e+59
          1114.83780	         2.29403e+59
          1115.64410	         1.36231e+59
          1116.45040	         1.31048e+59
          1117.25670	         1.10457e+59
          1118.06300	         2.38799e+59
          1118.86930	         1.13198e+58
          1119.67560	         1.33409e+59
          1120.48190	        -1.35329e+58
          1121.28820	        -1.24668e+59
          1122.09450	        -1.74784e+58
          1122.90080	        -3.99009e+58
          1123.70710	         4.83387e+58
          1124.51340	         1.34644e+59
          1125.31970	        -4.54874e+58
          1126.12600	        -1.16218e+58
          1126.93230	        -3.22813e+58
          1127.73860	        -4.12982e+58
          1128.54490	         3.98353e+58
          1129.35120	         1.67589e+58
          1130.15750	        -4.15078e+58
          1130.96380	        -4.38017e+58
          1131.77010	         5.45504e+58
          1132.57640	         5.62082e+58
          1133.38270	         4.11120e+58
          1134.18900	         3.94262e+58
          1134.99530	         2.42629e+58
          1135.80160	         3.63430e+58
          1136.60790	         2.97211e+58
          1137.41420	         2.28975e+58
          1138.22050	         4.31829e+58
          1139.02680	         4.06260e+58
          1139.83310	         1.17234e+58
          1140.63940	        -1.06717e+57
          1141.44570	        -3.07103e+58
          1142.25200	        -6.64168e+57
          1143.05830	         1.78572e+58
          1143.86460	         2.34741e+58
          1144.67090	         2.26393e+58
          1145.47720	         1.46382e+58
          1146.28350	         2.35775e+58
          1147.08980	         1.98677e+58
          1147.89610	         2.57064e+58
          1148.70240	         3.06204e+58
          1149.50870	         2.24698e+58
          1150.31500	         2.07182e+58
          1151.12130	         1.52481e+58
          1151.92760	         8.74909e+57
          1152.73390	         1.13075e+58
          1153.54020	         1.66726e+57
          1154.34650	         2.38090e+58
          1155.15280	         2.22504e+58
          1155.95910	         8.99061e+57
          1156.76540	         2.39900e+57
          1157.57170	        -3.87382e+57
          1158.37800	        -8.01580e+57
          1159.18430	        -1.73685e+55
          1159.99060	         8.42765e+57
          1160.79690	         4.39700e+57
          1161.60320	         1.62436e+58
          1162.40950	         1.98754e+58
          1163.21580	         1.64553e+58
          1164.02210	         1.63460e+58
          1164.82840	        -1.91213e+57
          1165.63470	         1.18322e+58
          1166.44100	         2.25665e+58
          1167.24730	         1.14263e+58
          1168.05360	         9.18512e+57
          1168.85990	         1.23487e+58
          1169.66620	         1.06340e+58
          1170.47250	         1.07311e+58
          1171.27880	         1.24546e+58
          1172.08510	         1.56259e+58
          1172.89140	         1.32338e+58
          1173.69770	         4.09447e+57
          1174.50400	         9.08187e+57
          1175.31030	         1.24928e+58
          1176.11660	         1.17240e+58
          1176.92290	         1.17920e+58
          1177.72920	         1.09931e+58
          1178.53550	         4.39876e+57
          1179.34180	         1.59998e+56
          1180.14810	         2.09964e+57
          1180.95440	         7.35233e+57
          1181.76070	         7.78942e+57
          1182.56700	         6.28994e+57
          1183.37330	         5.89812e+57
          1184.17960	         1.40139e+58
          1184.98590	         1.74114e+58
          1185.79220	         1.20307e+58
          1186.59850	         1.80305e+58
          1187.40480	         1.09724e+58
          1188.21110	         1.31840e+58
          1189.01740	         1.15784e+58
          1189.82370	         4.80787e+57
          1190.63000	         1.37061e+58
          1191.43630	         1.43973e+58
          1192.24260	         7.34017e+57
          1193.04890	         1.13807e+58
          1193.85520	         9.64648e+57
          1194.66150	         7.13319e+57
          1195.46780	         1.17934e+58
          1196.27410	         1.91750e+58
          1197.08040	         1.24043e+58
          1197.88670	         1.19743e+58
          1198.69300	         1.59492e+58
          1199.49930	         1.50874e+58
          1200.30560	         6.75946e+57
          1201.11190	         9.14856e+57
          1201.91820	         1.15495e+58
          1202.72450	         1.03671e+58
          1203.53080	         1.56033e+58
          1204.33710	         6.06028e+57
          1205.14340	         7.79335e+57
          1205.94970	         6.09319e+57
          1206.75600	         6.88328e+57
          1207.56230	         4.63161e+57
          1208.36860	         6.18475e+57
          1209.17490	         7.98046e+57
          1209.98120	         8.67298e+57
          1210.78750	         1.04426e+58
          1211.59380	         1.31185e+58
          1212.40010	         1.59124e+58
          1213.20640	         2.12101e+58
          1214.01270	         2.37726e+58
          1214.81900	         2.81458e+58
          1215.62530	         4.47971e+58
          1216.43160	         9.09606e+58
          1217.23790	         1.51198e+59
          1218.04420	         1.11909e+59
          1218.85050	         8.25797e+58
          1219.65680	         5.65156e+58
          1220.46310	         3.17913e+58
          1221.26940	         2.19760e+58
          1222.07570	         1.60796e+58
          1222.88200	         1.38376e+58
          1223.68830	         1.17938e+58
          1224.49460	         7.59806e+57
          1225.30090	         1.63542e+57
          1226.10720	         4.42917e+57
          1226.91350	         9.59274e+57
          1227.71980	         1.15701e+58
          1228.52610	         1.31006e+58
          1229.33240	         1.03597e+58
          1230.13870	         1.04466e+58
          1230.94500	         7.74383e+57
          1231.75130	         7.51001e+57
          1232.55760	         1.01586e+58
          1233.36390	         1.00338e+58
          1234.17020	         7.84027e+57
          1234.97650	         6.90676e+57
          1235.78280	         7.96129e+57
          1236.58910	         8.21059e+57
          1237.39540	         9.35443e+57
          1238.20170	         9.30318e+57
          1239.00800	         1.02873e+58
          1239.81430	         1.16746e+58
          1240.62060	         1.15743e+58
          1241.42690	         1.26605e+58
          1242.23320	         1.29920e+58
          1243.03950	         8.85812e+57
          1243.84580	         7.89306e+57
          1244.65210	         9.60753e+57
          1245.45840	         1.15358e+58
          1246.26470	         7.13460e+57
          1247.07100	         4.70951e+57
          1247.87730	         6.72208e+57
          1248.68360	         6.16919e+57
          1249.48990	         4.17629e+57
          1250.29620	         6.24398e+57
          1251.10250	         6.46521e+57
          1251.90880	         6.08341e+57
          1252.71510	         6.32169e+57
          1253.52140	         8.18600e+57
          1254.32770	         9.29312e+57
          1255.13400	         1.35886e+58
          1255.94030	         1.30563e+58
          1256.74660	         9.70056e+57
          1257.55290	         1.05215e+58
          1258.35920	         9.40335e+57
          1259.16550	         6.04693e+57
          1259.97180	         4.46270e+57
          1260.77810	         8.23789e+57
          1261.58440	         1.00621e+58
          1262.39070	         9.28204e+57
          1263.19700	         8.55317e+57
          1264.00330	         9.09717e+57
          1264.80960	         9.75671e+57
          1265.61590	         1.24995e+58
          1266.42220	         1.21139e+58
          1267.22850	         9.36730e+57
          1268.03480	         1.32583e+58
          1268.84110	         1.53431e+58
          1269.64740	         1.46281e+58
          1270.45370	         1.31003e+58
          1271.26000	         1.04071e+58
          1272.06630	         1.06399e+58
          1272.87260	         1.04239e+58
          1273.67890	         9.70290e+57
          1274.48520	         1.10713e+58
          1275.29150	         1.21836e+58
          1276.09780	         1.07626e+58
          1276.90410	         1.33952e+58
          1277.71040	         1.42177e+58
          1278.51670	         1.22871e+58
          1279.32300	         1.38515e+58
          1280.12930	         1.28006e+58
          1280.93560	         1.13256e+58
          1281.74190	         1.22172e+58
          1282.54820	         1.30621e+58
          1283.35450	         1.13542e+58
          1284.16080	         1.05533e+58
          1284.96710	         1.34535e+58
          1285.77340	         1.14763e+58
          1286.57970	         1.17319e+58
          1287.38600	         1.58773e+58
          1288.19230	         1.84473e+58
          1288.99860	         1.60059e+58
          1289.80490	         1.06193e+58
          1290.61120	         1.06879e+58
          1291.41750	         1.31845e+58
          1292.22380	         1.10593e+58
          1293.03010	         9.57484e+57
          1293.83640	         1.17011e+58
          1294.64270	         9.78135e+57
          1295.44900	         6.57054e+57
          1296.25530	         6.87631e+57
          1297.06160	         9.48523e+57
          1297.86790	         1.15961e+58
          1298.67420	         1.04982e+58
          1299.48050	         8.44353e+57
          1300.28680	         9.56553e+57
          1301.09310	         7.62881e+57
          1301.89940	         4.07228e+57
          1302.70570	         6.35932e+57
          1303.51200	         6.97893e+57
          1304.31830	         9.01613e+57
          1305.12460	         1.18975e+58
          1305.93090	         1.18909e+58
          1306.73720	         1.20882e+58
          1307.54350	         1.31736e+58
          1308.34980	         1.38388e+58
          1309.15610	         1.52151e+58
          1309.96240	         1.62369e+58
          1310.76870	         1.35858e+58
          1311.57500	         1.23274e+58
          1312.38130	         1.30113e+58
          1313.18760	         1.43420e+58
          1313.99390	         1.59193e+58
          1314.80020	         1.81069e+58
          1315.60650	         1.64719e+58
          1316.41280	         1.32390e+58
          1317.21910	         1.18251e+58
          1318.02540	         1.27641e+58
          1318.83170	         1.29502e+58
          1319.63800	         1.19074e+58
          1320.44430	         1.16584e+58
          1321.25060	         1.25952e+58
          1322.05690	         1.25412e+58
          1322.86320	         1.23967e+58
          1323.66950	         1.18982e+58
          1324.47580	         9.69058e+57
          1325.28210	         8.59241e+57
          1326.08840	         1.04978e+58
          1326.89470	         1.29717e+58
          1327.70100	         1.19936e+58
          1328.50730	         9.32853e+57
          1329.31360	         8.77185e+57
          1330.11990	         9.44221e+57
          1330.92620	         8.48490e+57
          1331.73250	         1.02859e+58
          1332.53880	         1.10890e+58
          1333.34510	         9.90284e+57
          1334.15140	         1.02009e+58
          1334.95770	         9.28229e+57
          1335.76400	         1.09017e+58
          1336.57030	         1.24528e+58
          1337.37660	         1.16099e+58
          1338.18290	         1.11275e+58
          1338.98920	         1.27311e+58
          1339.79550	         1.11954e+58
          1340.60180	         1.08090e+58
          1341.40810	         1.22933e+58
          1342.21440	         1.18523e+58
          1343.02070	         1.19063e+58
          1343.82700	         1.34469e+58
          1344.63330	         1.33742e+58
          1345.43960	         1.37812e+58
          1346.24590	         1.17789e+58
          1347.05220	         1.01451e+58
          1347.85850	         8.70245e+57
          1348.66480	         1.12378e+58
          1349.47110	         1.26064e+58
          1350.27740	         1.23821e+58
          1351.08370	         1.22764e+58
          1351.89000	         1.04982e+58
          1352.69630	         1.11325e+58
          1353.50260	         1.18845e+58
          1354.30890	         1.22772e+58
          1355.11520	         1.30236e+58
          1355.92150	         1.11843e+58
          1356.72780	         9.47147e+57
          1357.53410	         9.23853e+57
          1358.34040	         1.13330e+58
          1359.14670	         1.05121e+58
          1359.95300	         1.00374e+58
          1360.75930	         1.13077e+58
          1361.56560	         1.19913e+58
          1362.37190	         1.20476e+58
          1363.17820	         1.05666e+58
          1363.98450	         1.22789e+58
          1364.79080	         1.31151e+58
          1365.59710	         1.16773e+58
          1366.40340	         1.09289e+58
          1367.20970	         1.00392e+58
          1368.01600	         8.92753e+57
          1368.82230	         8.58827e+57
          1369.62860	         9.84838e+57
          1370.43490	         9.34572e+57
          1371.24120	         9.23332e+57
          1372.04750	         9.24852e+57
          1372.85380	         1.13036e+58
          1373.66010	         1.14305e+58
          1374.46640	         1.06301e+58
          1375.27270	         1.03528e+58
          1376.07900	         9.34605e+57
          1376.88530	         8.99013e+57
          1377.69160	         8.23475e+57
          1378.49790	         6.82502e+57
          1379.30420	         6.85980e+57
          1380.11050	         8.51985e+57
          1380.91680	         8.44222e+57
          1381.72310	         8.01366e+57
          1382.52940	         1.00013e+58
          1383.33570	         8.79344e+57
          1384.14200	         8.05544e+57
          1384.94830	         1.07467e+58
          1385.75460	         1.17836e+58
          1386.56090	         1.11642e+58
          1387.36720	         1.13109e+58
          1388.17350	         1.19601e+58
          1388.97980	         1.04713e+58
          1389.78610	         9.31125e+57
          1390.59240	         8.16074e+57
          1391.39870	         6.91774e+57
          1392.20500	         7.67969e+57
          1393.01130	         7.88215e+57
          1393.81760	         7.29478e+57
          1394.62390	         7.64449e+57
          1395.43020	         6.89302e+57
          1396.23650	         6.17202e+57
          1397.04280	         6.67096e+57
          1397.84910	         9.44142e+57
          1398.65540	         9.43199e+57
          1399.46170	         9.42262e+57
          1400.26800	         8.90618e+57
          1401.07430	         6.77005e+57
          1401.88060	         8.22782e+57
          1402.68690	         9.50413e+57
          1403.49320	         8.59638e+57
          1404.29950	         8.64035e+57
          1405.10580	         9.61214e+57
          1405.91210	         1.05791e+58
          1406.71840	         1.15596e+58
          1407.52470	         1.10516e+58
          1408.33100	         9.93549e+57
          1409.13730	         1.15140e+58
          1409.94360	         1.25130e+58
          1410.74990	         1.17259e+58
          1411.55620	         1.10573e+58
          1412.36250	         1.01480e+58
          1413.16880	         8.85325e+57
          1413.97510	         7.48491e+57
          1414.78140	         7.40649e+57
          1415.58770	         9.24005e+57
          1416.39400	         9.67794e+57
          1417.20030	         8.99763e+57
          1418.00660	         8.13844e+57
          1418.81290	         8.14308e+57
          1419.61920	         9.62414e+57
          1420.42550	         1.14606e+58
          1421.23180	         1.19071e+58
          1422.03810	         1.33172e+58
          1422.84440	         1.18395e+58
          1423.65070	         1.24752e+58
          1424.45700	         1.04821e+58
          1425.26330	         7.03195e+57
          1426.06960	         7.58854e+57
          1426.87590	         8.95462e+57
          1427.68220	         8.90885e+57
          1428.48850	         1.09376e+58
          1429.29480	         1.04473e+58
          1430.10110	         1.02810e+58
          1430.90740	         9.07456e+57
          1431.71370	         9.40390e+57
          1432.52000	         9.21766e+57
          1433.32630	         7.82416e+57
          1434.13260	         7.91892e+57
          1434.93890	         8.43165e+57
          1435.74520	         8.66358e+57
          1436.55150	         9.18824e+57
          1437.35780	         8.69041e+57
          1438.16410	         8.92522e+57
          1438.97040	         8.74039e+57
          1439.77670	         9.07633e+57
          1440.58300	         1.01533e+58
          1441.38930	         9.27014e+57
          1442.19560	         1.01881e+58
          1443.00190	         1.05028e+58
          1443.80820	         9.84059e+57
          1444.61450	         9.03194e+57
          1445.42080	         9.03074e+57
          1446.22710	         9.52371e+57
          1447.03340	         8.92326e+57
          1447.83970	         9.30535e+57
          1448.64600	         1.00713e+58
          1449.45230	         1.00285e+58
          1450.25860	         1.04629e+58
          1451.06490	         9.63537e+57
          1451.87120	         8.00886e+57
          1452.67750	         7.40820e+57
          1453.48380	         8.29968e+57
          1454.29010	         7.06310e+57
          1455.09640	         7.08372e+57
          1455.90270	         8.63551e+57
          1456.70900	         8.45127e+57
          1457.51530	         9.13430e+57
          1458.32160	         1.10771e+58
          1459.12790	         1.18498e+58
          1459.93420	         1.10821e+58
          1460.74050	         8.66819e+57
          1461.54680	         9.17771e+57
          1462.35310	         9.76052e+57
          1463.15940	         1.03035e+58
          1463.96570	         1.13857e+58
          1464.77200	         1.15727e+58
          1465.57830	         1.00076e+58
          1466.38460	         8.10792e+57
          1467.19090	         7.69914e+57
          1467.99720	         8.74635e+57
          1468.80350	         9.08550e+57
          1469.60980	         9.52494e+57
          1470.41610	         1.00931e+58
          1471.22240	         8.94520e+57
          1472.02870	         1.00380e+58
          1472.83500	         1.10259e+58
          1473.64130	         9.97122e+57
          1474.44760	         9.26824e+57
          1475.25390	         9.23360e+57
          1476.06020	         8.34185e+57
          1476.86650	         7.93088e+57
          1477.67280	         6.97019e+57
          1478.47910	         6.78343e+57
          1479.28540	         7.43406e+57
          1480.09170	         9.10516e+57
          1480.89800	         8.91469e+57
          1481.70430	         7.97361e+57
          1482.51060	         7.39444e+57
          1483.31690	         7.29207e+57
          1484.12320	         7.44211e+57
          1484.92950	         7.90257e+57
          1485.73580	         8.25386e+57
          1486.54210	         8.39206e+57
          1487.34840	         8.97205e+57
          1488.15470	         8.17030e+57
          1488.96100	         7.63182e+57
          1489.76730	         7.51425e+57
