#sample_75_stacked_spectrum_rest_UV-bands_median_H-alpha_noDC.txt
#median Lum: 1.67996e+42
#Rest-frame wavelength (A) | Luminosity (erg/s/A)
#
          1110.00000	         0.00000e+00
          1110.80630	         1.45472e+59
          1111.61260	         3.18023e+59
          1112.41890	         2.20643e+59
          1113.22520	        -2.50703e+58
          1114.03150	        -2.16439e+59
          1114.83780	         1.50127e+59
          1115.64410	         7.30675e+58
          1116.45040	         1.79689e+59
          1117.25670	         5.13228e+58
          1118.06300	         1.71129e+59
          1118.86930	        -9.15425e+58
          1119.67560	         8.79262e+58
          1120.48190	        -3.57296e+58
          1121.28820	        -1.38174e+59
          1122.09450	         5.86554e+56
          1122.90080	         7.84106e+58
          1123.70710	         5.43939e+58
          1124.51340	         3.47072e+58
          1125.31970	        -1.33206e+58
          1126.12600	         2.64680e+58
          1126.93230	        -2.79265e+58
          1127.73860	        -1.00080e+59
          1128.54490	         1.86052e+58
          1129.35120	         6.09608e+58
          1130.15750	         3.49957e+58
          1130.96380	         1.70265e+57
          1131.77010	         4.35288e+58
          1132.57640	         3.95870e+58
          1133.38270	         2.12056e+58
          1134.18900	         6.06234e+58
          1134.99530	         3.09529e+58
          1135.80160	         2.50501e+58
          1136.60790	         8.43070e+57
          1137.41420	        -1.91665e+57
          1138.22050	         2.95582e+58
          1139.02680	         3.49923e+58
          1139.83310	         1.32084e+58
          1140.63940	         2.03218e+58
          1141.44570	        -7.09384e+57
          1142.25200	         1.75023e+57
          1143.05830	         1.88769e+58
          1143.86460	         3.43221e+57
          1144.67090	         1.72970e+58
          1145.47720	         8.31002e+57
          1146.28350	         1.68043e+58
          1147.08980	         4.58309e+57
          1147.89610	         9.37547e+57
          1148.70240	         1.75089e+58
          1149.50870	         2.51266e+58
          1150.31500	         2.19717e+58
          1151.12130	         5.84690e+57
          1151.92760	         7.50993e+57
          1152.73390	         1.29029e+58
          1153.54020	        -8.01278e+56
          1154.34650	         1.95496e+58
          1155.15280	         1.90449e+58
          1155.95910	         1.69070e+58
          1156.76540	         1.46738e+58
          1157.57170	        -1.14993e+57
          1158.37800	         5.31984e+57
          1159.18430	        -1.57182e+57
          1159.99060	         1.29738e+56
          1160.79690	         4.74773e+57
          1161.60320	         1.43011e+58
          1162.40950	         1.13137e+58
          1163.21580	         1.72226e+58
          1164.02210	         1.61027e+58
          1164.82840	         1.14050e+58
          1165.63470	         1.89626e+58
          1166.44100	         2.62066e+58
          1167.24730	         2.58595e+58
          1168.05360	         1.25912e+58
          1168.85990	         7.23009e+57
          1169.66620	        -3.26905e+57
          1170.47250	         1.77571e+57
          1171.27880	        -3.45567e+56
          1172.08510	         1.56938e+58
          1172.89140	         1.01928e+58
          1173.69770	         1.97375e+57
          1174.50400	         1.12949e+58
          1175.31030	         1.90768e+58
          1176.11660	         2.46709e+58
          1176.92290	         1.92801e+58
          1177.72920	         1.26693e+58
          1178.53550	         5.57972e+57
          1179.34180	         3.51612e+57
          1180.14810	         4.86115e+57
          1180.95440	         4.78714e+57
          1181.76070	         7.65144e+57
          1182.56700	         8.59560e+57
          1183.37330	         5.98779e+57
          1184.17960	         8.42054e+57
          1184.98590	         1.13441e+58
          1185.79220	         6.36588e+57
          1186.59850	         1.20545e+58
          1187.40480	         1.40142e+58
          1188.21110	         1.35788e+58
          1189.01740	         1.05474e+58
          1189.82370	         4.62986e+57
          1190.63000	         8.56791e+57
          1191.43630	         1.51537e+58
          1192.24260	         6.74725e+57
          1193.04890	         1.04846e+58
          1193.85520	         1.12361e+58
          1194.66150	         7.58130e+57
          1195.46780	         8.10918e+57
          1196.27410	         1.48015e+58
          1197.08040	         1.48551e+58
          1197.88670	         1.29021e+58
          1198.69300	         1.54495e+58
          1199.49930	         1.61414e+58
          1200.30560	         1.25113e+58
          1201.11190	         1.18561e+58
          1201.91820	         1.11534e+58
          1202.72450	         6.62535e+57
          1203.53080	         1.34368e+58
          1204.33710	         8.63376e+57
          1205.14340	         9.34720e+57
          1205.94970	         7.17769e+57
          1206.75600	         7.94011e+57
          1207.56230	         6.93940e+57
          1208.36860	         1.04554e+58
          1209.17490	         6.67620e+57
          1209.98120	         5.21995e+57
          1210.78750	         8.77197e+57
          1211.59380	         1.02420e+58
          1212.40010	         1.45854e+58
          1213.20640	         1.83098e+58
          1214.01270	         2.18256e+58
          1214.81900	         2.82424e+58
          1215.62530	         4.42397e+58
          1216.43160	         9.09455e+58
          1217.23790	         1.54204e+59
          1218.04420	         1.14147e+59
          1218.85050	         8.47278e+58
          1219.65680	         5.66448e+58
          1220.46310	         3.29862e+58
          1221.26940	         2.48144e+58
          1222.07570	         1.53128e+58
          1222.88200	         1.23424e+58
          1223.68830	         1.08759e+58
          1224.49460	         6.94104e+57
          1225.30090	         5.73651e+57
          1226.10720	         6.80382e+57
          1226.91350	         5.48894e+57
          1227.71980	         5.76986e+57
          1228.52610	         1.06451e+58
          1229.33240	         1.05012e+58
          1230.13870	         7.98859e+57
          1230.94500	         8.65811e+57
          1231.75130	         6.38716e+57
          1232.55760	         6.90879e+57
          1233.36390	         8.64577e+57
          1234.17020	         8.31273e+57
          1234.97650	         6.94443e+57
          1235.78280	         6.46251e+57
          1236.58910	         9.68670e+57
          1237.39540	         1.13332e+58
          1238.20170	         9.22320e+57
          1239.00800	         1.36023e+58
          1239.81430	         1.59551e+58
          1240.62060	         1.05605e+58
          1241.42690	         1.17664e+58
          1242.23320	         1.44672e+58
          1243.03950	         7.66095e+57
          1243.84580	         6.46178e+57
          1244.65210	         1.20756e+58
          1245.45840	         1.31197e+58
          1246.26470	         1.01641e+58
          1247.07100	         6.82823e+57
          1247.87730	         7.44755e+57
          1248.68360	         6.15326e+57
          1249.48990	         1.02814e+58
          1250.29620	         1.11748e+58
          1251.10250	         9.17134e+57
          1251.90880	         5.29630e+57
          1252.71510	         2.93506e+57
          1253.52140	         6.60433e+57
          1254.32770	         1.03510e+58
          1255.13400	         1.28868e+58
          1255.94030	         1.09982e+58
          1256.74660	         1.04657e+58
          1257.55290	         9.72821e+57
          1258.35920	         6.61866e+57
          1259.16550	         6.61403e+57
          1259.97180	         6.35215e+57
          1260.77810	         7.86271e+57
          1261.58440	         1.04656e+58
          1262.39070	         8.15341e+57
          1263.19700	         7.12514e+57
          1264.00330	         9.37080e+57
          1264.80960	         9.60702e+57
          1265.61590	         1.06490e+58
          1266.42220	         1.02361e+58
          1267.22850	         9.77218e+57
          1268.03480	         1.41890e+58
          1268.84110	         1.44844e+58
          1269.64740	         1.18444e+58
          1270.45370	         1.24594e+58
          1271.26000	         1.12431e+58
          1272.06630	         1.18641e+58
          1272.87260	         1.30882e+58
          1273.67890	         1.23886e+58
          1274.48520	         1.16772e+58
          1275.29150	         1.18121e+58
          1276.09780	         1.01172e+58
          1276.90410	         1.36321e+58
          1277.71040	         1.43158e+58
          1278.51670	         1.31934e+58
          1279.32300	         1.44703e+58
          1280.12930	         1.42305e+58
          1280.93560	         1.23856e+58
          1281.74190	         1.14566e+58
          1282.54820	         1.17097e+58
          1283.35450	         1.21920e+58
          1284.16080	         1.41204e+58
          1284.96710	         1.30927e+58
          1285.77340	         1.18677e+58
          1286.57970	         1.17393e+58
          1287.38600	         1.33340e+58
          1288.19230	         1.74366e+58
          1288.99860	         1.50672e+58
          1289.80490	         1.18454e+58
          1290.61120	         1.44837e+58
          1291.41750	         1.37418e+58
          1292.22380	         1.16132e+58
          1293.03010	         1.08710e+58
          1293.83640	         1.12197e+58
          1294.64270	         1.03047e+58
          1295.44900	         7.60741e+57
          1296.25530	         7.62335e+57
          1297.06160	         1.06848e+58
          1297.86790	         1.04258e+58
          1298.67420	         8.28601e+57
          1299.48050	         8.17647e+57
          1300.28680	         9.68597e+57
          1301.09310	         7.01716e+57
          1301.89940	         2.47974e+57
          1302.70570	         6.42587e+57
          1303.51200	         8.56516e+57
          1304.31830	         1.09672e+58
          1305.12460	         1.22051e+58
          1305.93090	         1.21921e+58
          1306.73720	         1.24855e+58
          1307.54350	         1.52240e+58
          1308.34980	         1.47693e+58
          1309.15610	         1.38379e+58
          1309.96240	         1.60713e+58
          1310.76870	         1.47596e+58
          1311.57500	         1.13683e+58
          1312.38130	         1.05560e+58
          1313.18760	         1.39727e+58
          1313.99390	         1.67724e+58
          1314.80020	         1.77994e+58
          1315.60650	         1.54345e+58
          1316.41280	         1.43283e+58
          1317.21910	         1.20814e+58
          1318.02540	         1.20904e+58
          1318.83170	         1.17372e+58
          1319.63800	         1.12208e+58
          1320.44430	         1.23061e+58
          1321.25060	         1.18741e+58
          1322.05690	         1.20381e+58
          1322.86320	         1.24644e+58
          1323.66950	         1.10971e+58
          1324.47580	         9.91527e+57
          1325.28210	         9.09226e+57
          1326.08840	         1.13468e+58
          1326.89470	         1.23776e+58
          1327.70100	         1.02580e+58
          1328.50730	         7.74124e+57
          1329.31360	         9.22931e+57
          1330.11990	         9.53948e+57
          1330.92620	         9.42265e+57
          1331.73250	         1.20247e+58
          1332.53880	         1.10715e+58
          1333.34510	         9.03929e+57
          1334.15140	         9.23473e+57
          1334.95770	         8.85981e+57
          1335.76400	         1.03174e+58
          1336.57030	         1.11452e+58
          1337.37660	         8.87113e+57
          1338.18290	         9.33461e+57
          1338.98920	         9.97000e+57
          1339.79550	         1.06662e+58
          1340.60180	         1.30213e+58
          1341.40810	         1.40611e+58
          1342.21440	         1.14769e+58
          1343.02070	         1.11562e+58
          1343.82700	         1.42483e+58
          1344.63330	         1.32813e+58
          1345.43960	         1.22794e+58
          1346.24590	         1.16065e+58
          1347.05220	         1.12544e+58
          1347.85850	         1.16420e+58
          1348.66480	         1.32803e+58
          1349.47110	         1.32196e+58
          1350.27740	         1.15839e+58
          1351.08370	         1.11417e+58
          1351.89000	         1.10093e+58
          1352.69630	         1.03489e+58
          1353.50260	         1.17886e+58
          1354.30890	         1.18437e+58
          1355.11520	         1.24825e+58
          1355.92150	         1.19066e+58
          1356.72780	         1.11264e+58
          1357.53410	         1.12672e+58
          1358.34040	         1.08516e+58
          1359.14670	         9.71578e+57
          1359.95300	         1.00155e+58
          1360.75930	         1.19436e+58
          1361.56560	         1.14452e+58
          1362.37190	         1.15526e+58
          1363.17820	         1.06609e+58
          1363.98450	         1.07503e+58
          1364.79080	         1.15392e+58
          1365.59710	         1.20915e+58
          1366.40340	         1.25191e+58
          1367.20970	         1.22111e+58
          1368.01600	         9.80539e+57
          1368.82230	         7.94796e+57
          1369.62860	         9.04039e+57
          1370.43490	         8.57213e+57
          1371.24120	         9.00342e+57
          1372.04750	         9.19958e+57
          1372.85380	         9.50823e+57
          1373.66010	         1.11359e+58
          1374.46640	         1.01905e+58
          1375.27270	         9.86530e+57
          1376.07900	         9.41213e+57
          1376.88530	         8.88680e+57
          1377.69160	         9.26792e+57
          1378.49790	         6.96633e+57
          1379.30420	         7.96091e+57
          1380.11050	         8.70490e+57
          1380.91680	         7.44829e+57
          1381.72310	         8.05961e+57
          1382.52940	         8.19110e+57
          1383.33570	         8.46529e+57
          1384.14200	         1.05662e+58
          1384.94830	         1.14060e+58
          1385.75460	         1.09442e+58
          1386.56090	         1.10521e+58
          1387.36720	         1.07994e+58
          1388.17350	         1.28861e+58
          1388.97980	         1.32833e+58
          1389.78610	         9.67791e+57
          1390.59240	         9.21659e+57
          1391.39870	         9.97179e+57
          1392.20500	         8.80929e+57
          1393.01130	         7.57385e+57
          1393.81760	         7.11856e+57
          1394.62390	         7.31384e+57
          1395.43020	         7.26986e+57
          1396.23650	         8.19840e+57
          1397.04280	         7.25018e+57
          1397.84910	         7.08091e+57
          1398.65540	         8.94426e+57
          1399.46170	         1.02913e+58
          1400.26800	         8.80850e+57
          1401.07430	         8.27900e+57
          1401.88060	         7.88990e+57
          1402.68690	         8.00593e+57
          1403.49320	         9.75153e+57
          1404.29950	         1.02125e+58
          1405.10580	         1.12692e+58
          1405.91210	         1.14685e+58
          1406.71840	         1.01348e+58
          1407.52470	         1.10076e+58
          1408.33100	         9.79398e+57
          1409.13730	         9.69500e+57
          1409.94360	         1.12144e+58
          1410.74990	         1.14071e+58
          1411.55620	         9.83799e+57
          1412.36250	         9.61222e+57
          1413.16880	         9.95155e+57
          1413.97510	         8.55316e+57
          1414.78140	         8.74056e+57
          1415.58770	         1.00621e+58
          1416.39400	         9.58177e+57
          1417.20030	         1.08991e+58
          1418.00660	         1.09779e+58
          1418.81290	         9.80226e+57
          1419.61920	         9.31259e+57
          1420.42550	         1.09258e+58
          1421.23180	         1.30363e+58
          1422.03810	         1.34352e+58
          1422.84440	         1.25959e+58
          1423.65070	         1.29190e+58
          1424.45700	         1.25042e+58
          1425.26330	         9.37548e+57
          1426.06960	         8.58883e+57
          1426.87590	         1.02691e+58
          1427.68220	         1.06927e+58
          1428.48850	         1.15706e+58
          1429.29480	         1.04709e+58
          1430.10110	         9.14144e+57
          1430.90740	         8.06541e+57
          1431.71370	         8.77009e+57
          1432.52000	         8.50830e+57
          1433.32630	         7.54809e+57
          1434.13260	         7.62903e+57
          1434.93890	         8.25176e+57
          1435.74520	         9.35982e+57
          1436.55150	         9.46069e+57
          1437.35780	         8.82884e+57
          1438.16410	         9.05886e+57
          1438.97040	         8.31385e+57
          1439.77670	         8.79705e+57
          1440.58300	         9.62997e+57
          1441.38930	         8.96349e+57
          1442.19560	         8.77169e+57
          1443.00190	         9.13687e+57
          1443.80820	         8.94049e+57
          1444.61450	         8.71299e+57
          1445.42080	         8.65378e+57
          1446.22710	         9.20000e+57
          1447.03340	         9.02619e+57
          1447.83970	         1.03141e+58
          1448.64600	         1.09452e+58
          1449.45230	         1.03490e+58
          1450.25860	         9.79584e+57
          1451.06490	         8.94308e+57
          1451.87120	         7.45087e+57
          1452.67750	         7.45588e+57
          1453.48380	         8.64000e+57
          1454.29010	         8.90651e+57
          1455.09640	         8.18298e+57
          1455.90270	         9.22452e+57
          1456.70900	         8.65619e+57
          1457.51530	         8.07405e+57
          1458.32160	         1.04340e+58
          1459.12790	         1.18210e+58
          1459.93420	         1.16177e+58
          1460.74050	         8.91525e+57
          1461.54680	         8.12681e+57
          1462.35310	         7.39013e+57
          1463.15940	         9.82930e+57
          1463.96570	         1.13307e+58
          1464.77200	         1.17913e+58
          1465.57830	         1.03324e+58
          1466.38460	         8.81247e+57
          1467.19090	         8.24722e+57
          1467.99720	         7.43973e+57
          1468.80350	         8.34439e+57
          1469.60980	         1.04859e+58
          1470.41610	         1.17236e+58
          1471.22240	         9.96359e+57
          1472.02870	         9.01898e+57
          1472.83500	         1.02098e+58
          1473.64130	         9.80437e+57
          1474.44760	         8.93936e+57
          1475.25390	         8.50604e+57
          1476.06020	         9.23508e+57
          1476.86650	         8.63906e+57
          1477.67280	         7.92527e+57
          1478.47910	         6.72939e+57
          1479.28540	         6.72036e+57
          1480.09170	         8.20980e+57
          1480.89800	         8.38458e+57
          1481.70430	         8.03668e+57
          1482.51060	         7.64602e+57
          1483.31690	         7.80778e+57
          1484.12320	         7.95690e+57
          1484.92950	         7.53862e+57
          1485.73580	         7.94068e+57
          1486.54210	         7.96313e+57
          1487.34840	         7.60567e+57
          1488.15470	         8.43198e+57
          1488.96100	         8.95992e+57
          1489.76730	         9.73983e+57
