#sample_370_stacked_spectrum_rest_UV-bands_median_H-alpha_noDC.txt
#median Lum: 1.70986e+42
#Rest-frame wavelength (A) | Luminosity (erg/s/A)
#
          1110.00000	         0.00000e+00
          1110.80630	         1.69847e+59
          1111.61260	         1.75583e+59
          1112.41890	         1.68687e+59
          1113.22520	        -2.32732e+59
          1114.03150	        -2.26722e+59
          1114.83780	         9.98378e+58
          1115.64410	        -4.06148e+58
          1116.45040	        -2.53793e+58
          1117.25670	        -9.62610e+57
          1118.06300	         9.80961e+58
          1118.86930	         2.29553e+57
          1119.67560	         1.53564e+59
          1120.48190	        -1.60623e+58
          1121.28820	        -1.31684e+59
          1122.09450	         3.09421e+58
          1122.90080	         8.84622e+57
          1123.70710	         7.68013e+58
          1124.51340	         5.65201e+58
          1125.31970	        -8.42038e+57
          1126.12600	         5.33418e+58
          1126.93230	        -6.08628e+57
          1127.73860	        -1.20911e+58
          1128.54490	         3.93972e+58
          1129.35120	         4.80538e+58
          1130.15750	        -1.17279e+58
          1130.96380	        -9.61529e+57
          1131.77010	         3.23169e+58
          1132.57640	         1.62532e+58
          1133.38270	         1.89319e+58
          1134.18900	         9.69968e+57
          1134.99530	         1.77859e+58
          1135.80160	         2.47473e+58
          1136.60790	         9.06379e+57
          1137.41420	         2.32715e+57
          1138.22050	         2.13134e+58
          1139.02680	         2.80352e+58
          1139.83310	         3.42911e+58
          1140.63940	         3.58599e+58
          1141.44570	        -5.10561e+57
          1142.25200	        -1.34668e+58
          1143.05830	         1.38655e+58
          1143.86460	         3.03331e+58
          1144.67090	         3.17849e+58
          1145.47720	         1.33480e+58
          1146.28350	         2.36766e+58
          1147.08980	         1.25886e+58
          1147.89610	         1.84682e+58
          1148.70240	         2.23849e+58
          1149.50870	         2.13508e+58
          1150.31500	         4.99389e+57
          1151.12130	        -3.01844e+57
          1151.92760	         5.88312e+57
          1152.73390	         9.35108e+57
          1153.54020	         5.60953e+57
          1154.34650	         2.68192e+58
          1155.15280	         3.37096e+58
          1155.95910	         1.34882e+58
          1156.76540	         1.27345e+58
          1157.57170	         6.68281e+57
          1158.37800	         1.64752e+57
          1159.18430	         6.13571e+57
          1159.99060	         5.11605e+57
          1160.79690	         2.83277e+57
          1161.60320	         1.69131e+58
          1162.40950	         8.62244e+57
          1163.21580	         2.22504e+58
          1164.02210	         7.78420e+57
          1164.82840	         8.64440e+57
          1165.63470	         1.20925e+58
          1166.44100	         2.54959e+58
          1167.24730	         2.85892e+58
          1168.05360	         1.40785e+58
          1168.85990	         1.19831e+58
          1169.66620	         3.22042e+57
          1170.47250	         2.43297e+57
          1171.27880	         5.44382e+57
          1172.08510	         1.11133e+58
          1172.89140	         8.50051e+57
          1173.69770	         4.66019e+57
          1174.50400	         9.17729e+57
          1175.31030	         1.62089e+58
          1176.11660	         2.04388e+58
          1176.92290	         2.12556e+58
          1177.72920	         1.73553e+58
          1178.53550	         7.31594e+57
          1179.34180	         4.39400e+57
          1180.14810	         6.51112e+57
          1180.95440	         3.53080e+57
          1181.76070	         3.50246e+57
          1182.56700	         8.19476e+57
          1183.37330	         6.78556e+57
          1184.17960	         1.22116e+58
          1184.98590	         1.22949e+58
          1185.79220	         7.90529e+57
          1186.59850	         7.30395e+57
          1187.40480	         1.14151e+58
          1188.21110	         1.56550e+58
          1189.01740	         3.00397e+57
          1189.82370	         8.30192e+57
          1190.63000	         9.68222e+57
          1191.43630	         1.25307e+58
          1192.24260	         8.80395e+57
          1193.04890	         1.01737e+58
          1193.85520	         9.92555e+57
          1194.66150	         5.11494e+57
          1195.46780	         1.02214e+58
          1196.27410	         7.75624e+57
          1197.08040	         5.53212e+57
          1197.88670	         1.29010e+58
          1198.69300	         1.50639e+58
          1199.49930	         1.56901e+58
          1200.30560	         1.12697e+58
          1201.11190	         7.61693e+57
          1201.91820	         8.24858e+57
          1202.72450	         7.83632e+57
          1203.53080	         1.77682e+58
          1204.33710	         1.19158e+58
          1205.14340	         8.27760e+57
          1205.94970	         4.67188e+57
          1206.75600	         9.66401e+57
          1207.56230	         7.84241e+57
          1208.36860	         1.00528e+58
          1209.17490	         4.60594e+57
          1209.98120	         5.94505e+57
          1210.78750	         4.58012e+57
          1211.59380	         7.75823e+57
          1212.40010	         1.83943e+58
          1213.20640	         1.94548e+58
          1214.01270	         2.05155e+58
          1214.81900	         2.70565e+58
          1215.62530	         4.47228e+58
          1216.43160	         8.90163e+58
          1217.23790	         1.51094e+59
          1218.04420	         1.14059e+59
          1218.85050	         8.84683e+58
          1219.65680	         5.91140e+58
          1220.46310	         3.48705e+58
          1221.26940	         2.76246e+58
          1222.07570	         1.70527e+58
          1222.88200	         1.24481e+58
          1223.68830	         1.20051e+58
          1224.49460	         7.93358e+57
          1225.30090	         8.07586e+57
          1226.10720	         6.33579e+57
          1226.91350	         3.65842e+57
          1227.71980	         7.73892e+57
          1228.52610	         1.45777e+58
          1229.33240	         8.13073e+57
          1230.13870	         7.89342e+57
          1230.94500	         1.15106e+58
          1231.75130	         3.41358e+57
          1232.55760	         7.82408e+57
          1233.36390	         1.13302e+58
          1234.17020	         7.94047e+57
          1234.97650	         6.80451e+57
          1235.78280	         9.47700e+57
          1236.58910	         1.20975e+58
          1237.39540	         1.23616e+58
          1238.20170	         1.02895e+58
          1239.00800	         1.20456e+58
          1239.81430	         1.49920e+58
          1240.62060	         1.06518e+58
          1241.42690	         9.69769e+57
          1242.23320	         1.05190e+58
          1243.03950	         6.55716e+57
          1243.84580	         6.98169e+57
          1244.65210	         9.77582e+57
          1245.45840	         1.09574e+58
          1246.26470	         9.92208e+57
          1247.07100	         9.83054e+57
          1247.87730	         6.37427e+57
          1248.68360	         3.46438e+57
          1249.48990	         8.48637e+57
          1250.29620	         1.04319e+58
          1251.10250	         6.86646e+57
          1251.90880	         4.88444e+57
          1252.71510	         5.02258e+57
          1253.52140	         6.04266e+57
          1254.32770	         1.00205e+58
          1255.13400	         1.25725e+58
          1255.94030	         1.08740e+58
          1256.74660	         1.01000e+58
          1257.55290	         1.07631e+58
          1258.35920	         8.73607e+57
          1259.16550	         7.15940e+57
          1259.97180	         4.92865e+57
          1260.77810	         7.45271e+57
          1261.58440	         8.72942e+57
          1262.39070	         6.51129e+57
          1263.19700	         1.03496e+58
          1264.00330	         1.26358e+58
          1264.80960	         1.14962e+58
          1265.61590	         1.27681e+58
          1266.42220	         1.13879e+58
          1267.22850	         1.02839e+58
          1268.03480	         1.38377e+58
          1268.84110	         1.49920e+58
          1269.64740	         1.43815e+58
          1270.45370	         1.33201e+58
          1271.26000	         1.18787e+58
          1272.06630	         1.19130e+58
          1272.87260	         1.20542e+58
          1273.67890	         1.34345e+58
          1274.48520	         1.36516e+58
          1275.29150	         1.38297e+58
          1276.09780	         1.23703e+58
          1276.90410	         1.18778e+58
          1277.71040	         1.05065e+58
          1278.51670	         1.15858e+58
          1279.32300	         1.21767e+58
          1280.12930	         1.34788e+58
          1280.93560	         1.27349e+58
          1281.74190	         1.33321e+58
          1282.54820	         1.54124e+58
          1283.35450	         1.12990e+58
          1284.16080	         8.70745e+57
          1284.96710	         1.20952e+58
          1285.77340	         1.26838e+58
          1286.57970	         1.03564e+58
          1287.38600	         1.53293e+58
          1288.19230	         1.77272e+58
          1288.99860	         1.51820e+58
          1289.80490	         1.24382e+58
          1290.61120	         1.50132e+58
          1291.41750	         1.51709e+58
          1292.22380	         1.28673e+58
          1293.03010	         1.15134e+58
          1293.83640	         9.49717e+57
          1294.64270	         7.78018e+57
          1295.44900	         6.45938e+57
          1296.25530	         8.19963e+57
          1297.06160	         1.00286e+58
          1297.86790	         9.08286e+57
          1298.67420	         8.72265e+57
          1299.48050	         9.81897e+57
          1300.28680	         1.02186e+58
          1301.09310	         8.56314e+57
          1301.89940	         4.00150e+57
          1302.70570	         5.47226e+57
          1303.51200	         8.04410e+57
          1304.31830	         9.72785e+57
          1305.12460	         1.12518e+58
          1305.93090	         1.14946e+58
          1306.73720	         1.30214e+58
          1307.54350	         1.37777e+58
          1308.34980	         1.37776e+58
          1309.15610	         1.45095e+58
          1309.96240	         1.34734e+58
          1310.76870	         1.31824e+58
          1311.57500	         1.39352e+58
          1312.38130	         1.34596e+58
          1313.18760	         1.43073e+58
          1313.99390	         1.58365e+58
          1314.80020	         1.55233e+58
          1315.60650	         1.45921e+58
          1316.41280	         1.41892e+58
          1317.21910	         1.20689e+58
          1318.02540	         1.09539e+58
          1318.83170	         1.30572e+58
          1319.63800	         1.38945e+58
          1320.44430	         1.25755e+58
          1321.25060	         1.34236e+58
          1322.05690	         1.25610e+58
          1322.86320	         1.37326e+58
          1323.66950	         1.22491e+58
          1324.47580	         8.84508e+57
          1325.28210	         9.26378e+57
          1326.08840	         1.13615e+58
          1326.89470	         1.23730e+58
          1327.70100	         1.05151e+58
          1328.50730	         6.94254e+57
          1329.31360	         8.14297e+57
          1330.11990	         1.01096e+58
          1330.92620	         1.10687e+58
          1331.73250	         1.13533e+58
          1332.53880	         9.98766e+57
          1333.34510	         8.32090e+57
          1334.15140	         8.21512e+57
          1334.95770	         9.26987e+57
          1335.76400	         1.06487e+58
          1336.57030	         1.17256e+58
          1337.37660	         1.06612e+58
          1338.18290	         1.04227e+58
          1338.98920	         1.23573e+58
          1339.79550	         1.28970e+58
          1340.60180	         1.22860e+58
          1341.40810	         1.35498e+58
          1342.21440	         1.24744e+58
          1343.02070	         1.25105e+58
          1343.82700	         1.35745e+58
          1344.63330	         1.25422e+58
          1345.43960	         1.44269e+58
          1346.24590	         1.25964e+58
          1347.05220	         1.31043e+58
          1347.85850	         1.32307e+58
          1348.66480	         1.30980e+58
          1349.47110	         1.39340e+58
          1350.27740	         1.29043e+58
          1351.08370	         1.18956e+58
          1351.89000	         1.14291e+58
          1352.69630	         1.18727e+58
          1353.50260	         1.19487e+58
          1354.30890	         1.22640e+58
          1355.11520	         1.21240e+58
          1355.92150	         1.08563e+58
          1356.72780	         1.10653e+58
          1357.53410	         1.06465e+58
          1358.34040	         1.09479e+58
          1359.14670	         1.10488e+58
          1359.95300	         1.20466e+58
          1360.75930	         1.24444e+58
          1361.56560	         1.12433e+58
          1362.37190	         1.21438e+58
          1363.17820	         1.15609e+58
          1363.98450	         1.25362e+58
          1364.79080	         1.34311e+58
          1365.59710	         1.33985e+58
          1366.40340	         1.24381e+58
          1367.20970	         1.09279e+58
          1368.01600	         9.89630e+57
          1368.82230	         8.50734e+57
          1369.62860	         7.83539e+57
          1370.43490	         9.24781e+57
          1371.24120	         9.41715e+57
          1372.04750	         7.49558e+57
          1372.85380	         1.05358e+58
          1373.66010	         1.23390e+58
          1374.46640	         1.11255e+58
          1375.27270	         1.14696e+58
          1376.07900	         9.47539e+57
          1376.88530	         7.56198e+57
          1377.69160	         8.94914e+57
          1378.49790	         8.68314e+57
          1379.30420	         7.49919e+57
          1380.11050	         9.15078e+57
          1380.91680	         9.58485e+57
          1381.72310	         8.73013e+57
          1382.52940	         7.72774e+57
          1383.33570	         7.89823e+57
          1384.14200	         9.33111e+57
          1384.94830	         1.17934e+58
          1385.75460	         1.12440e+58
          1386.56090	         1.22903e+58
          1387.36720	         1.35317e+58
          1388.17350	         1.30757e+58
          1388.97980	         1.18425e+58
          1389.78610	         1.10409e+58
          1390.59240	         8.81232e+57
          1391.39870	         7.43939e+57
          1392.20500	         9.86759e+57
          1393.01130	         8.87496e+57
          1393.81760	         7.72348e+57
          1394.62390	         7.10026e+57
          1395.43020	         6.58450e+57
          1396.23650	         7.61874e+57
          1397.04280	         8.64075e+57
          1397.84910	         9.62107e+57
          1398.65540	         9.34363e+57
          1399.46170	         1.02779e+58
          1400.26800	         8.90983e+57
          1401.07430	         6.67833e+57
          1401.88060	         6.88237e+57
          1402.68690	         9.00575e+57
          1403.49320	         9.77381e+57
          1404.29950	         9.67734e+57
          1405.10580	         1.02425e+58
          1405.91210	         1.06355e+58
          1406.71840	         1.13033e+58
          1407.52470	         1.12395e+58
          1408.33100	         9.99295e+57
          1409.13730	         1.11619e+58
          1409.94360	         1.29606e+58
          1410.74990	         1.30441e+58
          1411.55620	         1.14366e+58
          1412.36250	         1.00025e+58
          1413.16880	         1.03965e+58
          1413.97510	         9.63090e+57
          1414.78140	         9.68910e+57
          1415.58770	         1.13922e+58
          1416.39400	         1.17215e+58
          1417.20030	         1.22508e+58
          1418.00660	         1.00548e+58
          1418.81290	         8.94129e+57
          1419.61920	         8.27152e+57
          1420.42550	         1.03548e+58
          1421.23180	         1.39965e+58
          1422.03810	         1.30455e+58
          1422.84440	         1.05158e+58
          1423.65070	         1.21743e+58
          1424.45700	         1.11991e+58
          1425.26330	         8.49901e+57
          1426.06960	         8.21440e+57
          1426.87590	         9.45422e+57
          1427.68220	         1.08267e+58
          1428.48850	         1.17247e+58
          1429.29480	         1.14969e+58
          1430.10110	         9.69832e+57
          1430.90740	         8.51911e+57
          1431.71370	         8.58525e+57
          1432.52000	         8.36198e+57
          1433.32630	         7.62963e+57
          1434.13260	         8.25722e+57
          1434.93890	         8.85203e+57
          1435.74520	         8.29790e+57
          1436.55150	         8.57480e+57
          1437.35780	         8.85768e+57
          1438.16410	         9.68331e+57
          1438.97040	         9.60982e+57
          1439.77670	         9.14463e+57
          1440.58300	         9.90082e+57
          1441.38930	         1.06162e+58
          1442.19560	         1.01576e+58
          1443.00190	         1.05911e+58
          1443.80820	         1.20990e+58
          1444.61450	         1.11045e+58
          1445.42080	         9.37704e+57
          1446.22710	         1.05771e+58
          1447.03340	         1.07906e+58
          1447.83970	         1.19024e+58
          1448.64600	         1.11708e+58
          1449.45230	         1.00105e+58
          1450.25860	         1.05714e+58
          1451.06490	         9.43471e+57
          1451.87120	         7.50750e+57
          1452.67750	         6.91941e+57
          1453.48380	         7.92350e+57
          1454.29010	         7.96210e+57
          1455.09640	         7.26647e+57
          1455.90270	         8.94005e+57
          1456.70900	         9.17525e+57
          1457.51530	         1.01786e+58
          1458.32160	         1.35524e+58
          1459.12790	         1.29379e+58
          1459.93420	         9.93887e+57
          1460.74050	         6.23333e+57
          1461.54680	         6.92884e+57
          1462.35310	         8.34276e+57
          1463.15940	         9.82511e+57
          1463.96570	         1.14589e+58
          1464.77200	         1.18559e+58
          1465.57830	         1.06385e+58
          1466.38460	         9.92375e+57
          1467.19090	         8.21846e+57
          1467.99720	         8.51830e+57
          1468.80350	         9.65644e+57
          1469.60980	         9.88068e+57
          1470.41610	         1.07569e+58
          1471.22240	         9.62501e+57
          1472.02870	         1.01386e+58
          1472.83500	         1.00643e+58
          1473.64130	         1.00042e+58
          1474.44760	         1.05221e+58
          1475.25390	         1.00089e+58
          1476.06020	         1.08144e+58
          1476.86650	         9.56040e+57
          1477.67280	         8.04323e+57
          1478.47910	         7.27013e+57
          1479.28540	         7.46037e+57
          1480.09170	         8.55718e+57
          1480.89800	         7.86851e+57
          1481.70430	         9.19940e+57
          1482.51060	         1.02085e+58
          1483.31690	         8.20393e+57
          1484.12320	         8.12433e+57
          1484.92950	         8.33648e+57
          1485.73580	         8.02550e+57
          1486.54210	         9.14476e+57
          1487.34840	         9.37311e+57
          1488.15470	         7.58413e+57
          1488.96100	         8.26424e+57
          1489.76730	         9.42021e+57
