#sample_491_stacked_spectrum_rest_UV-bands_median_H-alpha_noDC.txt
#median Lum: 1.68626e+42
#Rest-frame wavelength (A) | Luminosity (erg/s/A)
#
          1110.00000	         0.00000e+00
          1110.80630	         7.24896e+58
          1111.61260	         9.87755e+58
          1112.41890	         5.47437e+58
          1113.22520	         6.17188e+58
          1114.03150	         1.06664e+59
          1114.83780	         4.33149e+59
          1115.64410	         2.15111e+59
          1116.45040	         3.31579e+59
          1117.25670	         2.77909e+59
          1118.06300	         1.12659e+59
          1118.86930	        -1.38994e+58
          1119.67560	         1.41248e+59
          1120.48190	         9.99051e+58
          1121.28820	        -3.60372e+58
          1122.09450	        -1.81016e+58
          1122.90080	        -4.43657e+58
          1123.70710	         6.94588e+58
          1124.51340	         1.10705e+59
          1125.31970	         1.68017e+58
          1126.12600	        -4.47453e+58
          1126.93230	        -5.91376e+58
          1127.73860	        -9.45421e+58
          1128.54490	         3.57506e+58
          1129.35120	         2.64085e+58
          1130.15750	        -1.44224e+58
          1130.96380	        -4.09349e+57
          1131.77010	         5.43539e+56
          1132.57640	         2.30984e+58
          1133.38270	        -1.02417e+58
          1134.18900	        -7.71669e+57
          1134.99530	         1.84360e+58
          1135.80160	         5.37995e+57
          1136.60790	         1.93625e+58
          1137.41420	         3.66391e+57
          1138.22050	         2.25015e+58
          1139.02680	         3.26146e+58
          1139.83310	         2.18349e+58
          1140.63940	         8.17810e+57
          1141.44570	         5.27822e+57
          1142.25200	        -1.14737e+58
          1143.05830	         9.26697e+57
          1143.86460	         2.53271e+58
          1144.67090	         3.09374e+58
          1145.47720	         8.78410e+57
          1146.28350	         1.64716e+58
          1147.08980	         1.66259e+58
          1147.89610	         2.18500e+58
          1148.70240	         3.55882e+58
          1149.50870	         1.68007e+58
          1150.31500	         6.89271e+57
          1151.12130	         5.96718e+57
          1151.92760	        -3.32214e+56
          1152.73390	         1.21296e+58
          1153.54020	         9.71288e+57
          1154.34650	         2.13205e+58
          1155.15280	         1.49553e+58
          1155.95910	         1.39916e+58
          1156.76540	         1.89142e+58
          1157.57170	        -4.82371e+57
          1158.37800	         1.41519e+57
          1159.18430	        -2.71174e+57
          1159.99060	         1.96810e+56
          1160.79690	        -8.41416e+55
          1161.60320	         1.64803e+58
          1162.40950	         1.82239e+58
          1163.21580	         2.11184e+58
          1164.02210	         1.73533e+58
          1164.82840	         1.88074e+58
          1165.63470	         2.51674e+58
          1166.44100	         3.41378e+58
          1167.24730	         2.40993e+58
          1168.05360	         1.09555e+58
          1168.85990	         1.03687e+57
          1169.66620	         1.36715e+58
          1170.47250	         1.64730e+58
          1171.27880	         1.43133e+58
          1172.08510	         2.05511e+58
          1172.89140	         9.48877e+57
          1173.69770	         9.64703e+57
          1174.50400	         1.25767e+58
          1175.31030	         2.02873e+58
          1176.11660	         1.89662e+58
          1176.92290	         1.42918e+58
          1177.72920	         4.27209e+57
          1178.53550	         3.47790e+57
          1179.34180	         2.03515e+57
          1180.14810	         5.05841e+57
          1180.95440	         9.37320e+57
          1181.76070	         5.03933e+57
          1182.56700	         1.22733e+58
          1183.37330	         7.32697e+57
          1184.17960	         6.89497e+57
          1184.98590	         1.29903e+58
          1185.79220	         8.15790e+57
          1186.59850	         1.01266e+58
          1187.40480	         1.10722e+58
          1188.21110	         1.78545e+58
          1189.01740	         1.48545e+58
          1189.82370	         9.64731e+57
          1190.63000	         5.02565e+57
          1191.43630	         7.58862e+57
          1192.24260	         7.63015e+57
          1193.04890	         1.21108e+58
          1193.85520	         6.92608e+57
          1194.66150	         2.60032e+57
          1195.46780	         9.46994e+57
          1196.27410	         1.33509e+58
          1197.08040	         7.88701e+57
          1197.88670	         1.30430e+58
          1198.69300	         1.73261e+58
          1199.49930	         1.58006e+58
          1200.30560	         1.29641e+58
          1201.11190	         1.04903e+58
          1201.91820	         1.04895e+58
          1202.72450	         6.90402e+57
          1203.53080	         1.22376e+58
          1204.33710	         8.66924e+57
          1205.14340	         7.32037e+57
          1205.94970	         5.12039e+57
          1206.75600	         6.36485e+57
          1207.56230	         3.13517e+57
          1208.36860	         5.96347e+57
          1209.17490	         4.83857e+57
          1209.98120	         7.19729e+57
          1210.78750	         1.18913e+58
          1211.59380	         1.48395e+58
          1212.40010	         1.92512e+58
          1213.20640	         2.22320e+58
          1214.01270	         2.16580e+58
          1214.81900	         2.64869e+58
          1215.62530	         4.60684e+58
          1216.43160	         9.40054e+58
          1217.23790	         1.52727e+59
          1218.04420	         1.17099e+59
          1218.85050	         9.02370e+58
          1219.65680	         6.08134e+58
          1220.46310	         3.36995e+58
          1221.26940	         2.13362e+58
          1222.07570	         1.15116e+58
          1222.88200	         1.23788e+58
          1223.68830	         1.20699e+58
          1224.49460	         8.70206e+57
          1225.30090	         5.77895e+57
          1226.10720	         6.10924e+57
          1226.91350	         7.86561e+57
          1227.71980	         9.75298e+57
          1228.52610	         1.26850e+58
          1229.33240	         9.54431e+57
          1230.13870	         9.35331e+57
          1230.94500	         9.71606e+57
          1231.75130	         6.99598e+57
          1232.55760	         7.86827e+57
          1233.36390	         7.46537e+57
          1234.17020	         8.64048e+57
          1234.97650	         7.75969e+57
          1235.78280	         8.91231e+57
          1236.58910	         9.38149e+57
          1237.39540	         1.07202e+58
          1238.20170	         1.07131e+58
          1239.00800	         1.17346e+58
          1239.81430	         1.50871e+58
          1240.62060	         1.16970e+58
          1241.42690	         1.17620e+58
          1242.23320	         1.44989e+58
          1243.03950	         7.93646e+57
          1243.84580	         8.97822e+57
          1244.65210	         1.14104e+58
          1245.45840	         9.18700e+57
          1246.26470	         7.57981e+57
          1247.07100	         6.65173e+57
          1247.87730	         7.22064e+57
          1248.68360	         8.52619e+57
          1249.48990	         8.69392e+57
          1250.29620	         9.72008e+57
          1251.10250	         7.83147e+57
          1251.90880	         4.72736e+57
          1252.71510	         7.04542e+57
          1253.52140	         8.41451e+57
          1254.32770	         1.00146e+58
          1255.13400	         1.49515e+58
          1255.94030	         1.24327e+58
          1256.74660	         7.73124e+57
          1257.55290	         9.67543e+57
          1258.35920	         1.01946e+58
          1259.16550	         6.41675e+57
          1259.97180	         5.89056e+57
          1260.77810	         9.72769e+57
          1261.58440	         1.31514e+58
          1262.39070	         1.09624e+58
          1263.19700	         7.45490e+57
          1264.00330	         8.79294e+57
          1264.80960	         9.65196e+57
          1265.61590	         1.15310e+58
          1266.42220	         1.19321e+58
          1267.22850	         1.13943e+58
          1268.03480	         1.35515e+58
          1268.84110	         1.48382e+58
          1269.64740	         1.48913e+58
          1270.45370	         1.25410e+58
          1271.26000	         1.25499e+58
          1272.06630	         1.43270e+58
          1272.87260	         1.45465e+58
          1273.67890	         1.37642e+58
          1274.48520	         1.43136e+58
          1275.29150	         1.24993e+58
          1276.09780	         1.04520e+58
          1276.90410	         1.30360e+58
          1277.71040	         1.24513e+58
          1278.51670	         1.23936e+58
          1279.32300	         1.28842e+58
          1280.12930	         1.24027e+58
          1280.93560	         1.23602e+58
          1281.74190	         1.28685e+58
          1282.54820	         1.26166e+58
          1283.35450	         1.05086e+58
          1284.16080	         1.07367e+58
          1284.96710	         1.35574e+58
          1285.77340	         1.43900e+58
          1286.57970	         1.30958e+58
          1287.38600	         1.25437e+58
          1288.19230	         1.57028e+58
          1288.99860	         1.58340e+58
          1289.80490	         1.29715e+58
          1290.61120	         1.16017e+58
          1291.41750	         1.25377e+58
          1292.22380	         1.30029e+58
          1293.03010	         1.17535e+58
          1293.83640	         1.23402e+58
          1294.64270	         1.01963e+58
          1295.44900	         5.72998e+57
          1296.25530	         5.93216e+57
          1297.06160	         6.19389e+57
          1297.86790	         8.33714e+57
          1298.67420	         9.62493e+57
          1299.48050	         9.45826e+57
          1300.28680	         9.97128e+57
          1301.09310	         8.35586e+57
          1301.89940	         4.82778e+57
          1302.70570	         5.90688e+57
          1303.51200	         6.78897e+57
          1304.31830	         8.45451e+57
          1305.12460	         9.95193e+57
          1305.93090	         1.10141e+58
          1306.73720	         1.17373e+58
          1307.54350	         1.36317e+58
          1308.34980	         1.45489e+58
          1309.15610	         1.58750e+58
          1309.96240	         1.72324e+58
          1310.76870	         1.60893e+58
          1311.57500	         1.40820e+58
          1312.38130	         1.19220e+58
          1313.18760	         1.36106e+58
          1313.99390	         1.45487e+58
          1314.80020	         1.63364e+58
          1315.60650	         1.69544e+58
          1316.41280	         1.42865e+58
          1317.21910	         1.07403e+58
          1318.02540	         1.17134e+58
          1318.83170	         1.37380e+58
          1319.63800	         1.25139e+58
          1320.44430	         1.15850e+58
          1321.25060	         1.28291e+58
          1322.05690	         1.25196e+58
          1322.86320	         1.13813e+58
          1323.66950	         1.17741e+58
          1324.47580	         1.00947e+58
          1325.28210	         1.01046e+58
          1326.08840	         1.12586e+58
          1326.89470	         1.34664e+58
          1327.70100	         1.10769e+58
          1328.50730	         9.12661e+57
          1329.31360	         1.04405e+58
          1330.11990	         1.03751e+58
          1330.92620	         1.03749e+58
          1331.73250	         9.87848e+57
          1332.53880	         9.29459e+57
          1333.34510	         9.20556e+57
          1334.15140	         9.08436e+57
          1334.95770	         9.10221e+57
          1335.76400	         1.07038e+58
          1336.57030	         1.04712e+58
          1337.37660	         1.00744e+58
          1338.18290	         1.16473e+58
          1338.98920	         1.26493e+58
          1339.79550	         1.14716e+58
          1340.60180	         1.12776e+58
          1341.40810	         1.30379e+58
          1342.21440	         1.05172e+58
          1343.02070	         1.06818e+58
          1343.82700	         1.28827e+58
          1344.63330	         1.14254e+58
          1345.43960	         1.30900e+58
          1346.24590	         1.24480e+58
          1347.05220	         1.23674e+58
          1347.85850	         1.12881e+58
          1348.66480	         1.19561e+58
          1349.47110	         1.30588e+58
          1350.27740	         1.26158e+58
          1351.08370	         1.15855e+58
          1351.89000	         1.12472e+58
          1352.69630	         1.12529e+58
          1353.50260	         1.22187e+58
          1354.30890	         1.27205e+58
          1355.11520	         1.22776e+58
          1355.92150	         1.06255e+58
          1356.72780	         9.52596e+57
          1357.53410	         9.98164e+57
          1358.34040	         1.07424e+58
          1359.14670	         1.05454e+58
          1359.95300	         1.04646e+58
          1360.75930	         1.11972e+58
          1361.56560	         1.06571e+58
          1362.37190	         1.13869e+58
          1363.17820	         1.19162e+58
          1363.98450	         1.14863e+58
          1364.79080	         1.21055e+58
          1365.59710	         1.27248e+58
          1366.40340	         1.16989e+58
          1367.20970	         1.11249e+58
          1368.01600	         1.02484e+58
          1368.82230	         8.64754e+57
          1369.62860	         9.74898e+57
          1370.43490	         1.02606e+58
          1371.24120	         1.05843e+58
          1372.04750	         9.11083e+57
          1372.85380	         9.82230e+57
          1373.66010	         1.08501e+58
          1374.46640	         1.01152e+58
          1375.27270	         1.08778e+58
          1376.07900	         9.91175e+57
          1376.88530	         8.52687e+57
          1377.69160	         7.58270e+57
          1378.49790	         6.42134e+57
          1379.30420	         8.86319e+57
          1380.11050	         1.02697e+58
          1380.91680	         8.14048e+57
          1381.72310	         7.97618e+57
          1382.52940	         8.55638e+57
          1383.33570	         9.02536e+57
          1384.14200	         9.59244e+57
          1384.94830	         1.10806e+58
          1385.75460	         1.15696e+58
          1386.56090	         1.22200e+58
          1387.36720	         1.11401e+58
          1388.17350	         1.20025e+58
          1388.97980	         1.00560e+58
          1389.78610	         7.57152e+57
          1390.59240	         8.14811e+57
          1391.39870	         7.91544e+57
          1392.20500	         8.45026e+57
          1393.01130	         7.85301e+57
          1393.81760	         7.16720e+57
          1394.62390	         7.68013e+57
          1395.43020	         7.66393e+57
          1396.23650	         7.15370e+57
          1397.04280	         7.74317e+57
          1397.84910	         9.08140e+57
          1398.65540	         9.79881e+57
          1399.46170	         9.22402e+57
          1400.26800	         7.81533e+57
          1401.07430	         7.81544e+57
          1401.88060	         7.87682e+57
          1402.68690	         9.28875e+57
          1403.49320	         9.67418e+57
          1404.29950	         8.86574e+57
          1405.10580	         1.07709e+58
          1405.91210	         1.15132e+58
          1406.71840	         1.07732e+58
          1407.52470	         1.03197e+58
          1408.33100	         1.01741e+58
          1409.13730	         1.12646e+58
          1409.94360	         1.23635e+58
          1410.74990	         1.15252e+58
          1411.55620	         1.05425e+58
          1412.36250	         9.59616e+57
          1413.16880	         8.23265e+57
          1413.97510	         7.74007e+57
          1414.78140	         8.68670e+57
          1415.58770	         1.01377e+58
          1416.39400	         9.74883e+57
          1417.20030	         9.77464e+57
          1418.00660	         1.04492e+58
          1418.81290	         1.13462e+58
          1419.61920	         1.05615e+58
          1420.42550	         1.27059e+58
          1421.23180	         1.36353e+58
          1422.03810	         1.12529e+58
          1422.84440	         1.13821e+58
          1423.65070	         1.31961e+58
          1424.45700	         1.15623e+58
          1425.26330	         9.79124e+57
          1426.06960	         8.66250e+57
          1426.87590	         1.00842e+58
          1427.68220	         9.16469e+57
          1428.48850	         9.51150e+57
          1429.29480	         1.06950e+58
          1430.10110	         9.17558e+57
          1430.90740	         8.82858e+57
          1431.71370	         9.32080e+57
          1432.52000	         9.30750e+57
          1433.32630	         8.62731e+57
          1434.13260	         8.77831e+57
          1434.93890	         9.65057e+57
          1435.74520	         9.29007e+57
          1436.55150	         9.28726e+57
          1437.35780	         9.46391e+57
          1438.16410	         9.49336e+57
          1438.97040	         8.79047e+57
          1439.77670	         9.14652e+57
          1440.58300	         9.77988e+57
          1441.38930	         1.02619e+58
          1442.19560	         1.06999e+58
          1443.00190	         1.02650e+58
          1443.80820	         1.07192e+58
          1444.61450	         1.03123e+58
          1445.42080	         9.82615e+57
          1446.22710	         1.00292e+58
          1447.03340	         1.00159e+58
          1447.83970	         9.85367e+57
          1448.64600	         9.05987e+57
          1449.45230	         9.49844e+57
          1450.25860	         9.92895e+57
          1451.06490	         8.87945e+57
          1451.87120	         7.28122e+57
          1452.67750	         6.54018e+57
          1453.48380	         7.15880e+57
          1454.29010	         7.41216e+57
          1455.09640	         7.88462e+57
          1455.90270	         8.50953e+57
          1456.70900	         8.24236e+57
          1457.51530	         1.00145e+58
          1458.32160	         1.27378e+58
          1459.12790	         1.15204e+58
          1459.93420	         1.16820e+58
          1460.74050	         9.13302e+57
          1461.54680	         8.30755e+57
          1462.35310	         9.05721e+57
          1463.15940	         1.00258e+58
          1463.96570	         1.12966e+58
          1464.77200	         1.15445e+58
          1465.57830	         1.00365e+58
          1466.38460	         9.19134e+57
          1467.19090	         8.97319e+57
          1467.99720	         1.01398e+58
          1468.80350	         1.07181e+58
          1469.60980	         1.03971e+58
          1470.41610	         1.04705e+58
          1471.22240	         8.93916e+57
          1472.02870	         9.72347e+57
          1472.83500	         9.88617e+57
          1473.64130	         9.08847e+57
          1474.44760	         9.78985e+57
          1475.25390	         8.52254e+57
          1476.06020	         9.42113e+57
          1476.86650	         8.84595e+57
          1477.67280	         8.17957e+57
          1478.47910	         7.51728e+57
          1479.28540	         6.59631e+57
          1480.09170	         8.47304e+57
          1480.89800	         1.04164e+58
          1481.70430	         9.64848e+57
          1482.51060	         7.68313e+57
          1483.31690	         7.71735e+57
          1484.12320	         7.24951e+57
          1484.92950	         7.74765e+57
          1485.73580	         8.91963e+57
          1486.54210	         9.77556e+57
          1487.34840	         9.69489e+57
          1488.15470	         7.99719e+57
          1488.96100	         7.74610e+57
          1489.76730	         8.01647e+57
