#sample_21_stacked_spectrum_rest_UV-bands_median_H-alpha_noDC.txt
#median Lum: 1.73064e+42
#Rest-frame wavelength (A) | Luminosity (erg/s/A)
#
          1110.00000	         0.00000e+00
          1110.80630	         5.29854e+59
          1111.61260	         4.12849e+59
          1112.41890	         2.01964e+59
          1113.22520	        -9.41177e+58
          1114.03150	        -9.88472e+58
          1114.83780	         5.71816e+58
          1115.64410	         8.92209e+58
          1116.45040	         1.03991e+59
          1117.25670	         6.86009e+58
          1118.06300	         2.16333e+59
          1118.86930	         5.47800e+58
          1119.67560	         5.93398e+58
          1120.48190	        -8.88326e+58
          1121.28820	        -1.17134e+59
          1122.09450	         1.48158e+58
          1122.90080	        -2.49120e+57
          1123.70710	         1.60118e+58
          1124.51340	         6.53332e+58
          1125.31970	         3.46663e+58
          1126.12600	        -2.09530e+58
          1126.93230	        -3.08474e+58
          1127.73860	        -7.46456e+58
          1128.54490	         1.65715e+58
          1129.35120	         2.43027e+58
          1130.15750	        -1.31939e+58
          1130.96380	        -4.80105e+58
          1131.77010	         4.68579e+58
          1132.57640	         5.92416e+58
          1133.38270	         6.42439e+58
          1134.18900	         3.03818e+58
          1134.99530	        -4.65610e+57
          1135.80160	         3.55629e+58
          1136.60790	         2.45760e+58
          1137.41420	         1.08349e+58
          1138.22050	         3.75523e+58
          1139.02680	         3.85189e+58
          1139.83310	         2.31116e+58
          1140.63940	         1.69796e+58
          1141.44570	        -9.74811e+56
          1142.25200	        -1.02456e+58
          1143.05830	         1.91667e+58
          1143.86460	         1.53228e+58
          1144.67090	         4.29406e+58
          1145.47720	         9.16342e+57
          1146.28350	         1.11414e+58
          1147.08980	         9.55262e+57
          1147.89610	         2.29817e+58
          1148.70240	         2.37681e+58
          1149.50870	         1.17666e+58
          1150.31500	         9.82669e+57
          1151.12130	         1.58107e+58
          1151.92760	         9.31702e+57
          1152.73390	         9.56388e+57
          1153.54020	        -1.05844e+57
          1154.34650	         2.17536e+58
          1155.15280	         1.25033e+58
          1155.95910	         1.13537e+58
          1156.76540	         1.83751e+58
          1157.57170	         9.49092e+57
          1158.37800	         5.66719e+56
          1159.18430	        -5.24358e+57
          1159.99060	         4.97144e+57
          1160.79690	         5.88664e+57
          1161.60320	         1.24662e+58
          1162.40950	         2.01663e+58
          1163.21580	         1.56958e+58
          1164.02210	         1.96047e+58
          1164.82840	         1.37362e+58
          1165.63470	         2.13132e+58
          1166.44100	         2.77478e+58
          1167.24730	         1.97030e+58
          1168.05360	         1.35519e+58
          1168.85990	         1.16712e+58
          1169.66620	         7.15181e+57
          1170.47250	         1.33039e+58
          1171.27880	         1.86490e+58
          1172.08510	         1.76615e+58
          1172.89140	         8.22988e+57
          1173.69770	        -5.31098e+56
          1174.50400	         6.33660e+57
          1175.31030	         1.60779e+58
          1176.11660	         1.61545e+58
          1176.92290	         1.39227e+58
          1177.72920	         9.19741e+57
          1178.53550	         1.13818e+58
          1179.34180	         4.81697e+57
          1180.14810	         7.18892e+57
          1180.95440	         8.50007e+57
          1181.76070	         8.06346e+57
          1182.56700	         9.87408e+57
          1183.37330	         5.39069e+57
          1184.17960	         9.59560e+57
          1184.98590	         1.24004e+58
          1185.79220	         8.23221e+57
          1186.59850	         1.08541e+58
          1187.40480	         8.79488e+57
          1188.21110	         1.27459e+58
          1189.01740	         6.76234e+57
          1189.82370	         8.32301e+57
          1190.63000	         8.74294e+57
          1191.43630	         1.15495e+58
          1192.24260	         1.17602e+58
          1193.04890	         1.49763e+58
          1193.85520	         1.36694e+58
          1194.66150	         5.11501e+57
          1195.46780	         1.22965e+58
          1196.27410	         1.44017e+58
          1197.08040	         8.75584e+57
          1197.88670	         1.41255e+58
          1198.69300	         1.59884e+58
          1199.49930	         1.72982e+58
          1200.30560	         1.26646e+58
          1201.11190	         1.02070e+58
          1201.91820	         1.30766e+58
          1202.72450	         7.29002e+57
          1203.53080	         1.24262e+58
          1204.33710	         5.89131e+57
          1205.14340	         4.17803e+57
          1205.94970	         3.54811e+57
          1206.75600	         3.27377e+57
          1207.56230	         5.78111e+57
          1208.36860	         7.79322e+57
          1209.17490	         7.46808e+57
          1209.98120	         3.73094e+57
          1210.78750	         5.29830e+57
          1211.59380	         1.13329e+58
          1212.40010	         1.96007e+58
          1213.20640	         2.57121e+58
          1214.01270	         2.12622e+58
          1214.81900	         2.48190e+58
          1215.62530	         4.89362e+58
          1216.43160	         9.57929e+58
          1217.23790	         1.52063e+59
          1218.04420	         1.17497e+59
          1218.85050	         9.14500e+58
          1219.65680	         6.09052e+58
          1220.46310	         3.31155e+58
          1221.26940	         1.89068e+58
          1222.07570	         1.09851e+58
          1222.88200	         1.00447e+58
          1223.68830	         8.81579e+57
          1224.49460	         6.74133e+57
          1225.30090	         5.83851e+57
          1226.10720	         7.28184e+57
          1226.91350	         7.89725e+57
          1227.71980	         8.68214e+57
          1228.52610	         1.30661e+58
          1229.33240	         8.14821e+57
          1230.13870	         6.84483e+57
          1230.94500	         1.01605e+58
          1231.75130	         5.84172e+57
          1232.55760	         8.82596e+57
          1233.36390	         8.27511e+57
          1234.17020	         8.32873e+57
          1234.97650	         7.77157e+57
          1235.78280	         8.85400e+57
          1236.58910	         9.56189e+57
          1237.39540	         9.99129e+57
          1238.20170	         8.78786e+57
          1239.00800	         1.26601e+58
          1239.81430	         1.68060e+58
          1240.62060	         1.25352e+58
          1241.42690	         1.21311e+58
          1242.23320	         1.15860e+58
          1243.03950	         8.48962e+57
          1243.84580	         6.75346e+57
          1244.65210	         8.97865e+57
          1245.45840	         8.86953e+57
          1246.26470	         6.73959e+57
          1247.07100	         5.08911e+57
          1247.87730	         4.56757e+57
          1248.68360	         5.36786e+57
          1249.48990	         7.66018e+57
          1250.29620	         1.00813e+58
          1251.10250	         7.23486e+57
          1251.90880	         3.98881e+57
          1252.71510	         4.93500e+57
          1253.52140	         7.84850e+57
          1254.32770	         1.09660e+58
          1255.13400	         1.25970e+58
          1255.94030	         1.17970e+58
          1256.74660	         1.02175e+58
          1257.55290	         1.05964e+58
          1258.35920	         9.12586e+57
          1259.16550	         4.66640e+57
          1259.97180	         5.37983e+57
          1260.77810	         8.36576e+57
          1261.58440	         1.24232e+58
          1262.39070	         9.70870e+57
          1263.19700	         8.04492e+57
          1264.00330	         1.06242e+58
          1264.80960	         1.18708e+58
          1265.61590	         1.24760e+58
          1266.42220	         9.82549e+57
          1267.22850	         1.06962e+58
          1268.03480	         1.59232e+58
          1268.84110	         1.55585e+58
          1269.64740	         1.40272e+58
          1270.45370	         1.27899e+58
          1271.26000	         1.21160e+58
          1272.06630	         1.24889e+58
          1272.87260	         1.47893e+58
          1273.67890	         1.29472e+58
          1274.48520	         1.15446e+58
          1275.29150	         1.31112e+58
          1276.09780	         1.17306e+58
          1276.90410	         1.47909e+58
          1277.71040	         1.21731e+58
          1278.51670	         1.03996e+58
          1279.32300	         1.45180e+58
          1280.12930	         1.29381e+58
          1280.93560	         1.02466e+58
          1281.74190	         1.14932e+58
          1282.54820	         1.30210e+58
          1283.35450	         1.02614e+58
          1284.16080	         1.22890e+58
          1284.96710	         1.40536e+58
          1285.77340	         1.03708e+58
          1286.57970	         1.17469e+58
          1287.38600	         1.62131e+58
          1288.19230	         1.59043e+58
          1288.99860	         1.55572e+58
          1289.80490	         1.35633e+58
          1290.61120	         1.23882e+58
          1291.41750	         1.37742e+58
          1292.22380	         1.32475e+58
          1293.03010	         1.16704e+58
          1293.83640	         1.01694e+58
          1294.64270	         8.87476e+57
          1295.44900	         7.36002e+57
          1296.25530	         8.07669e+57
          1297.06160	         1.07300e+58
          1297.86790	         9.68457e+57
          1298.67420	         6.37481e+57
          1299.48050	         7.98105e+57
          1300.28680	         9.90443e+57
          1301.09310	         6.23965e+57
          1301.89940	         3.50796e+57
          1302.70570	         7.00365e+57
          1303.51200	         9.63602e+57
          1304.31830	         9.16626e+57
          1305.12460	         1.04593e+58
          1305.93090	         1.29008e+58
          1306.73720	         1.22961e+58
          1307.54350	         1.29034e+58
          1308.34980	         1.39397e+58
          1309.15610	         1.47388e+58
          1309.96240	         1.70999e+58
          1310.76870	         1.41579e+58
          1311.57500	         9.78442e+57
          1312.38130	         1.29196e+58
          1313.18760	         1.68909e+58
          1313.99390	         1.66573e+58
          1314.80020	         1.51825e+58
          1315.60650	         1.48132e+58
          1316.41280	         1.42830e+58
          1317.21910	         1.06826e+58
          1318.02540	         1.14333e+58
          1318.83170	         1.29318e+58
          1319.63800	         1.17045e+58
          1320.44430	         1.11887e+58
          1321.25060	         1.15696e+58
          1322.05690	         1.14042e+58
          1322.86320	         1.18976e+58
          1323.66950	         1.29027e+58
          1324.47580	         1.04718e+58
          1325.28210	         9.84790e+57
          1326.08840	         1.12395e+58
          1326.89470	         1.04253e+58
          1327.70100	         9.00830e+57
          1328.50730	         7.72953e+57
          1329.31360	         9.52161e+57
          1330.11990	         1.08807e+58
          1330.92620	         9.21314e+57
          1331.73250	         1.05268e+58
          1332.53880	         1.12527e+58
          1333.34510	         1.03752e+58
          1334.15140	         9.65122e+57
          1334.95770	         9.23056e+57
          1335.76400	         9.82356e+57
          1336.57030	         1.01540e+58
          1337.37660	         1.08085e+58
          1338.18290	         1.14778e+58
          1338.98920	         1.15936e+58
          1339.79550	         1.18415e+58
          1340.60180	         1.22465e+58
          1341.40810	         1.20800e+58
          1342.21440	         1.25056e+58
          1343.02070	         1.29256e+58
          1343.82700	         1.41507e+58
          1344.63330	         1.29761e+58
          1345.43960	         1.26763e+58
          1346.24590	         1.22717e+58
          1347.05220	         1.26891e+58
          1347.85850	         1.16597e+58
          1348.66480	         1.29512e+58
          1349.47110	         1.22897e+58
          1350.27740	         1.23952e+58
          1351.08370	         1.21047e+58
          1351.89000	         1.28198e+58
          1352.69630	         1.33083e+58
          1353.50260	         1.23410e+58
          1354.30890	         1.21396e+58
          1355.11520	         1.11303e+58
          1355.92150	         9.59888e+57
          1356.72780	         9.01021e+57
          1357.53410	         1.06684e+58
          1358.34040	         1.19499e+58
          1359.14670	         1.08872e+58
          1359.95300	         1.03875e+58
          1360.75930	         1.19329e+58
          1361.56560	         1.11066e+58
          1362.37190	         1.14210e+58
          1363.17820	         1.11817e+58
          1363.98450	         1.11553e+58
          1364.79080	         1.24793e+58
          1365.59710	         1.21462e+58
          1366.40340	         1.15154e+58
          1367.20970	         1.06878e+58
          1368.01600	         1.01294e+58
          1368.82230	         9.36983e+57
          1369.62860	         1.10623e+58
          1370.43490	         1.19060e+58
          1371.24120	         1.01965e+58
          1372.04750	         9.30814e+57
          1372.85380	         1.02253e+58
          1373.66010	         1.01393e+58
          1374.46640	         9.77168e+57
          1375.27270	         1.05269e+58
          1376.07900	         9.46393e+57
          1376.88530	         8.27989e+57
          1377.69160	         7.63469e+57
          1378.49790	         6.33228e+57
          1379.30420	         6.82957e+57
          1380.11050	         8.45339e+57
          1380.91680	         9.52854e+57
          1381.72310	         8.14069e+57
          1382.52940	         8.29882e+57
          1383.33570	         9.70107e+57
          1384.14200	         1.11300e+58
          1384.94830	         1.10668e+58
          1385.75460	         1.12534e+58
          1386.56090	         1.15085e+58
          1387.36720	         1.09201e+58
          1388.17350	         1.17841e+58
          1388.97980	         1.28430e+58
          1389.78610	         1.12809e+58
          1390.59240	         8.59811e+57
          1391.39870	         8.60754e+57
          1392.20500	         1.02405e+58
          1393.01130	         9.01634e+57
          1393.81760	         8.60672e+57
          1394.62390	         7.91192e+57
          1395.43020	         6.39193e+57
          1396.23650	         7.60940e+57
          1397.04280	         7.22612e+57
          1397.84910	         7.57725e+57
          1398.65540	         7.12696e+57
          1399.46170	         9.72821e+57
          1400.26800	         9.29313e+57
          1401.07430	         7.89799e+57
          1401.88060	         7.80689e+57
          1402.68690	         9.76264e+57
          1403.49320	         9.62704e+57
          1404.29950	         8.01265e+57
          1405.10580	         9.81457e+57
          1405.91210	         1.11269e+58
          1406.71840	         9.42023e+57
          1407.52470	         9.47551e+57
          1408.33100	         9.59624e+57
          1409.13730	         1.04616e+58
          1409.94360	         1.27660e+58
          1410.74990	         1.29210e+58
          1411.55620	         1.11118e+58
          1412.36250	         9.76373e+57
          1413.16880	         8.48480e+57
          1413.97510	         7.90836e+57
          1414.78140	         8.46192e+57
          1415.58770	         1.08124e+58
          1416.39400	         1.17738e+58
          1417.20030	         1.13300e+58
          1418.00660	         1.15422e+58
          1418.81290	         1.10716e+58
          1419.61920	         9.38799e+57
          1420.42550	         1.09535e+58
          1421.23180	         1.18667e+58
          1422.03810	         1.18051e+58
          1422.84440	         1.15214e+58
          1423.65070	         1.27332e+58
          1424.45700	         1.07889e+58
          1425.26330	         8.16615e+57
          1426.06960	         8.24677e+57
          1426.87590	         8.82499e+57
          1427.68220	         8.63779e+57
          1428.48850	         1.03999e+58
          1429.29480	         1.04626e+58
          1430.10110	         1.04411e+58
          1430.90740	         9.88498e+57
          1431.71370	         9.04638e+57
          1432.52000	         8.19069e+57
          1433.32630	         8.69546e+57
          1434.13260	         9.09837e+57
          1434.93890	         8.63408e+57
          1435.74520	         8.99577e+57
          1436.55150	         9.77296e+57
          1437.35780	         8.87367e+57
          1438.16410	         9.12170e+57
          1438.97040	         9.19177e+57
          1439.77670	         8.73652e+57
          1440.58300	         8.74597e+57
          1441.38930	         9.73137e+57
          1442.19560	         1.03436e+58
          1443.00190	         9.82010e+57
          1443.80820	         1.05187e+58
          1444.61450	         1.03855e+58
          1445.42080	         9.65631e+57
          1446.22710	         1.06911e+58
          1447.03340	         9.62025e+57
          1447.83970	         1.03201e+58
          1448.64600	         1.10391e+58
          1449.45230	         1.08888e+58
          1450.25860	         1.02001e+58
          1451.06490	         7.97108e+57
          1451.87120	         7.02998e+57
          1452.67750	         8.23162e+57
          1453.48380	         9.17921e+57
          1454.29010	         8.07867e+57
          1455.09640	         7.13496e+57
          1455.90270	         8.40948e+57
          1456.70900	         9.66037e+57
          1457.51530	         1.00624e+58
          1458.32160	         1.10282e+58
          1459.12790	         1.19065e+58
          1459.93420	         1.10708e+58
          1460.74050	         8.53124e+57
          1461.54680	         7.75453e+57
          1462.35310	         7.99544e+57
          1463.15940	         1.06580e+58
          1463.96570	         1.26449e+58
          1464.77200	         1.20410e+58
          1465.57830	         9.92331e+57
          1466.38460	         9.09665e+57
          1467.19090	         8.30596e+57
          1467.99720	         8.23296e+57
          1468.80350	         9.96056e+57
          1469.60980	         1.09275e+58
          1470.41610	         1.11007e+58
          1471.22240	         1.04041e+58
          1472.02870	         9.83578e+57
          1472.83500	         9.54735e+57
          1473.64130	         9.27590e+57
          1474.44760	         8.72243e+57
          1475.25390	         9.04085e+57
          1476.06020	         9.07616e+57
          1476.86650	         7.09244e+57
          1477.67280	         6.61075e+57
          1478.47910	         6.99501e+57
          1479.28540	         7.68552e+57
          1480.09170	         9.92347e+57
          1480.89800	         9.29324e+57
          1481.70430	         9.16190e+57
          1482.51060	         9.39895e+57
          1483.31690	         8.30520e+57
          1484.12320	         7.98556e+57
          1484.92950	         7.00458e+57
          1485.73580	         6.48150e+57
          1486.54210	         7.79591e+57
          1487.34840	         8.95546e+57
          1488.15470	         8.27514e+57
          1488.96100	         8.15592e+57
          1489.76730	         9.01283e+57
