#sample_64_stacked_spectrum_rest_UV-bands_median_H-alpha_noDC.txt
#median Lum: 1.68797e+42
#Rest-frame wavelength (A) | Luminosity (erg/s/A)
#
          1110.00000	         0.00000e+00
          1110.80630	         5.03489e+59
          1111.61260	         4.21758e+59
          1112.41890	         2.52704e+59
          1113.22520	         4.44921e+58
          1114.03150	         6.21151e+58
          1114.83780	         3.64243e+58
          1115.64410	         1.28131e+59
          1116.45040	         3.19694e+59
          1117.25670	        -3.98828e+58
          1118.06300	         1.83823e+58
          1118.86930	         2.99469e+58
          1119.67560	         1.34451e+59
          1120.48190	        -7.29360e+58
          1121.28820	        -1.33016e+59
          1122.09450	        -1.74711e+57
          1122.90080	         3.34371e+58
          1123.70710	         7.66816e+58
          1124.51340	         8.20526e+58
          1125.31970	        -2.40637e+58
          1126.12600	        -7.00056e+57
          1126.93230	        -4.19357e+58
          1127.73860	        -2.15061e+58
          1128.54490	        -8.45367e+57
          1129.35120	        -1.80505e+58
          1130.15750	        -1.01820e+58
          1130.96380	        -4.70751e+58
          1131.77010	         3.13543e+58
          1132.57640	         3.91926e+58
          1133.38270	         2.91585e+57
          1134.18900	        -1.01396e+58
          1134.99530	         2.10312e+58
          1135.80160	         3.09967e+57
          1136.60790	         1.59548e+56
          1137.41420	        -2.31661e+58
          1138.22050	         2.30787e+58
          1139.02680	         4.02024e+58
          1139.83310	         1.97488e+58
          1140.63940	         1.50468e+58
          1141.44570	         2.12625e+57
          1142.25200	        -3.35957e+57
          1143.05830	         1.29800e+58
          1143.86460	         2.46138e+58
          1144.67090	         4.63714e+58
          1145.47720	         1.50552e+58
          1146.28350	         8.86384e+57
          1147.08980	         2.31085e+58
          1147.89610	         3.50864e+58
          1148.70240	         2.22968e+58
          1149.50870	         1.63773e+58
          1150.31500	         1.07991e+58
          1151.12130	         4.72866e+57
          1151.92760	        -4.88283e+57
          1152.73390	         2.05321e+57
          1153.54020	         8.59589e+57
          1154.34650	         2.28625e+58
          1155.15280	         1.73486e+58
          1155.95910	         1.87352e+57
          1156.76540	        -8.06427e+57
          1157.57170	        -3.97206e+57
          1158.37800	         7.11517e+57
          1159.18430	         1.37397e+57
          1159.99060	         3.54782e+57
          1160.79690	         2.21323e+57
          1161.60320	         1.64665e+58
          1162.40950	         2.40065e+58
          1163.21580	         1.07638e+58
          1164.02210	         7.65914e+57
          1164.82840	         6.06490e+56
          1165.63470	         2.31630e+58
          1166.44100	         3.05332e+58
          1167.24730	         2.01197e+58
          1168.05360	         7.38402e+57
          1168.85990	         5.67008e+57
          1169.66620	         7.15155e+57
          1170.47250	         1.09299e+58
          1171.27880	         5.77103e+57
          1172.08510	         1.03480e+58
          1172.89140	         1.67569e+58
          1173.69770	         7.61363e+57
          1174.50400	         1.15503e+58
          1175.31030	         1.86315e+58
          1176.11660	         1.56959e+58
          1176.92290	         1.27440e+58
          1177.72920	         9.35253e+57
          1178.53550	         1.26632e+58
          1179.34180	         4.49711e+57
          1180.14810	         6.79337e+57
          1180.95440	         1.23274e+58
          1181.76070	         1.26428e+58
          1182.56700	         9.35870e+57
          1183.37330	         7.78878e+57
          1184.17960	         1.24390e+58
          1184.98590	         1.13366e+58
          1185.79220	         5.54469e+57
          1186.59850	         1.16902e+58
          1187.40480	         8.98795e+57
          1188.21110	         2.01120e+58
          1189.01740	         8.90929e+57
          1189.82370	         1.20415e+58
          1190.63000	         1.59255e+58
          1191.43630	         1.35055e+58
          1192.24260	         5.73068e+57
          1193.04890	         9.87108e+57
          1193.85520	         1.12587e+58
          1194.66150	         4.80338e+57
          1195.46780	         1.11937e+58
          1196.27410	         1.57439e+58
          1197.08040	         1.19734e+58
          1197.88670	         1.35167e+58
          1198.69300	         1.55130e+58
          1199.49930	         1.09703e+58
          1200.30560	         9.33069e+57
          1201.11190	         1.12650e+58
          1201.91820	         9.45207e+57
          1202.72450	         8.31283e+57
          1203.53080	         1.40218e+58
          1204.33710	         9.22475e+57
          1205.14340	         4.61714e+57
          1205.94970	         5.24339e+57
          1206.75600	         7.77421e+57
          1207.56230	         8.94244e+57
          1208.36860	         1.00976e+58
          1209.17490	         6.45039e+57
          1209.98120	         4.72511e+57
          1210.78750	         5.15871e+57
          1211.59380	         1.12231e+58
          1212.40010	         1.88523e+58
          1213.20640	         1.97461e+58
          1214.01270	         1.82473e+58
          1214.81900	         2.36382e+58
          1215.62530	         4.48145e+58
          1216.43160	         9.22327e+58
          1217.23790	         1.55585e+59
          1218.04420	         1.15695e+59
          1218.85050	         8.56901e+58
          1219.65680	         5.75869e+58
          1220.46310	         3.58960e+58
          1221.26940	         2.76718e+58
          1222.07570	         1.79292e+58
          1222.88200	         1.28022e+58
          1223.68830	         9.37510e+57
          1224.49460	         7.73386e+57
          1225.30090	         8.72814e+57
          1226.10720	         8.66306e+57
          1226.91350	         8.73548e+57
          1227.71980	         1.18013e+58
          1228.52610	         1.30201e+58
          1229.33240	         1.28234e+58
          1230.13870	         1.09913e+58
          1230.94500	         9.24688e+57
          1231.75130	         6.04958e+57
          1232.55760	         8.08741e+57
          1233.36390	         7.39393e+57
          1234.17020	         9.67679e+57
          1234.97650	         7.36692e+57
          1235.78280	         6.17440e+57
          1236.58910	         8.68277e+57
          1237.39540	         1.04657e+58
          1238.20170	         1.03135e+58
          1239.00800	         1.39971e+58
          1239.81430	         1.57601e+58
          1240.62060	         1.06394e+58
          1241.42690	         1.04305e+58
          1242.23320	         1.30720e+58
          1243.03950	         9.32702e+57
          1243.84580	         1.00745e+58
          1244.65210	         1.14021e+58
          1245.45840	         1.14438e+58
          1246.26470	         1.09644e+58
          1247.07100	         7.95069e+57
          1247.87730	         5.58144e+57
          1248.68360	         6.51338e+57
          1249.48990	         1.01078e+58
          1250.29620	         9.15811e+57
          1251.10250	         6.41218e+57
          1251.90880	         6.18185e+57
          1252.71510	         6.41009e+57
          1253.52140	         6.92192e+57
          1254.32770	         1.12786e+58
          1255.13400	         1.43304e+58
          1255.94030	         1.46562e+58
          1256.74660	         1.29720e+58
          1257.55290	         9.28818e+57
          1258.35920	         6.85392e+57
          1259.16550	         5.09789e+57
          1259.97180	         5.17578e+57
          1260.77810	         8.65463e+57
          1261.58440	         1.23320e+58
          1262.39070	         1.20834e+58
          1263.19700	         9.15666e+57
          1264.00330	         7.30732e+57
          1264.80960	         8.93347e+57
          1265.61590	         1.29413e+58
          1266.42220	         1.11984e+58
          1267.22850	         1.07104e+58
          1268.03480	         1.26407e+58
          1268.84110	         1.27414e+58
          1269.64740	         1.31621e+58
          1270.45370	         1.20222e+58
          1271.26000	         1.26709e+58
          1272.06630	         1.38643e+58
          1272.87260	         1.35087e+58
          1273.67890	         1.22455e+58
          1274.48520	         1.13276e+58
          1275.29150	         1.15402e+58
          1276.09780	         1.19914e+58
          1276.90410	         1.42353e+58
          1277.71040	         1.30226e+58
          1278.51670	         1.39638e+58
          1279.32300	         1.48825e+58
          1280.12930	         1.27967e+58
          1280.93560	         1.13162e+58
          1281.74190	         1.22091e+58
          1282.54820	         1.48337e+58
          1283.35450	         1.26635e+58
          1284.16080	         1.14869e+58
          1284.96710	         1.45716e+58
          1285.77340	         1.14337e+58
          1286.57970	         9.81308e+57
          1287.38600	         1.44764e+58
          1288.19230	         1.73460e+58
          1288.99860	         1.48439e+58
          1289.80490	         1.08247e+58
          1290.61120	         1.16241e+58
          1291.41750	         1.39566e+58
          1292.22380	         1.36104e+58
          1293.03010	         1.25426e+58
          1293.83640	         1.18871e+58
          1294.64270	         1.04027e+58
          1295.44900	         6.43601e+57
          1296.25530	         7.46579e+57
          1297.06160	         9.54757e+57
          1297.86790	         1.03708e+58
          1298.67420	         9.90545e+57
          1299.48050	         1.03075e+58
          1300.28680	         1.10083e+58
          1301.09310	         8.16963e+57
          1301.89940	         5.29038e+57
          1302.70570	         6.78541e+57
          1303.51200	         7.64293e+57
          1304.31830	         1.15870e+58
          1305.12460	         1.20340e+58
          1305.93090	         1.14341e+58
          1306.73720	         1.34714e+58
          1307.54350	         1.33489e+58
          1308.34980	         1.47791e+58
          1309.15610	         1.63311e+58
          1309.96240	         1.68998e+58
          1310.76870	         1.62541e+58
          1311.57500	         1.50545e+58
          1312.38130	         1.26375e+58
          1313.18760	         1.18373e+58
          1313.99390	         1.45043e+58
          1314.80020	         1.64103e+58
          1315.60650	         1.62448e+58
          1316.41280	         1.10606e+58
          1317.21910	         8.53011e+57
          1318.02540	         1.21255e+58
          1318.83170	         1.25549e+58
          1319.63800	         1.12055e+58
          1320.44430	         1.16286e+58
          1321.25060	         1.19256e+58
          1322.05690	         1.17985e+58
          1322.86320	         1.27155e+58
          1323.66950	         1.00106e+58
          1324.47580	         9.06295e+57
          1325.28210	         1.08942e+58
          1326.08840	         1.20307e+58
          1326.89470	         1.16754e+58
          1327.70100	         1.15434e+58
          1328.50730	         8.88088e+57
          1329.31360	         8.16062e+57
          1330.11990	         9.67803e+57
          1330.92620	         8.91684e+57
          1331.73250	         1.06210e+58
          1332.53880	         1.07138e+58
          1333.34510	         9.27835e+57
          1334.15140	         9.17037e+57
          1334.95770	         9.00036e+57
          1335.76400	         1.03040e+58
          1336.57030	         9.92012e+57
          1337.37660	         8.44425e+57
          1338.18290	         9.63751e+57
          1338.98920	         1.06486e+58
          1339.79550	         1.00034e+58
          1340.60180	         1.14868e+58
          1341.40810	         1.26872e+58
          1342.21440	         1.11518e+58
          1343.02070	         1.22113e+58
          1343.82700	         1.44263e+58
          1344.63330	         1.32974e+58
          1345.43960	         1.06523e+58
          1346.24590	         7.06153e+57
          1347.05220	         1.13257e+58
          1347.85850	         1.14393e+58
          1348.66480	         1.09857e+58
          1349.47110	         1.16257e+58
          1350.27740	         1.20586e+58
          1351.08370	         1.21083e+58
          1351.89000	         1.23888e+58
          1352.69630	         1.21089e+58
          1353.50260	         1.16412e+58
          1354.30890	         1.32054e+58
          1355.11520	         1.23173e+58
          1355.92150	         1.05504e+58
          1356.72780	         1.03260e+58
          1357.53410	         1.13603e+58
          1358.34040	         1.13505e+58
          1359.14670	         1.09498e+58
          1359.95300	         1.20268e+58
          1360.75930	         1.16273e+58
          1361.56560	         1.05976e+58
          1362.37190	         1.18539e+58
          1363.17820	         1.22603e+58
          1363.98450	         1.21640e+58
          1364.79080	         1.20422e+58
          1365.59710	         1.22762e+58
          1366.40340	         1.24797e+58
          1367.20970	         1.23972e+58
          1368.01600	         9.97100e+57
          1368.82230	         8.66210e+57
          1369.62860	         1.09135e+58
          1370.43490	         9.48664e+57
          1371.24120	         9.69482e+57
          1372.04750	         1.01884e+58
          1372.85380	         1.22202e+58
          1373.66010	         1.14318e+58
          1374.46640	         1.12950e+58
          1375.27270	         1.10467e+58
          1376.07900	         8.70438e+57
          1376.88530	         8.63987e+57
          1377.69160	         9.41340e+57
          1378.49790	         7.83468e+57
          1379.30420	         7.66681e+57
          1380.11050	         9.04765e+57
          1380.91680	         8.47985e+57
          1381.72310	         7.02149e+57
          1382.52940	         8.12231e+57
          1383.33570	         8.97879e+57
          1384.14200	         9.23126e+57
          1384.94830	         1.07677e+58
          1385.75460	         1.02129e+58
          1386.56090	         1.08427e+58
          1387.36720	         9.96223e+57
          1388.17350	         1.08892e+58
          1388.97980	         1.10782e+58
          1389.78610	         9.57633e+57
          1390.59240	         8.59974e+57
          1391.39870	         8.73449e+57
          1392.20500	         8.92964e+57
          1393.01130	         8.40086e+57
          1393.81760	         7.86874e+57
          1394.62390	         7.34940e+57
          1395.43020	         6.70504e+57
          1396.23650	         6.35368e+57
          1397.04280	         7.68872e+57
          1397.84910	         8.82016e+57
          1398.65540	         9.60864e+57
          1399.46170	         9.55357e+57
          1400.26800	         7.29148e+57
          1401.07430	         7.05840e+57
          1401.88060	         7.69000e+57
          1402.68690	         9.92425e+57
          1403.49320	         1.04526e+58
          1404.29950	         9.30511e+57
          1405.10580	         1.06349e+58
          1405.91210	         1.12830e+58
          1406.71840	         1.13284e+58
          1407.52470	         1.13760e+58
          1408.33100	         1.02219e+58
          1409.13730	         1.18496e+58
          1409.94360	         1.22521e+58
          1410.74990	         1.19268e+58
          1411.55620	         1.06413e+58
          1412.36250	         9.15997e+57
          1413.16880	         9.11010e+57
          1413.97510	         8.11814e+57
          1414.78140	         9.61239e+57
          1415.58770	         1.18085e+58
          1416.39400	         1.30510e+58
          1417.20030	         1.15748e+58
          1418.00660	         9.34191e+57
          1418.81290	         9.84720e+57
          1419.61920	         1.07519e+58
          1420.42550	         1.24927e+58
          1421.23180	         1.36935e+58
          1422.03810	         1.33568e+58
          1422.84440	         1.23455e+58
          1423.65070	         1.30552e+58
          1424.45700	         1.02894e+58
          1425.26330	         8.71644e+57
          1426.06960	         9.16117e+57
          1426.87590	         1.00440e+58
          1427.68220	         9.56692e+57
          1428.48850	         1.14284e+58
          1429.29480	         1.16849e+58
          1430.10110	         9.63596e+57
          1430.90740	         9.39231e+57
          1431.71370	         9.37197e+57
          1432.52000	         8.71226e+57
          1433.32630	         8.45553e+57
          1434.13260	         8.39472e+57
          1434.93890	         8.66932e+57
          1435.74520	         9.17686e+57
          1436.55150	         9.47939e+57
          1437.35780	         9.15657e+57
          1438.16410	         8.92626e+57
          1438.97040	         9.06215e+57
          1439.77670	         8.16313e+57
          1440.58300	         9.03995e+57
          1441.38930	         1.03132e+58
          1442.19560	         9.93590e+57
          1443.00190	         1.01111e+58
          1443.80820	         1.12866e+58
          1444.61450	         1.03965e+58
          1445.42080	         9.13190e+57
          1446.22710	         9.57483e+57
          1447.03340	         9.98583e+57
          1447.83970	         1.10820e+58
          1448.64600	         1.09795e+58
          1449.45230	         1.07939e+58
          1450.25860	         1.12565e+58
          1451.06490	         9.43918e+57
          1451.87120	         7.50834e+57
          1452.67750	         6.82524e+57
          1453.48380	         8.13503e+57
          1454.29010	         8.48506e+57
          1455.09640	         7.43114e+57
          1455.90270	         7.99039e+57
          1456.70900	         8.83798e+57
          1457.51530	         9.19950e+57
          1458.32160	         1.12738e+58
          1459.12790	         1.23735e+58
          1459.93420	         1.16165e+58
          1460.74050	         8.49414e+57
          1461.54680	         8.06983e+57
          1462.35310	         8.98970e+57
          1463.15940	         9.56433e+57
          1463.96570	         1.05848e+58
          1464.77200	         1.11503e+58
          1465.57830	         1.05307e+58
          1466.38460	         9.10807e+57
          1467.19090	         8.40262e+57
          1467.99720	         9.41324e+57
          1468.80350	         9.57249e+57
          1469.60980	         1.10976e+58
          1470.41610	         1.19543e+58
          1471.22240	         9.43754e+57
          1472.02870	         9.73063e+57
          1472.83500	         1.02532e+58
          1473.64130	         1.01813e+58
          1474.44760	         1.08280e+58
          1475.25390	         1.04859e+58
          1476.06020	         9.58146e+57
          1476.86650	         9.23037e+57
          1477.67280	         7.94835e+57
          1478.47910	         7.65474e+57
          1479.28540	         8.00183e+57
          1480.09170	         8.25928e+57
          1480.89800	         8.51250e+57
          1481.70430	         8.77111e+57
          1482.51060	         8.41949e+57
          1483.31690	         7.88341e+57
          1484.12320	         8.56141e+57
          1484.92950	         8.49711e+57
          1485.73580	         8.37895e+57
          1486.54210	         8.77122e+57
          1487.34840	         8.27036e+57
          1488.15470	         8.46496e+57
          1488.96100	         8.82207e+57
          1489.76730	         8.95251e+57
