#sample_329_stacked_spectrum_rest_UV-bands_median_H-alpha_noDC.txt
#median Lum: 1.69201e+42
#Rest-frame wavelength (A) | Luminosity (erg/s/A)
#
          1110.00000	         0.00000e+00
          1110.80630	         2.18584e+59
          1111.61260	         1.20789e+59
          1112.41890	         7.22217e+57
          1113.22520	         1.05590e+59
          1114.03150	        -6.05249e+58
          1114.83780	         5.48155e+57
          1115.64410	         1.03818e+59
          1116.45040	         4.28157e+58
          1117.25670	         2.60321e+58
          1118.06300	         2.52947e+59
          1118.86930	         4.56473e+58
          1119.67560	         1.68512e+59
          1120.48190	         4.60941e+58
          1121.28820	        -1.52194e+59
          1122.09450	        -2.51060e+58
          1122.90080	         8.72159e+57
          1123.70710	         4.85523e+58
          1124.51340	        -1.77871e+58
          1125.31970	        -1.94614e+58
          1126.12600	        -2.07523e+58
          1126.93230	        -5.05364e+58
          1127.73860	        -5.27698e+58
          1128.54490	        -1.31676e+58
          1129.35120	         1.20526e+58
          1130.15750	        -6.43867e+58
          1130.96380	        -6.19310e+58
          1131.77010	         2.42867e+58
          1132.57640	         3.93912e+58
          1133.38270	         6.22962e+58
          1134.18900	         3.21712e+58
          1134.99530	        -3.23448e+58
          1135.80160	         1.78437e+58
          1136.60790	         1.30708e+58
          1137.41420	         1.27971e+58
          1138.22050	         5.50516e+58
          1139.02680	         4.35662e+58
          1139.83310	         3.84445e+58
          1140.63940	         6.57417e+57
          1141.44570	        -2.34954e+58
          1142.25200	         1.86719e+58
          1143.05830	         3.74856e+58
          1143.86460	         1.87648e+58
          1144.67090	         9.27556e+57
          1145.47720	         4.40517e+57
          1146.28350	         2.50035e+58
          1147.08980	         1.91354e+58
          1147.89610	         2.98517e+58
          1148.70240	         2.78861e+58
          1149.50870	         2.72892e+58
          1150.31500	         1.36593e+58
          1151.12130	         5.03913e+57
          1151.92760	        -9.75970e+57
          1152.73390	         2.68510e+57
          1153.54020	         7.14866e+57
          1154.34650	         2.49781e+58
          1155.15280	         2.76171e+58
          1155.95910	         8.77921e+57
          1156.76540	        -4.34144e+57
          1157.57170	         2.42139e+57
          1158.37800	        -3.89703e+57
          1159.18430	        -1.59885e+57
          1159.99060	         3.21918e+57
          1160.79690	         6.22071e+56
          1161.60320	         6.84451e+57
          1162.40950	         1.24754e+58
          1163.21580	         8.81571e+57
          1164.02210	         1.44068e+58
          1164.82840	         1.09963e+58
          1165.63470	         2.70736e+58
          1166.44100	         3.00197e+58
          1167.24730	         2.32007e+58
          1168.05360	         9.68869e+57
          1168.85990	         1.44190e+58
          1169.66620	         1.70993e+58
          1170.47250	         1.27236e+58
          1171.27880	         4.03064e+57
          1172.08510	         1.46791e+57
          1172.89140	         6.07910e+57
          1173.69770	         7.81159e+57
          1174.50400	         1.16289e+58
          1175.31030	         1.96204e+58
          1176.11660	         2.18553e+58
          1176.92290	         1.73511e+58
          1177.72920	         1.40128e+58
          1178.53550	         6.23462e+57
          1179.34180	         4.77671e+57
          1180.14810	         7.99856e+57
          1180.95440	         9.21478e+57
          1181.76070	         1.21188e+58
          1182.56700	         9.12615e+57
          1183.37330	         8.14951e+57
          1184.17960	         1.29093e+58
          1184.98590	         1.33243e+58
          1185.79220	         8.83647e+57
          1186.59850	         1.22014e+58
          1187.40480	         1.36298e+58
          1188.21110	         1.86843e+58
          1189.01740	         1.02419e+58
          1189.82370	         9.76198e+57
          1190.63000	         1.13514e+58
          1191.43630	         1.02326e+58
          1192.24260	         6.93450e+57
          1193.04890	         1.21008e+58
          1193.85520	         1.15418e+58
          1194.66150	         6.82508e+57
          1195.46780	         7.45817e+57
          1196.27410	         1.05261e+58
          1197.08040	         1.38059e+58
          1197.88670	         1.55703e+58
          1198.69300	         1.45278e+58
          1199.49930	         1.42467e+58
          1200.30560	         9.79041e+57
          1201.11190	         7.36004e+57
          1201.91820	         6.94003e+57
          1202.72450	         5.96199e+57
          1203.53080	         1.32512e+58
          1204.33710	         8.80311e+57
          1205.14340	         5.12777e+57
          1205.94970	         6.77023e+57
          1206.75600	         7.17106e+57
          1207.56230	         6.63136e+57
          1208.36860	         7.52436e+57
          1209.17490	         5.85607e+57
          1209.98120	         3.25178e+57
          1210.78750	         5.25614e+57
          1211.59380	         1.18679e+58
          1212.40010	         1.56990e+58
          1213.20640	         1.75523e+58
          1214.01270	         1.67275e+58
          1214.81900	         2.22283e+58
          1215.62530	         4.48217e+58
          1216.43160	         8.98741e+58
          1217.23790	         1.49078e+59
          1218.04420	         1.11863e+59
          1218.85050	         8.89634e+58
          1219.65680	         5.92220e+58
          1220.46310	         3.56604e+58
          1221.26940	         2.47885e+58
          1222.07570	         1.38951e+58
          1222.88200	         1.18588e+58
          1223.68830	         1.18714e+58
          1224.49460	         9.51841e+57
          1225.30090	         6.63789e+57
          1226.10720	         5.67942e+57
          1226.91350	         5.49166e+57
          1227.71980	         8.43991e+57
          1228.52610	         1.41817e+58
          1229.33240	         9.71904e+57
          1230.13870	         5.86773e+57
          1230.94500	         8.99520e+57
          1231.75130	         8.61797e+57
          1232.55760	         8.78559e+57
          1233.36390	         9.50803e+57
          1234.17020	         9.19279e+57
          1234.97650	         1.03796e+58
          1235.78280	         8.98415e+57
          1236.58910	         6.41659e+57
          1237.39540	         8.90373e+57
          1238.20170	         1.03664e+58
          1239.00800	         1.22152e+58
          1239.81430	         1.54476e+58
          1240.62060	         1.24686e+58
          1241.42690	         9.22215e+57
          1242.23320	         1.07219e+58
          1243.03950	         8.67870e+57
          1243.84580	         1.03902e+58
          1244.65210	         1.28211e+58
          1245.45840	         1.02673e+58
          1246.26470	         9.26318e+57
          1247.07100	         7.35561e+57
          1247.87730	         7.17699e+57
          1248.68360	         4.49323e+57
          1249.48990	         7.70751e+57
          1250.29620	         7.85361e+57
          1251.10250	         5.66461e+57
          1251.90880	         1.57727e+57
          1252.71510	         6.49227e+57
          1253.52140	         9.49245e+57
          1254.32770	         9.29724e+57
          1255.13400	         1.22489e+58
          1255.94030	         1.16744e+58
          1256.74660	         1.00002e+58
          1257.55290	         1.04979e+58
          1258.35920	         8.71580e+57
          1259.16550	         5.10876e+57
          1259.97180	         6.16154e+57
          1260.77810	         7.66165e+57
          1261.58440	         1.12327e+58
          1262.39070	         9.69958e+57
          1263.19700	         6.64008e+57
          1264.00330	         8.19201e+57
          1264.80960	         1.06734e+58
          1265.61590	         1.30087e+58
          1266.42220	         1.41342e+58
          1267.22850	         1.28420e+58
          1268.03480	         1.23978e+58
          1268.84110	         1.46552e+58
          1269.64740	         1.29295e+58
          1270.45370	         1.22464e+58
          1271.26000	         1.20224e+58
          1272.06630	         1.16788e+58
          1272.87260	         1.16368e+58
          1273.67890	         1.16227e+58
          1274.48520	         1.21591e+58
          1275.29150	         1.12357e+58
          1276.09780	         9.84225e+57
          1276.90410	         1.19324e+58
          1277.71040	         1.12024e+58
          1278.51670	         1.15808e+58
          1279.32300	         1.28006e+58
          1280.12930	         1.33984e+58
          1280.93560	         1.20769e+58
          1281.74190	         1.03584e+58
          1282.54820	         1.16596e+58
          1283.35450	         1.08623e+58
          1284.16080	         1.14264e+58
          1284.96710	         1.40589e+58
          1285.77340	         1.15720e+58
          1286.57970	         9.23889e+57
          1287.38600	         1.15070e+58
          1288.19230	         1.50733e+58
          1288.99860	         1.43152e+58
          1289.80490	         1.15153e+58
          1290.61120	         1.38127e+58
          1291.41750	         1.30784e+58
          1292.22380	         1.12286e+58
          1293.03010	         1.12932e+58
          1293.83640	         1.17235e+58
          1294.64270	         1.04696e+58
          1295.44900	         6.77153e+57
          1296.25530	         6.82233e+57
          1297.06160	         1.02439e+58
          1297.86790	         1.05996e+58
          1298.67420	         8.77121e+57
          1299.48050	         8.84707e+57
          1300.28680	         9.15403e+57
          1301.09310	         8.58434e+57
          1301.89940	         5.79033e+57
          1302.70570	         6.28103e+57
          1303.51200	         9.35181e+57
          1304.31830	         1.13904e+58
          1305.12460	         1.13159e+58
          1305.93090	         1.10517e+58
          1306.73720	         1.30853e+58
          1307.54350	         1.49262e+58
          1308.34980	         1.41125e+58
          1309.15610	         1.49555e+58
          1309.96240	         1.44202e+58
          1310.76870	         1.38596e+58
          1311.57500	         1.40253e+58
          1312.38130	         1.00353e+58
          1313.18760	         1.37307e+58
          1313.99390	         1.61137e+58
          1314.80020	         1.63289e+58
          1315.60650	         1.56935e+58
          1316.41280	         1.36475e+58
          1317.21910	         1.14873e+58
          1318.02540	         1.19020e+58
          1318.83170	         1.31878e+58
          1319.63800	         1.25769e+58
          1320.44430	         1.01897e+58
          1321.25060	         1.07557e+58
          1322.05690	         1.21308e+58
          1322.86320	         1.09698e+58
          1323.66950	         1.11707e+58
          1324.47580	         1.00927e+58
          1325.28210	         9.41118e+57
          1326.08840	         1.08555e+58
          1326.89470	         1.31845e+58
          1327.70100	         1.25911e+58
          1328.50730	         8.26723e+57
          1329.31360	         9.18688e+57
          1330.11990	         1.15681e+58
          1330.92620	         1.06205e+58
          1331.73250	         1.02211e+58
          1332.53880	         9.98275e+57
          1333.34510	         8.48039e+57
          1334.15140	         7.71575e+57
          1334.95770	         9.95490e+57
          1335.76400	         1.17262e+58
          1336.57030	         1.05056e+58
          1337.37660	         9.56097e+57
          1338.18290	         8.60528e+57
          1338.98920	         9.84398e+57
          1339.79550	         9.65451e+57
          1340.60180	         1.23222e+58
          1341.40810	         1.38752e+58
          1342.21440	         1.20538e+58
          1343.02070	         1.35673e+58
          1343.82700	         1.44927e+58
          1344.63330	         1.28564e+58
          1345.43960	         1.14702e+58
          1346.24590	         1.00915e+58
          1347.05220	         1.12672e+58
          1347.85850	         1.04928e+58
          1348.66480	         1.09420e+58
          1349.47110	         1.14528e+58
          1350.27740	         1.14489e+58
          1351.08370	         1.28578e+58
          1351.89000	         1.17204e+58
          1352.69630	         9.95205e+57
          1353.50260	         1.09135e+58
          1354.30890	         1.26756e+58
          1355.11520	         1.11313e+58
          1355.92150	         1.06547e+58
          1356.72780	         1.05479e+58
          1357.53410	         1.08339e+58
          1358.34040	         1.12614e+58
          1359.14670	         1.05815e+58
          1359.95300	         1.09795e+58
          1360.75930	         1.13196e+58
          1361.56560	         1.03732e+58
          1362.37190	         1.04832e+58
          1363.17820	         1.04826e+58
          1363.98450	         1.21126e+58
          1364.79080	         1.40008e+58
          1365.59710	         1.30435e+58
          1366.40340	         1.08599e+58
          1367.20970	         9.41702e+57
          1368.01600	         9.96744e+57
          1368.82230	         1.05013e+58
          1369.62860	         1.07409e+58
          1370.43490	         8.42538e+57
          1371.24120	         8.71878e+57
          1372.04750	         8.72646e+57
          1372.85380	         1.07397e+58
          1373.66010	         1.27928e+58
          1374.46640	         1.06064e+58
          1375.27270	         1.04702e+58
          1376.07900	         9.23647e+57
          1376.88530	         8.53136e+57
          1377.69160	         8.14686e+57
          1378.49790	         7.21059e+57
          1379.30420	         8.47971e+57
          1380.11050	         9.57259e+57
          1380.91680	         7.72294e+57
          1381.72310	         6.82603e+57
          1382.52940	         9.40214e+57
          1383.33570	         1.03206e+58
          1384.14200	         9.24751e+57
          1384.94830	         9.82664e+57
          1385.75460	         9.41079e+57
          1386.56090	         9.97660e+57
          1387.36720	         1.09225e+58
          1388.17350	         1.40786e+58
          1388.97980	         1.17622e+58
          1389.78610	         8.97560e+57
          1390.59240	         8.45991e+57
          1391.39870	         7.70819e+57
          1392.20500	         6.90715e+57
          1393.01130	         8.04313e+57
          1393.81760	         7.42730e+57
          1394.62390	         6.23485e+57
          1395.43020	         6.25273e+57
          1396.23650	         6.41334e+57
          1397.04280	         7.19914e+57
          1397.84910	         9.15541e+57
          1398.65540	         9.12146e+57
          1399.46170	         9.06111e+57
          1400.26800	         7.30827e+57
          1401.07430	         6.14062e+57
          1401.88060	         8.10811e+57
          1402.68690	         1.01550e+58
          1403.49320	         9.95575e+57
          1404.29950	         9.17881e+57
          1405.10580	         1.05836e+58
          1405.91210	         1.11483e+58
          1406.71840	         1.04807e+58
          1407.52470	         1.08302e+58
          1408.33100	         9.56508e+57
          1409.13730	         9.75387e+57
          1409.94360	         1.07669e+58
          1410.74990	         1.11863e+58
          1411.55620	         9.22877e+57
          1412.36250	         8.85430e+57
          1413.16880	         9.77402e+57
          1413.97510	         8.43382e+57
          1414.78140	         9.04971e+57
          1415.58770	         1.03683e+58
          1416.39400	         1.05033e+58
          1417.20030	         9.66133e+57
          1418.00660	         1.00331e+58
          1418.81290	         1.10841e+58
          1419.61920	         1.07812e+58
          1420.42550	         1.24217e+58
          1421.23180	         1.40889e+58
          1422.03810	         1.20641e+58
          1422.84440	         1.11405e+58
          1423.65070	         1.25229e+58
          1424.45700	         1.12262e+58
          1425.26330	         9.12635e+57
          1426.06960	         8.63599e+57
          1426.87590	         1.00899e+58
          1427.68220	         1.03258e+58
          1428.48850	         1.03043e+58
          1429.29480	         1.01455e+58
          1430.10110	         1.11932e+58
          1430.90740	         9.70316e+57
          1431.71370	         9.26422e+57
          1432.52000	         9.61184e+57
          1433.32630	         9.16668e+57
          1434.13260	         8.72960e+57
          1434.93890	         9.07441e+57
          1435.74520	         9.30214e+57
          1436.55150	         9.33328e+57
          1437.35780	         9.69889e+57
          1438.16410	         9.74606e+57
          1438.97040	         8.70054e+57
          1439.77670	         8.86519e+57
          1440.58300	         8.74955e+57
          1441.38930	         9.66953e+57
          1442.19560	         1.02346e+58
          1443.00190	         9.17227e+57
          1443.80820	         1.05633e+58
          1444.61450	         1.01962e+58
          1445.42080	         8.71001e+57
          1446.22710	         1.03740e+58
          1447.03340	         9.98915e+57
          1447.83970	         1.06493e+58
          1448.64600	         1.14206e+58
          1449.45230	         1.03785e+58
          1450.25860	         1.04833e+58
          1451.06490	         9.54456e+57
          1451.87120	         8.15223e+57
          1452.67750	         7.68455e+57
          1453.48380	         9.07357e+57
          1454.29010	         8.03491e+57
          1455.09640	         7.57826e+57
          1455.90270	         8.54885e+57
          1456.70900	         7.98820e+57
          1457.51530	         9.22937e+57
          1458.32160	         1.22575e+58
          1459.12790	         1.24934e+58
          1459.93420	         1.02247e+58
          1460.74050	         7.68605e+57
          1461.54680	         8.21102e+57
          1462.35310	         7.85996e+57
          1463.15940	         1.00774e+58
          1463.96570	         1.16242e+58
          1464.77200	         1.14994e+58
          1465.57830	         9.92430e+57
          1466.38460	         8.64927e+57
          1467.19090	         8.21176e+57
          1467.99720	         9.69066e+57
          1468.80350	         9.74695e+57
          1469.60980	         9.53877e+57
          1470.41610	         1.02302e+58
          1471.22240	         9.38843e+57
          1472.02870	         1.03842e+58
          1472.83500	         1.07692e+58
          1473.64130	         9.44251e+57
          1474.44760	         9.38203e+57
          1475.25390	         9.94371e+57
          1476.06020	         9.08236e+57
          1476.86650	         7.98043e+57
          1477.67280	         8.26412e+57
          1478.47910	         7.80941e+57
          1479.28540	         7.02238e+57
          1480.09170	         8.57684e+57
          1480.89800	         8.58233e+57
          1481.70430	         8.91093e+57
          1482.51060	         8.92382e+57
          1483.31690	         7.36844e+57
          1484.12320	         7.68826e+57
          1484.92950	         8.79842e+57
          1485.73580	         8.42300e+57
          1486.54210	         8.82580e+57
          1487.34840	         8.73493e+57
          1488.15470	         7.86672e+57
          1488.96100	         8.29923e+57
          1489.76730	         9.22156e+57
