#sample_185_stacked_spectrum_rest_UV-bands_median_H-alpha_noDC.txt
#median Lum: 1.68380e+42
#Rest-frame wavelength (A) | Luminosity (erg/s/A)
#
          1110.00000	         0.00000e+00
          1110.80630	         1.31631e+59
          1111.61260	         2.69809e+59
          1112.41890	         9.53604e+58
          1113.22520	        -1.70527e+59
          1114.03150	        -4.16788e+59
          1114.83780	        -1.60836e+59
          1115.64410	        -3.81844e+58
          1116.45040	         8.40245e+58
          1117.25670	         1.81478e+58
          1118.06300	         1.74483e+59
          1118.86930	        -4.56428e+58
          1119.67560	         2.47495e+58
          1120.48190	        -5.53893e+58
          1121.28820	        -1.55527e+59
          1122.09450	        -3.21926e+58
          1122.90080	         4.22830e+58
          1123.70710	         1.08463e+59
          1124.51340	         4.57999e+58
          1125.31970	        -1.65520e+58
          1126.12600	        -7.87473e+58
          1126.93230	        -7.86400e+58
          1127.73860	        -2.26834e+58
          1128.54490	        -1.71498e+58
          1129.35120	         3.37614e+58
          1130.15750	        -2.12619e+58
          1130.96380	        -7.06537e+58
          1131.77010	         1.04050e+58
          1132.57640	         3.60928e+58
          1133.38270	         1.51149e+58
          1134.18900	         3.39657e+57
          1134.99530	         7.44425e+57
          1135.80160	         2.95919e+58
          1136.60790	         1.50561e+58
          1137.41420	        -1.26024e+58
          1138.22050	         1.44392e+58
          1139.02680	         3.50469e+58
          1139.83310	         3.86149e+58
          1140.63940	         1.42156e+58
          1141.44570	        -9.15406e+57
          1142.25200	         1.95845e+57
          1143.05830	         2.83689e+58
          1143.86460	         1.51704e+58
          1144.67090	         3.78230e+58
          1145.47720	         1.95104e+58
          1146.28350	         1.89644e+58
          1147.08980	         2.49446e+58
          1147.89610	         2.12673e+58
          1148.70240	         2.12213e+58
          1149.50870	         2.43939e+58
          1150.31500	         1.13457e+58
          1151.12130	         1.43721e+57
          1151.92760	         9.12733e+55
          1152.73390	         8.01964e+56
          1153.54020	         4.50900e+57
          1154.34650	         1.73312e+58
          1155.15280	         1.99744e+58
          1155.95910	         7.04036e+57
          1156.76540	         1.37334e+58
          1157.57170	         1.91304e+57
          1158.37800	         6.28940e+57
          1159.18430	        -5.79162e+57
          1159.99060	         4.72775e+57
          1160.79690	        -2.06595e+57
          1161.60320	         2.35489e+58
          1162.40950	         1.16597e+58
          1163.21580	         1.69998e+58
          1164.02210	         1.27070e+58
          1164.82840	         1.30761e+58
          1165.63470	         2.39354e+58
          1166.44100	         2.77171e+58
          1167.24730	         1.89964e+58
          1168.05360	         8.78185e+57
          1168.85990	         1.53486e+58
          1169.66620	         1.24451e+58
          1170.47250	         7.12530e+57
          1171.27880	         1.41045e+58
          1172.08510	         1.57039e+58
          1172.89140	         8.27658e+57
          1173.69770	         1.00384e+58
          1174.50400	         1.09282e+58
          1175.31030	         1.69806e+58
          1176.11660	         1.39059e+58
          1176.92290	         1.36380e+58
          1177.72920	         9.68897e+57
          1178.53550	         3.88337e+57
          1179.34180	         3.99496e+56
          1180.14810	         5.87631e+57
          1180.95440	         6.82050e+57
          1181.76070	         4.87846e+57
          1182.56700	         1.04459e+58
          1183.37330	         8.67583e+57
          1184.17960	         8.11971e+57
          1184.98590	         6.83751e+57
          1185.79220	         4.59629e+57
          1186.59850	         7.35824e+57
          1187.40480	         6.65123e+57
          1188.21110	         1.28723e+58
          1189.01740	         7.67532e+57
          1189.82370	         1.24912e+58
          1190.63000	         1.62211e+58
          1191.43630	         1.54893e+58
          1192.24260	         1.28616e+58
          1193.04890	         1.44738e+58
          1193.85520	         1.16921e+58
          1194.66150	         2.06278e+55
          1195.46780	         1.08849e+58
          1196.27410	         1.41040e+58
          1197.08040	         8.51413e+57
          1197.88670	         1.16233e+58
          1198.69300	         1.55098e+58
          1199.49930	         1.43136e+58
          1200.30560	         1.05176e+58
          1201.11190	         1.33353e+58
          1201.91820	         1.30692e+58
          1202.72450	         8.30876e+57
          1203.53080	         1.22815e+58
          1204.33710	         8.43794e+57
          1205.14340	         6.70137e+57
          1205.94970	         6.80011e+57
          1206.75600	         9.74974e+57
          1207.56230	         9.13082e+57
          1208.36860	         8.66167e+57
          1209.17490	         2.93138e+57
          1209.98120	         4.26001e+57
          1210.78750	         1.13648e+58
          1211.59380	         1.45528e+58
          1212.40010	         1.54039e+58
          1213.20640	         1.93839e+58
          1214.01270	         2.01519e+58
          1214.81900	         2.68971e+58
          1215.62530	         4.66388e+58
          1216.43160	         9.15295e+58
          1217.23790	         1.48860e+59
          1218.04420	         1.15981e+59
          1218.85050	         8.84234e+58
          1219.65680	         5.65404e+58
          1220.46310	         3.29875e+58
          1221.26940	         2.41973e+58
          1222.07570	         1.70604e+58
          1222.88200	         1.27883e+58
          1223.68830	         8.53877e+57
          1224.49460	         6.51320e+57
          1225.30090	         7.23884e+57
          1226.10720	         5.18089e+57
          1226.91350	         7.01191e+57
          1227.71980	         1.13980e+58
          1228.52610	         1.23671e+58
          1229.33240	         5.41316e+57
          1230.13870	         6.55784e+57
          1230.94500	         9.37402e+57
          1231.75130	         7.31607e+57
          1232.55760	         8.35639e+57
          1233.36390	         9.99909e+57
          1234.17020	         7.31552e+57
          1234.97650	         8.95458e+57
          1235.78280	         1.04990e+58
          1236.58910	         8.94531e+57
          1237.39540	         9.82662e+57
          1238.20170	         1.04584e+58
          1239.00800	         1.19235e+58
          1239.81430	         1.48462e+58
          1240.62060	         1.36776e+58
          1241.42690	         1.23255e+58
          1242.23320	         1.28907e+58
          1243.03950	         9.65440e+57
          1243.84580	         1.02206e+58
          1244.65210	         1.05147e+58
          1245.45840	         8.94839e+57
          1246.26470	         7.71927e+57
          1247.07100	         5.39925e+57
          1247.87730	         5.42341e+57
          1248.68360	         5.08313e+57
          1249.48990	         9.22177e+57
          1250.29620	         1.10361e+58
          1251.10250	         8.27189e+57
          1251.90880	         7.22391e+57
          1252.71510	         7.60267e+57
          1253.52140	         7.09753e+57
          1254.32770	         8.53732e+57
          1255.13400	         1.11822e+58
          1255.94030	         1.31359e+58
          1256.74660	         1.10180e+58
          1257.55290	         1.02347e+58
          1258.35920	         9.50978e+57
          1259.16550	         5.37628e+57
          1259.97180	         4.56536e+57
          1260.77810	         7.17474e+57
          1261.58440	         1.06400e+58
          1262.39070	         9.74819e+57
          1263.19700	         1.00808e+58
          1264.00330	         9.74299e+57
          1264.80960	         9.75500e+57
          1265.61590	         1.13620e+58
          1266.42220	         1.19239e+58
          1267.22850	         9.95375e+57
          1268.03480	         1.30801e+58
          1268.84110	         1.49346e+58
          1269.64740	         1.28838e+58
          1270.45370	         1.08943e+58
          1271.26000	         9.95804e+57
          1272.06630	         1.18995e+58
          1272.87260	         1.24559e+58
          1273.67890	         1.03203e+58
          1274.48520	         1.17120e+58
          1275.29150	         1.25483e+58
          1276.09780	         1.24407e+58
          1276.90410	         1.68133e+58
          1277.71040	         1.63249e+58
          1278.51670	         1.34922e+58
          1279.32300	         1.25679e+58
          1280.12930	         1.31689e+58
          1280.93560	         1.37869e+58
          1281.74190	         1.40859e+58
          1282.54820	         1.39584e+58
          1283.35450	         1.20728e+58
          1284.16080	         1.25948e+58
          1284.96710	         1.31963e+58
          1285.77340	         1.25894e+58
          1286.57970	         1.28168e+58
          1287.38600	         1.40888e+58
          1288.19230	         1.57761e+58
          1288.99860	         1.36523e+58
          1289.80490	         1.26865e+58
          1290.61120	         1.38712e+58
          1291.41750	         1.44029e+58
          1292.22380	         1.33466e+58
          1293.03010	         1.25935e+58
          1293.83640	         1.40777e+58
          1294.64270	         1.07984e+58
          1295.44900	         5.48651e+57
          1296.25530	         7.58248e+57
          1297.06160	         1.15992e+58
          1297.86790	         1.24735e+58
          1298.67420	         1.16197e+58
          1299.48050	         1.16092e+58
          1300.28680	         1.13915e+58
          1301.09310	         6.91526e+57
          1301.89940	         3.45590e+57
          1302.70570	         5.50163e+57
          1303.51200	         7.89698e+57
          1304.31830	         9.33292e+57
          1305.12460	         1.14622e+58
          1305.93090	         1.14169e+58
          1306.73720	         1.22376e+58
          1307.54350	         1.39107e+58
          1308.34980	         1.34711e+58
          1309.15610	         1.47371e+58
          1309.96240	         1.81143e+58
          1310.76870	         1.51371e+58
          1311.57500	         1.18130e+58
          1312.38130	         1.28824e+58
          1313.18760	         1.43212e+58
          1313.99390	         1.62865e+58
          1314.80020	         1.55596e+58
          1315.60650	         1.69505e+58
          1316.41280	         1.57319e+58
          1317.21910	         1.35829e+58
          1318.02540	         1.44503e+58
          1318.83170	         1.33751e+58
          1319.63800	         1.20813e+58
          1320.44430	         1.21697e+58
          1321.25060	         1.21652e+58
          1322.05690	         1.23130e+58
          1322.86320	         1.22650e+58
          1323.66950	         1.23360e+58
          1324.47580	         1.03385e+58
          1325.28210	         9.58919e+57
          1326.08840	         1.01227e+58
          1326.89470	         1.20261e+58
          1327.70100	         1.12421e+58
          1328.50730	         7.35535e+57
          1329.31360	         8.27179e+57
          1330.11990	         1.07455e+58
          1330.92620	         8.01489e+57
          1331.73250	         9.34938e+57
          1332.53880	         1.01249e+58
          1333.34510	         9.64876e+57
          1334.15140	         9.69895e+57
          1334.95770	         9.17147e+57
          1335.76400	         1.06278e+58
          1336.57030	         1.08868e+58
          1337.37660	         1.08348e+58
          1338.18290	         1.25770e+58
          1338.98920	         1.30606e+58
          1339.79550	         1.17625e+58
          1340.60180	         1.11431e+58
          1341.40810	         1.32142e+58
          1342.21440	         1.26577e+58
          1343.02070	         1.28580e+58
          1343.82700	         1.32783e+58
          1344.63330	         1.21664e+58
          1345.43960	         1.32025e+58
          1346.24590	         1.12703e+58
          1347.05220	         1.21709e+58
          1347.85850	         1.26738e+58
          1348.66480	         1.06728e+58
          1349.47110	         1.22658e+58
          1350.27740	         1.17492e+58
          1351.08370	         1.12392e+58
          1351.89000	         1.14891e+58
          1352.69630	         1.14516e+58
          1353.50260	         1.09924e+58
          1354.30890	         1.26810e+58
          1355.11520	         1.25359e+58
          1355.92150	         1.09797e+58
          1356.72780	         1.00069e+58
          1357.53410	         9.75526e+57
          1358.34040	         1.19279e+58
          1359.14670	         1.20869e+58
          1359.95300	         1.13092e+58
          1360.75930	         1.15766e+58
          1361.56560	         1.13121e+58
          1362.37190	         1.22587e+58
          1363.17820	         1.14697e+58
          1363.98450	         1.17479e+58
          1364.79080	         1.34767e+58
          1365.59710	         1.44049e+58
          1366.40340	         1.28965e+58
          1367.20970	         1.09214e+58
          1368.01600	         1.05646e+58
          1368.82230	         1.09359e+58
          1369.62860	         1.04762e+58
          1370.43490	         8.57872e+57
          1371.24120	         9.88363e+57
          1372.04750	         8.47532e+57
          1372.85380	         9.70736e+57
          1373.66010	         1.14224e+58
          1374.46640	         1.14618e+58
          1375.27270	         1.16823e+58
          1376.07900	         9.70213e+57
          1376.88530	         8.66576e+57
          1377.69160	         8.67237e+57
          1378.49790	         6.86505e+57
          1379.30420	         7.22954e+57
          1380.11050	         8.08374e+57
          1380.91680	         7.99038e+57
          1381.72310	         8.44290e+57
          1382.52940	         9.60472e+57
          1383.33570	         1.03968e+58
          1384.14200	         1.18988e+58
          1384.94830	         1.22381e+58
          1385.75460	         1.20921e+58
          1386.56090	         1.27341e+58
          1387.36720	         1.07233e+58
          1388.17350	         1.29336e+58
          1388.97980	         1.30603e+58
          1389.78610	         9.31289e+57
          1390.59240	         8.47054e+57
          1391.39870	         8.10592e+57
          1392.20500	         7.45637e+57
          1393.01130	         6.31160e+57
          1393.81760	         8.11529e+57
          1394.62390	         7.63452e+57
          1395.43020	         6.16846e+57
          1396.23650	         6.64994e+57
          1397.04280	         7.60042e+57
          1397.84910	         8.06452e+57
          1398.65540	         8.28645e+57
          1399.46170	         9.18064e+57
          1400.26800	         8.21257e+57
          1401.07430	         7.07919e+57
          1401.88060	         7.80818e+57
          1402.68690	         9.18220e+57
          1403.49320	         1.03475e+58
          1404.29950	         9.77420e+57
          1405.10580	         9.95125e+57
          1405.91210	         1.03909e+58
          1406.71840	         1.08801e+58
          1407.52470	         1.17435e+58
          1408.33100	         1.12592e+58
          1409.13730	         1.09389e+58
          1409.94360	         1.16146e+58
          1410.74990	         1.08728e+58
          1411.55620	         9.61492e+57
          1412.36250	         9.72905e+57
          1413.16880	         9.28936e+57
          1413.97510	         7.71399e+57
          1414.78140	         7.13350e+57
          1415.58770	         9.00451e+57
          1416.39400	         1.12421e+58
          1417.20030	         1.09997e+58
          1418.00660	         9.96013e+57
          1418.81290	         1.12637e+58
          1419.61920	         1.15440e+58
          1420.42550	         1.25132e+58
          1421.23180	         1.37346e+58
          1422.03810	         1.22958e+58
          1422.84440	         1.18436e+58
          1423.65070	         1.33903e+58
          1424.45700	         1.04603e+58
          1425.26330	         8.39198e+57
          1426.06960	         8.26695e+57
          1426.87590	         9.97294e+57
          1427.68220	         1.08462e+58
          1428.48850	         1.06337e+58
          1429.29480	         1.02903e+58
          1430.10110	         9.65914e+57
          1430.90740	         8.46821e+57
          1431.71370	         8.53596e+57
          1432.52000	         8.14462e+57
          1433.32630	         7.77779e+57
          1434.13260	         8.49975e+57
          1434.93890	         8.93587e+57
          1435.74520	         9.77956e+57
          1436.55150	         9.36049e+57
          1437.35780	         9.34091e+57
          1438.16410	         9.28283e+57
          1438.97040	         8.94206e+57
          1439.77670	         9.63879e+57
          1440.58300	         8.82204e+57
          1441.38930	         9.42610e+57
          1442.19560	         1.03610e+58
          1443.00190	         1.01839e+58
          1443.80820	         1.01884e+58
          1444.61450	         8.71438e+57
          1445.42080	         8.72092e+57
          1446.22710	         9.99090e+57
          1447.03340	         9.86556e+57
          1447.83970	         9.33451e+57
          1448.64600	         8.43791e+57
          1449.45230	         7.93268e+57
          1450.25860	         8.76936e+57
          1451.06490	         8.71606e+57
          1451.87120	         7.97102e+57
          1452.67750	         8.51466e+57
          1453.48380	         8.84639e+57
          1454.29010	         8.12851e+57
          1455.09640	         8.35307e+57
          1455.90270	         8.61259e+57
          1456.70900	         8.12657e+57
          1457.51530	         9.34262e+57
          1458.32160	         1.16595e+58
          1459.12790	         1.15506e+58
          1459.93420	         1.01813e+58
          1460.74050	         7.99495e+57
          1461.54680	         8.18227e+57
          1462.35310	         7.96586e+57
          1463.15940	         8.98429e+57
          1463.96570	         1.11261e+58
          1464.77200	         1.18492e+58
          1465.57830	         1.14381e+58
          1466.38460	         1.07934e+58
          1467.19090	         9.19995e+57
          1467.99720	         8.70231e+57
          1468.80350	         8.77931e+57
          1469.60980	         8.81744e+57
          1470.41610	         9.93964e+57
          1471.22240	         9.38311e+57
          1472.02870	         1.02051e+58
          1472.83500	         9.94658e+57
          1473.64130	         9.77070e+57
          1474.44760	         9.75202e+57
          1475.25390	         9.45182e+57
          1476.06020	         9.12380e+57
          1476.86650	         7.54359e+57
          1477.67280	         8.12494e+57
          1478.47910	         8.15883e+57
          1479.28540	         8.01385e+57
          1480.09170	         9.21114e+57
          1480.89800	         9.94816e+57
          1481.70430	         9.78998e+57
          1482.51060	         8.59325e+57
          1483.31690	         7.28222e+57
          1484.12320	         7.88948e+57
          1484.92950	         8.16638e+57
          1485.73580	         7.82756e+57
          1486.54210	         8.21262e+57
          1487.34840	         8.84788e+57
          1488.15470	         9.33473e+57
          1488.96100	         8.31626e+57
          1489.76730	         8.90480e+57
