#sample_401_stacked_spectrum_rest_UV-bands_median_H-alpha_noDC.txt
#median Lum: 1.68032e+42
#Rest-frame wavelength (A) | Luminosity (erg/s/A)
#
          1110.00000	         0.00000e+00
          1110.80630	         1.06555e+59
          1111.61260	        -5.71647e+58
          1112.41890	         5.07546e+58
          1113.22520	         8.93007e+58
          1114.03150	        -1.93260e+59
          1114.83780	        -1.94826e+59
          1115.64410	         1.91195e+59
          1116.45040	         1.55846e+59
          1117.25670	        -1.25549e+58
          1118.06300	         3.28407e+58
          1118.86930	         3.57676e+58
          1119.67560	        -1.85123e+57
          1120.48190	        -5.33594e+58
          1121.28820	        -6.85658e+58
          1122.09450	         1.01249e+59
          1122.90080	         1.07148e+59
          1123.70710	         8.93710e+58
          1124.51340	         1.25328e+59
          1125.31970	         1.97360e+58
          1126.12600	        -3.09820e+58
          1126.93230	        -2.22769e+58
          1127.73860	        -1.41667e+57
          1128.54490	         1.19101e+58
          1129.35120	         1.51168e+58
          1130.15750	         9.98212e+56
          1130.96380	        -7.10010e+57
          1131.77010	         7.53357e+58
          1132.57640	         4.88264e+58
          1133.38270	         4.23662e+58
          1134.18900	         9.50284e+57
          1134.99530	         4.48467e+58
          1135.80160	         2.75943e+58
          1136.60790	         3.20227e+58
          1137.41420	         1.11328e+58
          1138.22050	         3.31768e+58
          1139.02680	         1.94464e+58
          1139.83310	         1.29859e+58
          1140.63940	         2.80132e+58
          1141.44570	         8.75491e+57
          1142.25200	         5.73930e+57
          1143.05830	         2.04997e+58
          1143.86460	         2.35371e+58
          1144.67090	         2.35785e+58
          1145.47720	         1.38116e+58
          1146.28350	         1.28058e+58
          1147.08980	         1.47323e+58
          1147.89610	         1.78043e+58
          1148.70240	         2.45258e+58
          1149.50870	         2.67067e+58
          1150.31500	         1.56580e+58
          1151.12130	         1.85441e+58
          1151.92760	         1.95129e+58
          1152.73390	         1.73726e+57
          1153.54020	        -8.02270e+57
          1154.34650	         2.84051e+58
          1155.15280	         1.81132e+58
          1155.95910	         1.29101e+58
          1156.76540	         1.31369e+58
          1157.57170	         8.07608e+57
          1158.37800	        -2.73282e+57
          1159.18430	        -1.44883e+57
          1159.99060	         5.06535e+57
          1160.79690	         3.92209e+57
          1161.60320	         1.00998e+58
          1162.40950	         1.21359e+58
          1163.21580	         1.65929e+58
          1164.02210	         1.15625e+58
          1164.82840	         1.16561e+58
          1165.63470	         2.14932e+58
          1166.44100	         2.66158e+58
          1167.24730	         2.14702e+58
          1168.05360	         1.24410e+58
          1168.85990	         6.41098e+57
          1169.66620	         2.64021e+57
          1170.47250	         1.50694e+58
          1171.27880	         1.56408e+58
          1172.08510	         1.09504e+58
          1172.89140	         7.47969e+57
          1173.69770	         4.82602e+57
          1174.50400	         1.34256e+58
          1175.31030	         1.15505e+58
          1176.11660	         1.10152e+58
          1176.92290	         1.51665e+58
          1177.72920	         1.08452e+58
          1178.53550	         7.75800e+57
          1179.34180	         3.57663e+57
          1180.14810	         6.31058e+57
          1180.95440	         8.24835e+57
          1181.76070	         7.49543e+57
          1182.56700	         9.96219e+57
          1183.37330	         3.52767e+57
          1184.17960	         1.23578e+58
          1184.98590	         1.43103e+58
          1185.79220	         7.53269e+57
          1186.59850	         1.07599e+58
          1187.40480	         1.00985e+58
          1188.21110	         1.22609e+58
          1189.01740	         1.26262e+58
          1189.82370	         1.03647e+58
          1190.63000	         1.17652e+58
          1191.43630	         1.06337e+58
          1192.24260	         8.48510e+57
          1193.04890	         1.10791e+58
          1193.85520	         8.70665e+57
          1194.66150	         7.19021e+57
          1195.46780	         1.14180e+58
          1196.27410	         1.25674e+58
          1197.08040	         8.16180e+57
          1197.88670	         1.32752e+58
          1198.69300	         1.56829e+58
          1199.49930	         1.33842e+58
          1200.30560	         8.38961e+57
          1201.11190	         1.24693e+58
          1201.91820	         1.00218e+58
          1202.72450	         5.33330e+57
          1203.53080	         9.96063e+57
          1204.33710	         8.69311e+57
          1205.14340	         1.02851e+58
          1205.94970	         8.73820e+57
          1206.75600	         7.50567e+57
          1207.56230	         4.62159e+57
          1208.36860	         3.91955e+57
          1209.17490	         1.94533e+57
          1209.98120	         4.20236e+57
          1210.78750	         8.56747e+57
          1211.59380	         1.55114e+58
          1212.40010	         1.96052e+58
          1213.20640	         1.77364e+58
          1214.01270	         2.10682e+58
          1214.81900	         2.70340e+58
          1215.62530	         4.43464e+58
          1216.43160	         9.38635e+58
          1217.23790	         1.50555e+59
          1218.04420	         1.10850e+59
          1218.85050	         8.34765e+58
          1219.65680	         5.80076e+58
          1220.46310	         3.66395e+58
          1221.26940	         2.60140e+58
          1222.07570	         1.27003e+58
          1222.88200	         1.05490e+58
          1223.68830	         7.71267e+57
          1224.49460	         7.09478e+57
          1225.30090	         8.24685e+57
          1226.10720	         7.49688e+57
          1226.91350	         7.84752e+57
          1227.71980	         9.60283e+57
          1228.52610	         1.24502e+58
          1229.33240	         9.88575e+57
          1230.13870	         6.93928e+57
          1230.94500	         6.70933e+57
          1231.75130	         7.61395e+57
          1232.55760	         1.10954e+58
          1233.36390	         9.70758e+57
          1234.17020	         1.04540e+58
          1234.97650	         8.75133e+57
          1235.78280	         6.28050e+57
          1236.58910	         6.75639e+57
          1237.39540	         9.33477e+57
          1238.20170	         8.98561e+57
          1239.00800	         1.01597e+58
          1239.81430	         1.44679e+58
          1240.62060	         1.06000e+58
          1241.42690	         9.42825e+57
          1242.23320	         1.04539e+58
          1243.03950	         5.82809e+57
          1243.84580	         5.90570e+57
          1244.65210	         7.65088e+57
          1245.45840	         8.58227e+57
          1246.26470	         8.70723e+57
          1247.07100	         7.25857e+57
          1247.87730	         7.57199e+57
          1248.68360	         6.53128e+57
          1249.48990	         7.67335e+57
          1250.29620	         9.58514e+57
          1251.10250	         1.06427e+58
          1251.90880	         5.91209e+57
          1252.71510	         3.04905e+57
          1253.52140	         4.56608e+57
          1254.32770	         8.57225e+57
          1255.13400	         1.14038e+58
          1255.94030	         1.06665e+58
          1256.74660	         8.86677e+57
          1257.55290	         8.41833e+57
          1258.35920	         7.00739e+57
          1259.16550	         5.64107e+57
          1259.97180	         6.20454e+57
          1260.77810	         1.00062e+58
          1261.58440	         1.34761e+58
          1262.39070	         9.52071e+57
          1263.19700	         9.23827e+57
          1264.00330	         1.04656e+58
          1264.80960	         1.01722e+58
          1265.61590	         1.21296e+58
          1266.42220	         1.29956e+58
          1267.22850	         9.72842e+57
          1268.03480	         1.19100e+58
          1268.84110	         1.36071e+58
          1269.64740	         1.31210e+58
          1270.45370	         1.35023e+58
          1271.26000	         1.26129e+58
          1272.06630	         1.22896e+58
          1272.87260	         1.16601e+58
          1273.67890	         1.20159e+58
          1274.48520	         1.06519e+58
          1275.29150	         1.10724e+58
          1276.09780	         8.71686e+57
          1276.90410	         1.30507e+58
          1277.71040	         1.35345e+58
          1278.51670	         1.17224e+58
          1279.32300	         1.29888e+58
          1280.12930	         1.30540e+58
          1280.93560	         1.29220e+58
          1281.74190	         1.27259e+58
          1282.54820	         1.20820e+58
          1283.35450	         1.17630e+58
          1284.16080	         1.30647e+58
          1284.96710	         1.42496e+58
          1285.77340	         1.10118e+58
          1286.57970	         9.86072e+57
          1287.38600	         1.62718e+58
          1288.19230	         1.95198e+58
          1288.99860	         1.37560e+58
          1289.80490	         8.65116e+57
          1290.61120	         1.16305e+58
          1291.41750	         1.32533e+58
          1292.22380	         1.07758e+58
          1293.03010	         9.19321e+57
          1293.83640	         1.18399e+58
          1294.64270	         1.08431e+58
          1295.44900	         5.82896e+57
          1296.25530	         5.59815e+57
          1297.06160	         8.47738e+57
          1297.86790	         7.91500e+57
          1298.67420	         8.20552e+57
          1299.48050	         9.78077e+57
          1300.28680	         1.05936e+58
          1301.09310	         7.71109e+57
          1301.89940	         3.56220e+57
          1302.70570	         5.37397e+57
          1303.51200	         7.63321e+57
          1304.31830	         9.71008e+57
          1305.12460	         1.07978e+58
          1305.93090	         1.09084e+58
          1306.73720	         1.31881e+58
          1307.54350	         1.35612e+58
          1308.34980	         1.33820e+58
          1309.15610	         1.58792e+58
          1309.96240	         1.59670e+58
          1310.76870	         1.33520e+58
          1311.57500	         1.10821e+58
          1312.38130	         1.19492e+58
          1313.18760	         1.46652e+58
          1313.99390	         1.47143e+58
          1314.80020	         1.52630e+58
          1315.60650	         1.63887e+58
          1316.41280	         1.28721e+58
          1317.21910	         1.05446e+58
          1318.02540	         1.23314e+58
          1318.83170	         1.12580e+58
          1319.63800	         1.05642e+58
          1320.44430	         1.07633e+58
          1321.25060	         1.23693e+58
          1322.05690	         1.20364e+58
          1322.86320	         1.06357e+58
          1323.66950	         1.02133e+58
          1324.47580	         1.04810e+58
          1325.28210	         1.16542e+58
          1326.08840	         1.25857e+58
          1326.89470	         1.35326e+58
          1327.70100	         1.08838e+58
          1328.50730	         8.85298e+57
          1329.31360	         1.01060e+58
          1330.11990	         8.55940e+57
          1330.92620	         7.86126e+57
          1331.73250	         1.12138e+58
          1332.53880	         1.05679e+58
          1333.34510	         8.08124e+57
          1334.15140	         8.56534e+57
          1334.95770	         8.75379e+57
          1335.76400	         9.94408e+57
          1336.57030	         1.01525e+58
          1337.37660	         1.01866e+58
          1338.18290	         1.20608e+58
          1338.98920	         1.25227e+58
          1339.79550	         1.06636e+58
          1340.60180	         1.09387e+58
          1341.40810	         1.29543e+58
          1342.21440	         1.08008e+58
          1343.02070	         1.18674e+58
          1343.82700	         1.42360e+58
          1344.63330	         1.33891e+58
          1345.43960	         1.15735e+58
          1346.24590	         9.36288e+57
          1347.05220	         1.04956e+58
          1347.85850	         9.93125e+57
          1348.66480	         1.15224e+58
          1349.47110	         1.26401e+58
          1350.27740	         1.15576e+58
          1351.08370	         1.19694e+58
          1351.89000	         1.15498e+58
          1352.69630	         1.11140e+58
          1353.50260	         1.18834e+58
          1354.30890	         1.27494e+58
          1355.11520	         1.20299e+58
          1355.92150	         1.03093e+58
          1356.72780	         1.03684e+58
          1357.53410	         1.03867e+58
          1358.34040	         1.04183e+58
          1359.14670	         9.97631e+57
          1359.95300	         1.04665e+58
          1360.75930	         1.11639e+58
          1361.56560	         9.71611e+57
          1362.37190	         1.01713e+58
          1363.17820	         1.05116e+58
          1363.98450	         1.14469e+58
          1364.79080	         1.25653e+58
          1365.59710	         1.34525e+58
          1366.40340	         1.14472e+58
          1367.20970	         8.83760e+57
          1368.01600	         9.67627e+57
          1368.82230	         9.72881e+57
          1369.62860	         8.68207e+57
          1370.43490	         7.24099e+57
          1371.24120	         8.56041e+57
          1372.04750	         8.16156e+57
          1372.85380	         1.03228e+58
          1373.66010	         9.70910e+57
          1374.46640	         8.26175e+57
          1375.27270	         9.74051e+57
          1376.07900	         8.81018e+57
          1376.88530	         7.82264e+57
          1377.69160	         8.40725e+57
          1378.49790	         6.54652e+57
          1379.30420	         7.07733e+57
          1380.11050	         1.02534e+58
          1380.91680	         1.02491e+58
          1381.72310	         8.73467e+57
          1382.52940	         7.36649e+57
          1383.33570	         6.84772e+57
          1384.14200	         7.73569e+57
          1384.94830	         9.47844e+57
          1385.75460	         1.01501e+58
          1386.56090	         9.82942e+57
          1387.36720	         9.63409e+57
          1388.17350	         1.23516e+58
          1388.97980	         1.23279e+58
          1389.78610	         8.99230e+57
          1390.59240	         6.95942e+57
          1391.39870	         6.52797e+57
          1392.20500	         7.16134e+57
          1393.01130	         6.99180e+57
          1393.81760	         6.12131e+57
          1394.62390	         7.24113e+57
          1395.43020	         7.52136e+57
          1396.23650	         6.49686e+57
          1397.04280	         7.60065e+57
          1397.84910	         9.14376e+57
          1398.65540	         8.91126e+57
          1399.46170	         9.98950e+57
          1400.26800	         8.58959e+57
          1401.07430	         6.76446e+57
          1401.88060	         7.54357e+57
          1402.68690	         9.54016e+57
          1403.49320	         9.07786e+57
          1404.29950	         8.84587e+57
          1405.10580	         1.04401e+58
          1405.91210	         1.08219e+58
          1406.71840	         1.05712e+58
          1407.52470	         1.06667e+58
          1408.33100	         1.05909e+58
          1409.13730	         1.16070e+58
          1409.94360	         1.13655e+58
          1410.74990	         9.55606e+57
          1411.55620	         9.11871e+57
          1412.36250	         1.01169e+58
          1413.16880	         9.40411e+57
          1413.97510	         7.66062e+57
          1414.78140	         7.87070e+57
          1415.58770	         9.15154e+57
          1416.39400	         1.05600e+58
          1417.20030	         1.12158e+58
          1418.00660	         1.07160e+58
          1418.81290	         8.46477e+57
          1419.61920	         7.78104e+57
          1420.42550	         1.04198e+58
          1421.23180	         1.21412e+58
          1422.03810	         1.14937e+58
          1422.84440	         1.09912e+58
          1423.65070	         1.23952e+58
          1424.45700	         1.03996e+58
          1425.26330	         8.17617e+57
          1426.06960	         9.10139e+57
          1426.87590	         1.00049e+58
          1427.68220	         9.76311e+57
          1428.48850	         1.05084e+58
          1429.29480	         9.63979e+57
          1430.10110	         8.95438e+57
          1430.90740	         7.88959e+57
          1431.71370	         7.29201e+57
          1432.52000	         7.78845e+57
          1433.32630	         8.30324e+57
          1434.13260	         8.33620e+57
          1434.93890	         8.44122e+57
          1435.74520	         8.32351e+57
          1436.55150	         8.51441e+57
          1437.35780	         8.90998e+57
          1438.16410	         9.28833e+57
          1438.97040	         9.43870e+57
          1439.77670	         1.01530e+58
          1440.58300	         9.41063e+57
          1441.38930	         8.90041e+57
          1442.19560	         8.90577e+57
          1443.00190	         8.94298e+57
          1443.80820	         1.14951e+58
          1444.61450	         1.02930e+58
          1445.42080	         8.46283e+57
          1446.22710	         9.47452e+57
          1447.03340	         9.17107e+57
          1447.83970	         1.06939e+58
          1448.64600	         1.08494e+58
          1449.45230	         9.40103e+57
          1450.25860	         9.45385e+57
          1451.06490	         8.89983e+57
          1451.87120	         7.33616e+57
          1452.67750	         7.04886e+57
          1453.48380	         8.41003e+57
          1454.29010	         7.69594e+57
          1455.09640	         7.43437e+57
          1455.90270	         8.57857e+57
          1456.70900	         8.59904e+57
          1457.51530	         9.93800e+57
          1458.32160	         1.14256e+58
          1459.12790	         1.18523e+58
          1459.93420	         9.98138e+57
          1460.74050	         7.67312e+57
          1461.54680	         7.98251e+57
          1462.35310	         9.01118e+57
          1463.15940	         9.75636e+57
          1463.96570	         1.00198e+58
          1464.77200	         1.12570e+58
          1465.57830	         1.11971e+58
          1466.38460	         9.49448e+57
          1467.19090	         8.55601e+57
          1467.99720	         8.28268e+57
          1468.80350	         8.97722e+57
          1469.60980	         9.18621e+57
          1470.41610	         1.14992e+58
          1471.22240	         9.39588e+57
          1472.02870	         7.98931e+57
          1472.83500	         9.27129e+57
          1473.64130	         9.48612e+57
          1474.44760	         9.04666e+57
          1475.25390	         8.98537e+57
          1476.06020	         9.10517e+57
          1476.86650	         8.72893e+57
          1477.67280	         8.70970e+57
          1478.47910	         6.80536e+57
          1479.28540	         6.61553e+57
          1480.09170	         7.80362e+57
          1480.89800	         8.58286e+57
          1481.70430	         9.57915e+57
          1482.51060	         9.07883e+57
          1483.31690	         7.73198e+57
          1484.12320	         6.79080e+57
          1484.92950	         6.53582e+57
          1485.73580	         8.32584e+57
          1486.54210	         8.30002e+57
          1487.34840	         8.07967e+57
          1488.15470	         7.44649e+57
          1488.96100	         8.16266e+57
          1489.76730	         9.07646e+57
