#sample_369_stacked_spectrum_rest_UV-bands_median_H-alpha_noDC.txt
#median Lum: 1.72319e+42
#Rest-frame wavelength (A) | Luminosity (erg/s/A)
#
          1110.00000	         0.00000e+00
          1110.80630	        -1.06439e+59
          1111.61260	         4.16398e+58
          1112.41890	         1.74561e+59
          1113.22520	         3.12346e+59
          1114.03150	         6.74267e+58
          1114.83780	         1.63448e+58
          1115.64410	         2.28902e+58
          1116.45040	         9.68843e+58
          1117.25670	         8.94259e+58
          1118.06300	         2.07699e+59
          1118.86930	        -8.33040e+58
          1119.67560	         7.64387e+58
          1120.48190	         6.16502e+58
          1121.28820	        -4.27816e+58
          1122.09450	         3.84015e+58
          1122.90080	         6.27083e+57
          1123.70710	         8.81475e+58
          1124.51340	         1.04717e+59
          1125.31970	         1.46199e+58
          1126.12600	         2.15918e+58
          1126.93230	        -2.75472e+58
          1127.73860	        -6.19260e+58
          1128.54490	         1.35190e+58
          1129.35120	         4.45684e+58
          1130.15750	        -1.72893e+57
          1130.96380	        -1.52329e+58
          1131.77010	         5.82863e+58
          1132.57640	         4.62426e+57
          1133.38270	         2.39738e+58
          1134.18900	         7.32627e+57
          1134.99530	         1.74711e+58
          1135.80160	         2.84372e+58
          1136.60790	         2.85530e+58
          1137.41420	         2.09213e+58
          1138.22050	         4.17082e+58
          1139.02680	         3.17767e+58
          1139.83310	         4.22848e+58
          1140.63940	         1.46232e+58
          1141.44570	         6.67862e+57
          1142.25200	         3.58838e+58
          1143.05830	         4.20816e+58
          1143.86460	         2.36733e+58
          1144.67090	         7.91220e+57
          1145.47720	         1.54934e+57
          1146.28350	         1.29566e+58
          1147.08980	         1.74690e+58
          1147.89610	         2.33768e+58
          1148.70240	         2.83434e+58
          1149.50870	         1.93084e+58
          1150.31500	         7.21707e+57
          1151.12130	         1.35081e+58
          1151.92760	         3.19908e+57
          1152.73390	         3.52091e+57
          1153.54020	         1.52556e+57
          1154.34650	         1.91622e+58
          1155.15280	         2.28118e+58
          1155.95910	         1.28910e+58
          1156.76540	         5.92280e+57
          1157.57170	        -7.63194e+57
          1158.37800	         1.81282e+57
          1159.18430	         1.12864e+57
          1159.99060	         4.72312e+56
          1160.79690	         1.47258e+57
          1161.60320	         1.96380e+57
          1162.40950	         1.79877e+58
          1163.21580	         1.67571e+58
          1164.02210	         1.53868e+58
          1164.82840	         9.70478e+57
          1165.63470	         1.98303e+58
          1166.44100	         2.69869e+58
          1167.24730	         2.74242e+58
          1168.05360	         1.30772e+58
          1168.85990	         4.66958e+57
          1169.66620	         6.70726e+57
          1170.47250	         8.61597e+57
          1171.27880	         1.18275e+58
          1172.08510	         1.97959e+58
          1172.89140	         8.17376e+57
          1173.69770	         5.84747e+57
          1174.50400	         8.69464e+57
          1175.31030	         1.21104e+58
          1176.11660	         1.75815e+58
          1176.92290	         1.21832e+58
          1177.72920	         7.30511e+57
          1178.53550	         9.21254e+57
          1179.34180	         8.62230e+55
          1180.14810	         1.31444e+57
          1180.95440	         8.81419e+57
          1181.76070	         7.51108e+57
          1182.56700	         7.78920e+57
          1183.37330	         8.71857e+57
          1184.17960	         1.32642e+58
          1184.98590	         1.15560e+58
          1185.79220	         7.73970e+57
          1186.59850	         1.23119e+58
          1187.40480	         1.50199e+58
          1188.21110	         1.59431e+58
          1189.01740	         1.29853e+58
          1189.82370	         6.10847e+57
          1190.63000	         7.08124e+57
          1191.43630	         1.03829e+58
          1192.24260	         6.69076e+57
          1193.04890	         9.46506e+57
          1193.85520	         1.15093e+58
          1194.66150	         4.03531e+57
          1195.46780	         1.11038e+58
          1196.27410	         1.30952e+58
          1197.08040	         8.57646e+57
          1197.88670	         1.31749e+58
          1198.69300	         1.38209e+58
          1199.49930	         1.38662e+58
          1200.30560	         1.20958e+58
          1201.11190	         5.91255e+57
          1201.91820	         6.17581e+57
          1202.72450	         7.73870e+57
          1203.53080	         1.38890e+58
          1204.33710	         9.59018e+57
          1205.14340	         9.88944e+57
          1205.94970	         9.59639e+57
          1206.75600	         8.13313e+57
          1207.56230	         5.44885e+57
          1208.36860	         8.80126e+57
          1209.17490	         8.08916e+57
          1209.98120	         7.39243e+57
          1210.78750	         9.28193e+57
          1211.59380	         1.26452e+58
          1212.40010	         1.93472e+58
          1213.20640	         2.37034e+58
          1214.01270	         2.33395e+58
          1214.81900	         3.01520e+58
          1215.62530	         4.89373e+58
          1216.43160	         8.94357e+58
          1217.23790	         1.51357e+59
          1218.04420	         1.14915e+59
          1218.85050	         8.68041e+58
          1219.65680	         5.47855e+58
          1220.46310	         3.11667e+58
          1221.26940	         2.08147e+58
          1222.07570	         1.40221e+58
          1222.88200	         1.48161e+58
          1223.68830	         1.28817e+58
          1224.49460	         5.82737e+57
          1225.30090	         5.17046e+57
          1226.10720	         4.42079e+57
          1226.91350	         6.74274e+57
          1227.71980	         9.69575e+57
          1228.52610	         1.47844e+58
          1229.33240	         8.63658e+57
          1230.13870	         1.01706e+58
          1230.94500	         1.13010e+58
          1231.75130	         7.16337e+57
          1232.55760	         1.14872e+58
          1233.36390	         1.14024e+58
          1234.17020	         1.03177e+58
          1234.97650	         8.52374e+57
          1235.78280	         1.01551e+58
          1236.58910	         7.86217e+57
          1237.39540	         9.01174e+57
          1238.20170	         9.85450e+57
          1239.00800	         1.13277e+58
          1239.81430	         1.27947e+58
          1240.62060	         1.02006e+58
          1241.42690	         9.42562e+57
          1242.23320	         1.18600e+58
          1243.03950	         8.83144e+57
          1243.84580	         8.50601e+57
          1244.65210	         9.30849e+57
          1245.45840	         8.56089e+57
          1246.26470	         8.79420e+57
          1247.07100	         4.11963e+57
          1247.87730	         6.37488e+57
          1248.68360	         3.02286e+57
          1249.48990	         6.00530e+57
          1250.29620	         1.24851e+58
          1251.10250	         9.76648e+57
          1251.90880	         7.39794e+57
          1252.71510	         7.50883e+57
          1253.52140	         5.67414e+57
          1254.32770	         8.79989e+57
          1255.13400	         1.45866e+58
          1255.94030	         1.19889e+58
          1256.74660	         8.92391e+57
          1257.55290	         9.19449e+57
          1258.35920	         8.47764e+57
          1259.16550	         7.89759e+57
          1259.97180	         6.06284e+57
          1260.77810	         9.37384e+57
          1261.58440	         1.02683e+58
          1262.39070	         5.63197e+57
          1263.19700	         7.00523e+57
          1264.00330	         8.81621e+57
          1264.80960	         1.04728e+58
          1265.61590	         1.17947e+58
          1266.42220	         9.88627e+57
          1267.22850	         1.02334e+58
          1268.03480	         1.32666e+58
          1268.84110	         1.37432e+58
          1269.64740	         1.25962e+58
          1270.45370	         1.30479e+58
          1271.26000	         1.24389e+58
          1272.06630	         1.26083e+58
          1272.87260	         1.32616e+58
          1273.67890	         1.19544e+58
          1274.48520	         1.27086e+58
          1275.29150	         1.40832e+58
          1276.09780	         1.17965e+58
          1276.90410	         1.45020e+58
          1277.71040	         1.42325e+58
          1278.51670	         1.08936e+58
          1279.32300	         1.42721e+58
          1280.12930	         1.29377e+58
          1280.93560	         1.07690e+58
          1281.74190	         1.25667e+58
          1282.54820	         1.47445e+58
          1283.35450	         1.15596e+58
          1284.16080	         1.09174e+58
          1284.96710	         1.27233e+58
          1285.77340	         1.08014e+58
          1286.57970	         1.04362e+58
          1287.38600	         1.42381e+58
          1288.19230	         1.69196e+58
          1288.99860	         1.49992e+58
          1289.80490	         1.21848e+58
          1290.61120	         1.25518e+58
          1291.41750	         1.23303e+58
          1292.22380	         1.14894e+58
          1293.03010	         1.08685e+58
          1293.83640	         1.06660e+58
          1294.64270	         8.33276e+57
          1295.44900	         5.64709e+57
          1296.25530	         9.04855e+57
          1297.06160	         1.06712e+58
          1297.86790	         9.50547e+57
          1298.67420	         9.79475e+57
          1299.48050	         1.01812e+58
          1300.28680	         9.85314e+57
          1301.09310	         7.94690e+57
          1301.89940	         2.89821e+57
          1302.70570	         5.02229e+57
          1303.51200	         8.89853e+57
          1304.31830	         1.00864e+58
          1305.12460	         1.14354e+58
          1305.93090	         1.16491e+58
          1306.73720	         1.16495e+58
          1307.54350	         1.28135e+58
          1308.34980	         1.53592e+58
          1309.15610	         1.69657e+58
          1309.96240	         1.60350e+58
          1310.76870	         1.33369e+58
          1311.57500	         1.14600e+58
          1312.38130	         1.13806e+58
          1313.18760	         1.46095e+58
          1313.99390	         1.67553e+58
          1314.80020	         1.45534e+58
          1315.60650	         1.48470e+58
          1316.41280	         1.44794e+58
          1317.21910	         1.29541e+58
          1318.02540	         1.32578e+58
          1318.83170	         1.30294e+58
          1319.63800	         1.23233e+58
          1320.44430	         1.30768e+58
          1321.25060	         1.43901e+58
          1322.05690	         1.43129e+58
          1322.86320	         1.34250e+58
          1323.66950	         1.13026e+58
          1324.47580	         8.71316e+57
          1325.28210	         9.14086e+57
          1326.08840	         1.17014e+58
          1326.89470	         1.35373e+58
          1327.70100	         1.15758e+58
          1328.50730	         1.00586e+58
          1329.31360	         1.02494e+58
          1330.11990	         9.88715e+57
          1330.92620	         9.96293e+57
          1331.73250	         1.13571e+58
          1332.53880	         9.73507e+57
          1333.34510	         8.73175e+57
          1334.15140	         9.26635e+57
          1334.95770	         9.87485e+57
          1335.76400	         1.10912e+58
          1336.57030	         1.13467e+58
          1337.37660	         9.93780e+57
          1338.18290	         1.07217e+58
          1338.98920	         1.17461e+58
          1339.79550	         1.23947e+58
          1340.60180	         1.33478e+58
          1341.40810	         1.25382e+58
          1342.21440	         1.22019e+58
          1343.02070	         1.23826e+58
          1343.82700	         1.32155e+58
          1344.63330	         1.35593e+58
          1345.43960	         1.39813e+58
          1346.24590	         1.14380e+58
          1347.05220	         1.13743e+58
          1347.85850	         1.06979e+58
          1348.66480	         1.31648e+58
          1349.47110	         1.38246e+58
          1350.27740	         1.27559e+58
          1351.08370	         1.20200e+58
          1351.89000	         1.01548e+58
          1352.69630	         1.08364e+58
          1353.50260	         1.16043e+58
          1354.30890	         1.15547e+58
          1355.11520	         1.21062e+58
          1355.92150	         1.04316e+58
          1356.72780	         9.90250e+57
          1357.53410	         1.13387e+58
          1358.34040	         1.10195e+58
          1359.14670	         1.08017e+58
          1359.95300	         1.10181e+58
          1360.75930	         1.12681e+58
          1361.56560	         1.18983e+58
          1362.37190	         1.29073e+58
          1363.17820	         1.29068e+58
          1363.98450	         1.31702e+58
          1364.79080	         1.44480e+58
          1365.59710	         1.35073e+58
          1366.40340	         1.07688e+58
          1367.20970	         9.06302e+57
          1368.01600	         9.44340e+57
          1368.82230	         9.62290e+57
          1369.62860	         1.06688e+58
          1370.43490	         9.35217e+57
          1371.24120	         9.33954e+57
          1372.04750	         9.65052e+57
          1372.85380	         1.09452e+58
          1373.66010	         1.10678e+58
          1374.46640	         1.01632e+58
          1375.27270	         1.06754e+58
          1376.07900	         1.00386e+58
          1376.88530	         8.99577e+57
          1377.69160	         9.49299e+57
          1378.49790	         7.75651e+57
          1379.30420	         7.24874e+57
          1380.11050	         9.55891e+57
          1380.91680	         9.87185e+57
          1381.72310	         8.92134e+57
          1382.52940	         8.39631e+57
          1383.33570	         7.34069e+57
          1384.14200	         9.26490e+57
          1384.94830	         1.15806e+58
          1385.75460	         1.26135e+58
          1386.56090	         1.28014e+58
          1387.36720	         1.19449e+58
          1388.17350	         1.31644e+58
          1388.97980	         1.06410e+58
          1389.78610	         9.42679e+57
          1390.59240	         8.32983e+57
          1391.39870	         7.29661e+57
          1392.20500	         8.74924e+57
          1393.01130	         7.42854e+57
          1393.81760	         7.43648e+57
          1394.62390	         7.40042e+57
          1395.43020	         6.61289e+57
          1396.23650	         6.91046e+57
          1397.04280	         8.24439e+57
          1397.84910	         8.72454e+57
          1398.65540	         8.95087e+57
          1399.46170	         9.88296e+57
          1400.26800	         8.12180e+57
          1401.07430	         8.09617e+57
          1401.88060	         8.72433e+57
          1402.68690	         9.85513e+57
          1403.49320	         9.77214e+57
          1404.29950	         8.74367e+57
          1405.10580	         1.04142e+58
          1405.91210	         1.06740e+58
          1406.71840	         1.12141e+58
          1407.52470	         1.16636e+58
          1408.33100	         1.09433e+58
          1409.13730	         1.06385e+58
          1409.94360	         1.14747e+58
          1410.74990	         1.13846e+58
          1411.55620	         9.98590e+57
          1412.36250	         8.69798e+57
          1413.16880	         8.36121e+57
          1413.97510	         8.32389e+57
          1414.78140	         8.55665e+57
          1415.58770	         1.09647e+58
          1416.39400	         1.17913e+58
          1417.20030	         1.09857e+58
          1418.00660	         1.07495e+58
          1418.81290	         9.83769e+57
          1419.61920	         1.12320e+58
          1420.42550	         1.25240e+58
          1421.23180	         1.19856e+58
          1422.03810	         1.19314e+58
          1422.84440	         1.24557e+58
          1423.65070	         1.43037e+58
          1424.45700	         1.14842e+58
          1425.26330	         8.09688e+57
          1426.06960	         8.06926e+57
          1426.87590	         1.01006e+58
          1427.68220	         1.05663e+58
          1428.48850	         1.19135e+58
          1429.29480	         1.28109e+58
          1430.10110	         1.13486e+58
          1430.90740	         8.77642e+57
          1431.71370	         8.56307e+57
          1432.52000	         9.14305e+57
          1433.32630	         7.68341e+57
          1434.13260	         7.41238e+57
          1434.93890	         8.03703e+57
          1435.74520	         9.06219e+57
          1436.55150	         9.18093e+57
          1437.35780	         8.92773e+57
          1438.16410	         9.31068e+57
          1438.97040	         9.66820e+57
          1439.77670	         9.74990e+57
          1440.58300	         9.48851e+57
          1441.38930	         1.01576e+58
          1442.19560	         1.03364e+58
          1443.00190	         9.53555e+57
          1443.80820	         1.09673e+58
          1444.61450	         1.08701e+58
          1445.42080	         9.24635e+57
          1446.22710	         1.05719e+58
          1447.03340	         9.69550e+57
          1447.83970	         1.00630e+58
          1448.64600	         1.06644e+58
          1449.45230	         1.02198e+58
          1450.25860	         1.09242e+58
          1451.06490	         1.06283e+58
          1451.87120	         7.75971e+57
          1452.67750	         7.24032e+57
          1453.48380	         8.65171e+57
          1454.29010	         8.04912e+57
          1455.09640	         7.52576e+57
          1455.90270	         8.48059e+57
          1456.70900	         8.06387e+57
          1457.51530	         8.22435e+57
          1458.32160	         1.20556e+58
          1459.12790	         1.21659e+58
          1459.93420	         9.05515e+57
          1460.74050	         7.94062e+57
          1461.54680	         7.66305e+57
          1462.35310	         7.60509e+57
          1463.15940	         8.86233e+57
          1463.96570	         1.09600e+58
          1464.77200	         1.21713e+58
          1465.57830	         1.03971e+58
          1466.38460	         9.37054e+57
          1467.19090	         9.53938e+57
          1467.99720	         9.74512e+57
          1468.80350	         1.00397e+58
          1469.60980	         9.16373e+57
          1470.41610	         1.12912e+58
          1471.22240	         1.04250e+58
          1472.02870	         1.05680e+58
          1472.83500	         1.05275e+58
          1473.64130	         1.02454e+58
          1474.44760	         1.06799e+58
          1475.25390	         9.96683e+57
          1476.06020	         9.62951e+57
          1476.86650	         9.14281e+57
          1477.67280	         8.27319e+57
          1478.47910	         8.05828e+57
          1479.28540	         8.13765e+57
          1480.09170	         8.74476e+57
          1480.89800	         8.69455e+57
          1481.70430	         8.31393e+57
          1482.51060	         8.61142e+57
          1483.31690	         7.88685e+57
          1484.12320	         7.65755e+57
          1484.92950	         8.64624e+57
          1485.73580	         8.16752e+57
          1486.54210	         7.83208e+57
          1487.34840	         9.12716e+57
          1488.15470	         9.01990e+57
          1488.96100	         9.04101e+57
          1489.76730	         9.00392e+57
