#sample_224_stacked_spectrum_rest_UV-bands_median_H-alpha_noDC.txt
#median Lum: 1.70513e+42
#Rest-frame wavelength (A) | Luminosity (erg/s/A)
#
          1110.00000	         0.00000e+00
          1110.80630	         2.37163e+59
          1111.61260	         1.73957e+59
          1112.41890	         2.67789e+59
          1113.22520	         1.28366e+59
          1114.03150	        -8.46563e+58
          1114.83780	         1.40963e+59
          1115.64410	         2.33628e+59
          1116.45040	         7.32204e+58
          1117.25670	        -2.21509e+58
          1118.06300	         5.38445e+58
          1118.86930	        -3.27572e+58
          1119.67560	         1.66660e+59
          1120.48190	         3.16902e+58
          1121.28820	        -2.16750e+59
          1122.09450	        -5.46336e+58
          1122.90080	        -5.27984e+57
          1123.70710	         7.57347e+58
          1124.51340	         1.20372e+59
          1125.31970	        -6.85393e+58
          1126.12600	        -3.35366e+58
          1126.93230	        -3.98977e+58
          1127.73860	        -4.39325e+58
          1128.54490	         7.25707e+57
          1129.35120	         2.66583e+57
          1130.15750	        -3.80551e+58
          1130.96380	        -2.30336e+58
          1131.77010	         5.55541e+58
          1132.57640	         6.97569e+58
          1133.38270	         3.35321e+58
          1134.18900	         2.94553e+58
          1134.99530	         3.57551e+58
          1135.80160	         3.54355e+58
          1136.60790	         1.63097e+58
          1137.41420	         7.54649e+57
          1138.22050	         3.66516e+58
          1139.02680	         2.42258e+58
          1139.83310	         3.77120e+57
          1140.63940	         1.54467e+58
          1141.44570	         7.43716e+57
          1142.25200	        -1.16456e+58
          1143.05830	        -2.11993e+57
          1143.86460	         2.29978e+58
          1144.67090	         2.83659e+58
          1145.47720	         2.54359e+58
          1146.28350	         9.92019e+57
          1147.08980	         1.30123e+58
          1147.89610	         1.07847e+58
          1148.70240	         1.49257e+58
          1149.50870	         2.65030e+58
          1150.31500	         8.33817e+57
          1151.12130	        -3.17462e+55
          1151.92760	         1.34391e+57
          1152.73390	         2.57017e+57
          1153.54020	         5.97709e+57
          1154.34650	         1.99649e+58
          1155.15280	         2.40910e+58
          1155.95910	         5.51963e+57
          1156.76540	         1.61216e+56
          1157.57170	        -2.21230e+57
          1158.37800	        -7.13114e+57
          1159.18430	        -1.38369e+57
          1159.99060	         1.05765e+58
          1160.79690	         1.40131e+57
          1161.60320	         1.69319e+57
          1162.40950	         1.99568e+58
          1163.21580	         3.25578e+58
          1164.02210	         1.27322e+58
          1164.82840	         1.48589e+58
          1165.63470	         1.67402e+58
          1166.44100	         2.35851e+58
          1167.24730	         1.96686e+58
          1168.05360	         7.27451e+57
          1168.85990	         4.76923e+57
          1169.66620	         7.46586e+57
          1170.47250	         4.70935e+57
          1171.27880	         5.74994e+57
          1172.08510	         1.01582e+58
          1172.89140	         7.38236e+57
          1173.69770	         7.18536e+57
          1174.50400	         5.41011e+57
          1175.31030	         1.57085e+58
          1176.11660	         2.36482e+58
          1176.92290	         1.70973e+58
          1177.72920	         9.01212e+57
          1178.53550	         4.68558e+57
          1179.34180	         7.42056e+57
          1180.14810	         7.99558e+57
          1180.95440	         6.32144e+57
          1181.76070	         1.22134e+58
          1182.56700	         9.73747e+57
          1183.37330	         2.22443e+57
          1184.17960	         1.09924e+58
          1184.98590	         8.75611e+57
          1185.79220	         5.41285e+57
          1186.59850	         1.14071e+58
          1187.40480	         8.20722e+57
          1188.21110	         9.43041e+57
          1189.01740	         7.07990e+57
          1189.82370	         4.42643e+57
          1190.63000	         1.19828e+58
          1191.43630	         1.52959e+58
          1192.24260	         1.24409e+58
          1193.04890	         1.14010e+58
          1193.85520	         6.50356e+57
          1194.66150	         4.93422e+56
          1195.46780	         8.88207e+57
          1196.27410	         1.63763e+58
          1197.08040	         9.99252e+57
          1197.88670	         1.34342e+58
          1198.69300	         1.63746e+58
          1199.49930	         1.72322e+58
          1200.30560	         1.45446e+58
          1201.11190	         1.20049e+58
          1201.91820	         9.89177e+57
          1202.72450	         8.63300e+57
          1203.53080	         1.56453e+58
          1204.33710	         1.12357e+58
          1205.14340	         5.12558e+57
          1205.94970	         7.41475e+57
          1206.75600	         7.87018e+57
          1207.56230	         4.58834e+57
          1208.36860	         6.28528e+57
          1209.17490	         5.12414e+57
          1209.98120	         7.17702e+57
          1210.78750	         9.87381e+57
          1211.59380	         7.46592e+57
          1212.40010	         1.34771e+58
          1213.20640	         1.51466e+58
          1214.01270	         1.49098e+58
          1214.81900	         2.11864e+58
          1215.62530	         4.41765e+58
          1216.43160	         9.13504e+58
          1217.23790	         1.49282e+59
          1218.04420	         1.15110e+59
          1218.85050	         8.86056e+58
          1219.65680	         5.91879e+58
          1220.46310	         3.24939e+58
          1221.26940	         1.89646e+58
          1222.07570	         1.47837e+58
          1222.88200	         1.02792e+58
          1223.68830	         8.22796e+57
          1224.49460	         7.39819e+57
          1225.30090	         3.44319e+57
          1226.10720	         7.40608e+57
          1226.91350	         9.84094e+57
          1227.71980	         1.07245e+58
          1228.52610	         1.42289e+58
          1229.33240	         6.95250e+57
          1230.13870	         5.88127e+57
          1230.94500	         6.80672e+57
          1231.75130	         8.68072e+57
          1232.55760	         6.81986e+57
          1233.36390	         6.57888e+57
          1234.17020	         8.48748e+57
          1234.97650	         9.62404e+57
          1235.78280	         6.74246e+57
          1236.58910	         6.60612e+57
          1237.39540	         1.00858e+58
          1238.20170	         9.87525e+57
          1239.00800	         1.21287e+58
          1239.81430	         1.42922e+58
          1240.62060	         1.14702e+58
          1241.42690	         1.17651e+58
          1242.23320	         1.20807e+58
          1243.03950	         8.28142e+57
          1243.84580	         7.77387e+57
          1244.65210	         8.82064e+57
          1245.45840	         8.93996e+57
          1246.26470	         1.07872e+58
          1247.07100	         7.41195e+57
          1247.87730	         8.13136e+57
          1248.68360	         7.18616e+57
          1249.48990	         8.45817e+57
          1250.29620	         7.30339e+57
          1251.10250	         6.62457e+57
          1251.90880	         5.59556e+57
          1252.71510	         5.44258e+57
          1253.52140	         7.47081e+57
          1254.32770	         1.04998e+58
          1255.13400	         1.28146e+58
          1255.94030	         1.03588e+58
          1256.74660	         8.40046e+57
          1257.55290	         8.81555e+57
          1258.35920	         8.74083e+57
          1259.16550	         6.97921e+57
          1259.97180	         5.86911e+57
          1260.77810	         1.00163e+58
          1261.58440	         1.16258e+58
          1262.39070	         6.90343e+57
          1263.19700	         6.54256e+57
          1264.00330	         1.07760e+58
          1264.80960	         1.22055e+58
          1265.61590	         1.53764e+58
          1266.42220	         1.51894e+58
          1267.22850	         1.16220e+58
          1268.03480	         1.50360e+58
          1268.84110	         1.67826e+58
          1269.64740	         1.38728e+58
          1270.45370	         1.35664e+58
          1271.26000	         1.11531e+58
          1272.06630	         1.30882e+58
          1272.87260	         1.31369e+58
          1273.67890	         1.10450e+58
          1274.48520	         1.17635e+58
          1275.29150	         1.45904e+58
          1276.09780	         1.32561e+58
          1276.90410	         1.53638e+58
          1277.71040	         1.41712e+58
          1278.51670	         1.21705e+58
          1279.32300	         1.19112e+58
          1280.12930	         1.10543e+58
          1280.93560	         1.11081e+58
          1281.74190	         1.28589e+58
          1282.54820	         1.36428e+58
          1283.35450	         1.01246e+58
          1284.16080	         1.06319e+58
          1284.96710	         1.56587e+58
          1285.77340	         1.15596e+58
          1286.57970	         9.02598e+57
          1287.38600	         1.39794e+58
          1288.19230	         1.67013e+58
          1288.99860	         1.32475e+58
          1289.80490	         8.57365e+57
          1290.61120	         1.21314e+58
          1291.41750	         1.31211e+58
          1292.22380	         1.04183e+58
          1293.03010	         1.11955e+58
          1293.83640	         1.24006e+58
          1294.64270	         1.03296e+58
          1295.44900	         6.81265e+57
          1296.25530	         8.36507e+57
          1297.06160	         1.20269e+58
          1297.86790	         9.71442e+57
          1298.67420	         7.95274e+57
          1299.48050	         1.09760e+58
          1300.28680	         1.07404e+58
          1301.09310	         7.07332e+57
          1301.89940	         3.67603e+57
          1302.70570	         5.66835e+57
          1303.51200	         5.87943e+57
          1304.31830	         8.61905e+57
          1305.12460	         1.08325e+58
          1305.93090	         1.15361e+58
          1306.73720	         1.33036e+58
          1307.54350	         1.41990e+58
          1308.34980	         1.45127e+58
          1309.15610	         1.57512e+58
          1309.96240	         1.53856e+58
          1310.76870	         1.34660e+58
          1311.57500	         1.15541e+58
          1312.38130	         1.24329e+58
          1313.18760	         1.43335e+58
          1313.99390	         1.54210e+58
          1314.80020	         1.54863e+58
          1315.60650	         1.65378e+58
          1316.41280	         1.58503e+58
          1317.21910	         1.11069e+58
          1318.02540	         1.12108e+58
          1318.83170	         1.26492e+58
          1319.63800	         1.14082e+58
          1320.44430	         1.10485e+58
          1321.25060	         1.28619e+58
          1322.05690	         1.23978e+58
          1322.86320	         1.15562e+58
          1323.66950	         1.04340e+58
          1324.47580	         8.67834e+57
          1325.28210	         1.03126e+58
          1326.08840	         1.25241e+58
          1326.89470	         1.35793e+58
          1327.70100	         1.10756e+58
          1328.50730	         8.35243e+57
          1329.31360	         8.84500e+57
          1330.11990	         9.88382e+57
          1330.92620	         9.36680e+57
          1331.73250	         1.07562e+58
          1332.53880	         8.45880e+57
          1333.34510	         8.27956e+57
          1334.15140	         8.92169e+57
          1334.95770	         8.42238e+57
          1335.76400	         9.90163e+57
          1336.57030	         1.18340e+58
          1337.37660	         1.14577e+58
          1338.18290	         1.08437e+58
          1338.98920	         1.15469e+58
          1339.79550	         1.09681e+58
          1340.60180	         1.14895e+58
          1341.40810	         1.24601e+58
          1342.21440	         1.13979e+58
          1343.02070	         1.08986e+58
          1343.82700	         1.25107e+58
          1344.63330	         1.24750e+58
          1345.43960	         1.14899e+58
          1346.24590	         1.12521e+58
          1347.05220	         1.19903e+58
          1347.85850	         1.06899e+58
          1348.66480	         1.06762e+58
          1349.47110	         1.14557e+58
          1350.27740	         1.11828e+58
          1351.08370	         1.14466e+58
          1351.89000	         1.16045e+58
          1352.69630	         1.10277e+58
          1353.50260	         1.21676e+58
          1354.30890	         1.31048e+58
          1355.11520	         1.23098e+58
          1355.92150	         1.13121e+58
          1356.72780	         1.04141e+58
          1357.53410	         1.06902e+58
          1358.34040	         1.08062e+58
          1359.14670	         1.05786e+58
          1359.95300	         1.17031e+58
          1360.75930	         1.23394e+58
          1361.56560	         9.89568e+57
          1362.37190	         1.02580e+58
          1363.17820	         1.00645e+58
          1363.98450	         1.20476e+58
          1364.79080	         1.29365e+58
          1365.59710	         1.25243e+58
          1366.40340	         1.13708e+58
          1367.20970	         1.05291e+58
          1368.01600	         1.11031e+58
          1368.82230	         9.20128e+57
          1369.62860	         9.25708e+57
          1370.43490	         8.22145e+57
          1371.24120	         9.31531e+57
          1372.04750	         9.72175e+57
          1372.85380	         9.72036e+57
          1373.66010	         1.00342e+58
          1374.46640	         1.02136e+58
          1375.27270	         1.13727e+58
          1376.07900	         9.65328e+57
          1376.88530	         9.21610e+57
          1377.69160	         8.93814e+57
          1378.49790	         7.42882e+57
          1379.30420	         8.37931e+57
          1380.11050	         9.00173e+57
          1380.91680	         8.44217e+57
          1381.72310	         8.02958e+57
          1382.52940	         8.02837e+57
          1383.33570	         9.30401e+57
          1384.14200	         1.09528e+58
          1384.94830	         1.06887e+58
          1385.75460	         1.16132e+58
          1386.56090	         1.12204e+58
          1387.36720	         9.82991e+57
          1388.17350	         1.23123e+58
          1388.97980	         1.21722e+58
          1389.78610	         9.83055e+57
          1390.59240	         7.70674e+57
          1391.39870	         8.17703e+57
          1392.20500	         9.19740e+57
          1393.01130	         7.96075e+57
          1393.81760	         6.99186e+57
          1394.62390	         6.83020e+57
          1395.43020	         6.58155e+57
          1396.23650	         6.62923e+57
          1397.04280	         5.96424e+57
          1397.84910	         7.79640e+57
          1398.65540	         7.95101e+57
          1399.46170	         9.13108e+57
          1400.26800	         8.35968e+57
          1401.07430	         6.78895e+57
          1401.88060	         7.58305e+57
          1402.68690	         8.56061e+57
          1403.49320	         9.09088e+57
          1404.29950	         1.00675e+58
          1405.10580	         1.18108e+58
          1405.91210	         1.17253e+58
          1406.71840	         1.14255e+58
          1407.52470	         1.00128e+58
          1408.33100	         1.00636e+58
          1409.13730	         1.18753e+58
          1409.94360	         1.10488e+58
          1410.74990	         1.08518e+58
          1411.55620	         1.12444e+58
          1412.36250	         9.86971e+57
          1413.16880	         8.51021e+57
          1413.97510	         7.29205e+57
          1414.78140	         8.89687e+57
          1415.58770	         1.05733e+58
          1416.39400	         1.08896e+58
          1417.20030	         1.07193e+58
          1418.00660	         9.31397e+57
          1418.81290	         1.02918e+58
          1419.61920	         9.74610e+57
          1420.42550	         1.06328e+58
          1421.23180	         1.33128e+58
          1422.03810	         1.20940e+58
          1422.84440	         1.02013e+58
          1423.65070	         1.07018e+58
          1424.45700	         1.10434e+58
          1425.26330	         9.70298e+57
          1426.06960	         9.35609e+57
          1426.87590	         9.22587e+57
          1427.68220	         8.45613e+57
          1428.48850	         1.07545e+58
          1429.29480	         1.11438e+58
          1430.10110	         1.05812e+58
          1430.90740	         8.22267e+57
          1431.71370	         8.64026e+57
          1432.52000	         7.89355e+57
          1433.32630	         7.07506e+57
          1434.13260	         8.47563e+57
          1434.93890	         7.52323e+57
          1435.74520	         7.37562e+57
          1436.55150	         8.70304e+57
          1437.35780	         8.44056e+57
          1438.16410	         8.50831e+57
          1438.97040	         8.96344e+57
          1439.77670	         8.88177e+57
          1440.58300	         8.87350e+57
          1441.38930	         9.34480e+57
          1442.19560	         1.02586e+58
          1443.00190	         9.10977e+57
          1443.80820	         1.01817e+58
          1444.61450	         1.02810e+58
          1445.42080	         9.00622e+57
          1446.22710	         1.05348e+58
          1447.03340	         1.05034e+58
          1447.83970	         1.13381e+58
          1448.64600	         1.14291e+58
          1449.45230	         1.06347e+58
          1450.25860	         9.16703e+57
          1451.06490	         7.87495e+57
          1451.87120	         7.40781e+57
          1452.67750	         7.16416e+57
          1453.48380	         8.36600e+57
          1454.29010	         7.44773e+57
          1455.09640	         7.09740e+57
          1455.90270	         8.84842e+57
          1456.70900	         9.62019e+57
          1457.51530	         9.74882e+57
          1458.32160	         1.21437e+58
          1459.12790	         1.26259e+58
          1459.93420	         1.06728e+58
          1460.74050	         8.87038e+57
          1461.54680	         8.18945e+57
          1462.35310	         7.42179e+57
          1463.15940	         9.44740e+57
          1463.96570	         1.23691e+58
          1464.77200	         1.34844e+58
          1465.57830	         1.15310e+58
          1466.38460	         9.22773e+57
          1467.19090	         8.65266e+57
          1467.99720	         8.30192e+57
          1468.80350	         8.71097e+57
          1469.60980	         9.31378e+57
          1470.41610	         1.05414e+58
          1471.22240	         1.05769e+58
          1472.02870	         1.00061e+58
          1472.83500	         9.81929e+57
          1473.64130	         9.89879e+57
          1474.44760	         1.04476e+58
          1475.25390	         9.39858e+57
          1476.06020	         8.05299e+57
          1476.86650	         8.01096e+57
          1477.67280	         7.14132e+57
          1478.47910	         6.60993e+57
          1479.28540	         7.45332e+57
          1480.09170	         8.45480e+57
          1480.89800	         8.62586e+57
          1481.70430	         8.24078e+57
          1482.51060	         7.31407e+57
          1483.31690	         7.95900e+57
          1484.12320	         7.73593e+57
          1484.92950	         7.34347e+57
          1485.73580	         7.79329e+57
          1486.54210	         7.84733e+57
          1487.34840	         9.02978e+57
          1488.15470	         8.56362e+57
          1488.96100	         8.23003e+57
          1489.76730	         8.98842e+57
