#sample_226_stacked_spectrum_rest_UV-bands_median_H-alpha_noDC.txt
#median Lum: 1.70834e+42
#Rest-frame wavelength (A) | Luminosity (erg/s/A)
#
          1110.00000	         0.00000e+00
          1110.80630	         8.03035e+58
          1111.61260	         2.14722e+59
          1112.41890	        -3.49299e+58
          1113.22520	         2.20615e+59
          1114.03150	        -8.85095e+58
          1114.83780	         2.12447e+59
          1115.64410	         1.53457e+59
          1116.45040	         6.44688e+58
          1117.25670	         4.03828e+58
          1118.06300	         2.55728e+58
          1118.86930	        -6.49658e+58
          1119.67560	         1.44697e+59
          1120.48190	         2.50849e+58
          1121.28820	        -1.22608e+59
          1122.09450	        -6.25591e+58
          1122.90080	        -4.90219e+58
          1123.70710	         1.75032e+58
          1124.51340	         1.01882e+59
          1125.31970	         3.22269e+58
          1126.12600	         2.10438e+58
          1126.93230	        -2.26778e+58
          1127.73860	        -4.73635e+58
          1128.54490	         3.07009e+58
          1129.35120	         3.15557e+58
          1130.15750	        -1.30567e+58
          1130.96380	        -4.87533e+57
          1131.77010	         6.39722e+58
          1132.57640	         6.22700e+58
          1133.38270	         2.99399e+58
          1134.18900	         1.89934e+58
          1134.99530	         3.02172e+58
          1135.80160	         5.05330e+58
          1136.60790	         2.38493e+58
          1137.41420	         1.05564e+58
          1138.22050	         2.66248e+58
          1139.02680	         3.61533e+58
          1139.83310	         2.13808e+58
          1140.63940	         3.27706e+58
          1141.44570	         7.63343e+57
          1142.25200	        -4.92397e+56
          1143.05830	         3.17376e+58
          1143.86460	         2.37054e+58
          1144.67090	         2.03792e+58
          1145.47720	         6.41972e+57
          1146.28350	         1.55754e+58
          1147.08980	         1.33102e+58
          1147.89610	         1.76819e+58
          1148.70240	         3.16110e+58
          1149.50870	         3.00195e+58
          1150.31500	         1.79137e+58
          1151.12130	         1.24740e+58
          1151.92760	         1.25069e+58
          1152.73390	         2.76929e+57
          1153.54020	         9.21349e+56
          1154.34650	         2.38500e+58
          1155.15280	         2.07710e+58
          1155.95910	         1.60212e+58
          1156.76540	         4.34624e+57
          1157.57170	        -6.61230e+56
          1158.37800	         2.71407e+57
          1159.18430	         5.53553e+56
          1159.99060	         1.06209e+58
          1160.79690	         4.89151e+57
          1161.60320	         1.07233e+58
          1162.40950	         2.05364e+58
          1163.21580	         3.71166e+57
          1164.02210	         1.47044e+58
          1164.82840	         1.50789e+58
          1165.63470	         2.23201e+58
          1166.44100	         2.86864e+58
          1167.24730	         2.32083e+58
          1168.05360	         8.03292e+57
          1168.85990	         4.41601e+57
          1169.66620	         8.26113e+57
          1170.47250	         1.52346e+58
          1171.27880	         1.17008e+58
          1172.08510	         8.00333e+57
          1172.89140	         1.14717e+58
          1173.69770	         4.13939e+57
          1174.50400	         9.13829e+57
          1175.31030	         1.52770e+58
          1176.11660	         2.24640e+58
          1176.92290	         2.03082e+58
          1177.72920	         1.29469e+58
          1178.53550	         6.67686e+57
          1179.34180	         4.97028e+57
          1180.14810	         9.82676e+57
          1180.95440	         7.90949e+57
          1181.76070	         7.18483e+57
          1182.56700	         1.01388e+58
          1183.37330	         8.90669e+57
          1184.17960	         1.32298e+58
          1184.98590	         1.22225e+58
          1185.79220	         7.35071e+57
          1186.59850	         9.43861e+57
          1187.40480	         1.49302e+58
          1188.21110	         1.98495e+58
          1189.01740	         9.26890e+57
          1189.82370	         1.27017e+58
          1190.63000	         1.18795e+58
          1191.43630	         1.28587e+58
          1192.24260	         3.80342e+57
          1193.04890	         1.16053e+58
          1193.85520	         1.38710e+58
          1194.66150	         1.21917e+58
          1195.46780	         1.25004e+58
          1196.27410	         1.24128e+58
          1197.08040	         8.51714e+57
          1197.88670	         1.59611e+58
          1198.69300	         1.93956e+58
          1199.49930	         2.10211e+58
          1200.30560	         1.48913e+58
          1201.11190	         7.16468e+57
          1201.91820	         1.15485e+58
          1202.72450	         7.99180e+57
          1203.53080	         1.35841e+58
          1204.33710	         1.15396e+58
          1205.14340	         1.00323e+58
          1205.94970	         6.78525e+57
          1206.75600	         3.54792e+57
          1207.56230	         5.86505e+57
          1208.36860	         1.08332e+58
          1209.17490	         4.10620e+57
          1209.98120	         7.34889e+57
          1210.78750	         1.03534e+58
          1211.59380	         9.29689e+57
          1212.40010	         1.60269e+58
          1213.20640	         2.12255e+58
          1214.01270	         2.08709e+58
          1214.81900	         2.62933e+58
          1215.62530	         5.02988e+58
          1216.43160	         9.38781e+58
          1217.23790	         1.51483e+59
          1218.04420	         1.13527e+59
          1218.85050	         8.69145e+58
          1219.65680	         5.28499e+58
          1220.46310	         2.74614e+58
          1221.26940	         2.37665e+58
          1222.07570	         1.70005e+58
          1222.88200	         1.10307e+58
          1223.68830	         8.82161e+57
          1224.49460	         5.78102e+57
          1225.30090	         7.20507e+57
          1226.10720	         7.48675e+57
          1226.91350	         6.68496e+57
          1227.71980	         1.16795e+58
          1228.52610	         9.26567e+57
          1229.33240	         7.45382e+57
          1230.13870	         7.08978e+57
          1230.94500	         7.70432e+57
          1231.75130	         5.60625e+57
          1232.55760	         7.00594e+57
          1233.36390	         6.86768e+57
          1234.17020	         7.56965e+57
          1234.97650	         7.46215e+57
          1235.78280	         7.05906e+57
          1236.58910	         8.18204e+57
          1237.39540	         1.03378e+58
          1238.20170	         9.01797e+57
          1239.00800	         9.27484e+57
          1239.81430	         1.35745e+58
          1240.62060	         1.07150e+58
          1241.42690	         8.95200e+57
          1242.23320	         1.00089e+58
          1243.03950	         7.43561e+57
          1243.84580	         8.47833e+57
          1244.65210	         9.85315e+57
          1245.45840	         8.05106e+57
          1246.26470	         7.36600e+57
          1247.07100	         7.38333e+57
          1247.87730	         5.31043e+57
          1248.68360	         4.07781e+57
          1249.48990	         7.76636e+57
          1250.29620	         9.09917e+57
          1251.10250	         9.05056e+57
          1251.90880	         6.23600e+57
          1252.71510	         7.26920e+57
          1253.52140	         8.75405e+57
          1254.32770	         9.80086e+57
          1255.13400	         1.23550e+58
          1255.94030	         1.27686e+58
          1256.74660	         9.72222e+57
          1257.55290	         9.61903e+57
          1258.35920	         9.57525e+57
          1259.16550	         6.99070e+57
          1259.97180	         5.77566e+57
          1260.77810	         9.48875e+57
          1261.58440	         1.13126e+58
          1262.39070	         8.75377e+57
          1263.19700	         9.85042e+57
          1264.00330	         1.02371e+58
          1264.80960	         8.03508e+57
          1265.61590	         1.01258e+58
          1266.42220	         1.22250e+58
          1267.22850	         1.15095e+58
          1268.03480	         1.35051e+58
          1268.84110	         1.56833e+58
          1269.64740	         1.40569e+58
          1270.45370	         1.40664e+58
          1271.26000	         1.12935e+58
          1272.06630	         1.07298e+58
          1272.87260	         1.22083e+58
          1273.67890	         1.18570e+58
          1274.48520	         1.21236e+58
          1275.29150	         1.22922e+58
          1276.09780	         1.16549e+58
          1276.90410	         1.44033e+58
          1277.71040	         1.35384e+58
          1278.51670	         1.28785e+58
          1279.32300	         1.45084e+58
          1280.12930	         1.33028e+58
          1280.93560	         1.11026e+58
          1281.74190	         1.20783e+58
          1282.54820	         1.35344e+58
          1283.35450	         1.22903e+58
          1284.16080	         1.10323e+58
          1284.96710	         1.42416e+58
          1285.77340	         1.20757e+58
          1286.57970	         1.02510e+58
          1287.38600	         1.55740e+58
          1288.19230	         1.81440e+58
          1288.99860	         1.57158e+58
          1289.80490	         1.18843e+58
          1290.61120	         1.18774e+58
          1291.41750	         1.35557e+58
          1292.22380	         1.06727e+58
          1293.03010	         1.01646e+58
          1293.83640	         1.28466e+58
          1294.64270	         1.15120e+58
          1295.44900	         7.62992e+57
          1296.25530	         8.16737e+57
          1297.06160	         1.13694e+58
          1297.86790	         9.73398e+57
          1298.67420	         9.47250e+57
          1299.48050	         1.08715e+58
          1300.28680	         1.05067e+58
          1301.09310	         8.23163e+57
          1301.89940	         4.88375e+57
          1302.70570	         6.38146e+57
          1303.51200	         7.66738e+57
          1304.31830	         9.39184e+57
          1305.12460	         1.03728e+58
          1305.93090	         1.15684e+58
          1306.73720	         1.16277e+58
          1307.54350	         1.40239e+58
          1308.34980	         1.56782e+58
          1309.15610	         1.63547e+58
          1309.96240	         1.58275e+58
          1310.76870	         1.32321e+58
          1311.57500	         1.20310e+58
          1312.38130	         1.20818e+58
          1313.18760	         1.33200e+58
          1313.99390	         1.61495e+58
          1314.80020	         1.81878e+58
          1315.60650	         1.46384e+58
          1316.41280	         1.20719e+58
          1317.21910	         1.18810e+58
          1318.02540	         1.35941e+58
          1318.83170	         1.46720e+58
          1319.63800	         1.28787e+58
          1320.44430	         1.17096e+58
          1321.25060	         1.18458e+58
          1322.05690	         1.23083e+58
          1322.86320	         1.22755e+58
          1323.66950	         1.12914e+58
          1324.47580	         9.91190e+57
          1325.28210	         9.85298e+57
          1326.08840	         1.15065e+58
          1326.89470	         1.31772e+58
          1327.70100	         1.06240e+58
          1328.50730	         8.24506e+57
          1329.31360	         1.05541e+58
          1330.11990	         1.03042e+58
          1330.92620	         9.40693e+57
          1331.73250	         1.00111e+58
          1332.53880	         9.93274e+57
          1333.34510	         8.41396e+57
          1334.15140	         9.65756e+57
          1334.95770	         9.51492e+57
          1335.76400	         9.60084e+57
          1336.57030	         1.04610e+58
          1337.37660	         1.00046e+58
          1338.18290	         1.02389e+58
          1338.98920	         1.27319e+58
          1339.79550	         1.35360e+58
          1340.60180	         1.26406e+58
          1341.40810	         1.25956e+58
          1342.21440	         1.28847e+58
          1343.02070	         1.26513e+58
          1343.82700	         1.29456e+58
          1344.63330	         1.31348e+58
          1345.43960	         1.22336e+58
          1346.24590	         9.91132e+57
          1347.05220	         1.17872e+58
          1347.85850	         1.16633e+58
          1348.66480	         1.07383e+58
          1349.47110	         1.29194e+58
          1350.27740	         1.29255e+58
          1351.08370	         1.23333e+58
          1351.89000	         1.20261e+58
          1352.69630	         1.15302e+58
          1353.50260	         1.03660e+58
          1354.30890	         1.13588e+58
          1355.11520	         1.22367e+58
          1355.92150	         1.15325e+58
          1356.72780	         1.07748e+58
          1357.53410	         1.05596e+58
          1358.34040	         1.20292e+58
          1359.14670	         1.13714e+58
          1359.95300	         1.23131e+58
          1360.75930	         1.26837e+58
          1361.56560	         1.04702e+58
          1362.37190	         1.07448e+58
          1363.17820	         1.10496e+58
          1363.98450	         1.17016e+58
          1364.79080	         1.32025e+58
          1365.59710	         1.40088e+58
          1366.40340	         1.32012e+58
          1367.20970	         1.09900e+58
          1368.01600	         1.05411e+58
          1368.82230	         9.93528e+57
          1369.62860	         1.07458e+58
          1370.43490	         8.65183e+57
          1371.24120	         8.76462e+57
          1372.04750	         9.52767e+57
          1372.85380	         1.13240e+58
          1373.66010	         1.16810e+58
          1374.46640	         1.08371e+58
          1375.27270	         1.03951e+58
          1376.07900	         7.70701e+57
          1376.88530	         7.29085e+57
          1377.69160	         7.69231e+57
          1378.49790	         6.68882e+57
          1379.30420	         7.25361e+57
          1380.11050	         8.13295e+57
          1380.91680	         8.39802e+57
          1381.72310	         7.66853e+57
          1382.52940	         7.28774e+57
          1383.33570	         8.72837e+57
          1384.14200	         9.58573e+57
          1384.94830	         9.16475e+57
          1385.75460	         9.47385e+57
          1386.56090	         1.06596e+58
          1387.36720	         1.04552e+58
          1388.17350	         1.34218e+58
          1388.97980	         1.29681e+58
          1389.78610	         1.03843e+58
          1390.59240	         9.55038e+57
          1391.39870	         8.12215e+57
          1392.20500	         7.74561e+57
          1393.01130	         8.00153e+57
          1393.81760	         7.36658e+57
          1394.62390	         7.64884e+57
          1395.43020	         7.46655e+57
          1396.23650	         7.36055e+57
          1397.04280	         7.01889e+57
          1397.84910	         7.88757e+57
          1398.65540	         8.13635e+57
          1399.46170	         8.49997e+57
          1400.26800	         7.94798e+57
          1401.07430	         7.80502e+57
          1401.88060	         7.12340e+57
          1402.68690	         8.18520e+57
          1403.49320	         9.61632e+57
          1404.29950	         8.25967e+57
          1405.10580	         9.91161e+57
          1405.91210	         1.09892e+58
          1406.71840	         1.06141e+58
          1407.52470	         1.02713e+58
          1408.33100	         1.00274e+58
          1409.13730	         9.78490e+57
          1409.94360	         1.13938e+58
          1410.74990	         1.13308e+58
          1411.55620	         1.00690e+58
          1412.36250	         9.20593e+57
          1413.16880	         9.36534e+57
          1413.97510	         7.97351e+57
          1414.78140	         8.44737e+57
          1415.58770	         1.00603e+58
          1416.39400	         1.03971e+58
          1417.20030	         1.19936e+58
          1418.00660	         1.02910e+58
          1418.81290	         9.28421e+57
          1419.61920	         8.43250e+57
          1420.42550	         1.09113e+58
          1421.23180	         1.39007e+58
          1422.03810	         1.16745e+58
          1422.84440	         1.09414e+58
          1423.65070	         1.28884e+58
          1424.45700	         1.21628e+58
          1425.26330	         9.58084e+57
          1426.06960	         9.23539e+57
          1426.87590	         1.10581e+58
          1427.68220	         1.01982e+58
          1428.48850	         1.03995e+58
          1429.29480	         9.48824e+57
          1430.10110	         9.00468e+57
          1430.90740	         8.23019e+57
          1431.71370	         8.76285e+57
          1432.52000	         8.55998e+57
          1433.32630	         8.66197e+57
          1434.13260	         8.08454e+57
          1434.93890	         8.62003e+57
          1435.74520	         9.21261e+57
          1436.55150	         8.78122e+57
          1437.35780	         8.77519e+57
          1438.16410	         9.26635e+57
          1438.97040	         8.70515e+57
          1439.77670	         9.55288e+57
          1440.58300	         9.17200e+57
          1441.38930	         9.22070e+57
          1442.19560	         1.06940e+58
          1443.00190	         1.10636e+58
          1443.80820	         1.10483e+58
          1444.61450	         9.22448e+57
          1445.42080	         8.21592e+57
          1446.22710	         9.87203e+57
          1447.03340	         1.01555e+58
          1447.83970	         1.05554e+58
          1448.64600	         1.08681e+58
          1449.45230	         1.15495e+58
          1450.25860	         1.17102e+58
          1451.06490	         8.95397e+57
          1451.87120	         7.45853e+57
          1452.67750	         7.67127e+57
          1453.48380	         9.08145e+57
          1454.29010	         8.59753e+57
          1455.09640	         7.86188e+57
          1455.90270	         9.76666e+57
          1456.70900	         9.66493e+57
          1457.51530	         1.07944e+58
          1458.32160	         1.25572e+58
          1459.12790	         1.05434e+58
          1459.93420	         8.97642e+57
          1460.74050	         7.74917e+57
          1461.54680	         7.98464e+57
          1462.35310	         8.56568e+57
          1463.15940	         9.76723e+57
          1463.96570	         1.01884e+58
          1464.77200	         1.09103e+58
          1465.57830	         1.06373e+58
          1466.38460	         9.46520e+57
          1467.19090	         8.49927e+57
          1467.99720	         8.77901e+57
          1468.80350	         1.03496e+58
          1469.60980	         1.02923e+58
          1470.41610	         1.01743e+58
          1471.22240	         9.62828e+57
          1472.02870	         1.03220e+58
          1472.83500	         1.05286e+58
          1473.64130	         9.64164e+57
          1474.44760	         9.08781e+57
          1475.25390	         8.53726e+57
          1476.06020	         8.66007e+57
          1476.86650	         7.78608e+57
          1477.67280	         6.57722e+57
          1478.47910	         6.09814e+57
          1479.28540	         7.23994e+57
          1480.09170	         8.29942e+57
          1480.89800	         8.23527e+57
          1481.70430	         9.67760e+57
          1482.51060	         9.38600e+57
          1483.31690	         7.81866e+57
          1484.12320	         7.42626e+57
          1484.92950	         7.15551e+57
          1485.73580	         6.90262e+57
          1486.54210	         7.50280e+57
          1487.34840	         8.76304e+57
          1488.15470	         7.88376e+57
          1488.96100	         8.17250e+57
          1489.76730	         9.07179e+57
