#sample_45_stacked_spectrum_rest_UV-bands_median_H-alpha_noDC.txt
#median Lum: 1.66600e+42
#Rest-frame wavelength (A) | Luminosity (erg/s/A)
#
          1110.00000	         0.00000e+00
          1110.80630	        -6.77012e+59
          1111.61260	         1.43032e+59
          1112.41890	         2.59164e+59
          1113.22520	         1.46538e+58
          1114.03150	        -2.98141e+59
          1114.83780	         7.19417e+58
          1115.64410	         6.01341e+58
          1116.45040	         1.79197e+59
          1117.25670	         1.30399e+59
          1118.06300	         1.10380e+59
          1118.86930	        -1.65489e+59
          1119.67560	        -2.46163e+58
          1120.48190	        -8.42316e+58
          1121.28820	        -2.56992e+59
          1122.09450	        -2.38131e+58
          1122.90080	        -3.34591e+58
          1123.70710	         4.19883e+57
          1124.51340	         3.82797e+58
          1125.31970	        -2.59542e+58
          1126.12600	         4.73341e+57
          1126.93230	        -4.36057e+57
          1127.73860	        -5.09170e+58
          1128.54490	         3.44812e+58
          1129.35120	         2.15412e+58
          1130.15750	         8.41167e+57
          1130.96380	         1.20377e+57
          1131.77010	         6.15310e+58
          1132.57640	         6.83886e+58
          1133.38270	         2.18831e+58
          1134.18900	         5.93416e+58
          1134.99530	         3.10401e+58
          1135.80160	         3.89438e+58
          1136.60790	         1.87152e+58
          1137.41420	         1.05251e+58
          1138.22050	         3.80962e+58
          1139.02680	         2.60801e+58
          1139.83310	         3.22803e+58
          1140.63940	         4.10545e+58
          1141.44570	        -1.03585e+58
          1142.25200	        -2.94894e+57
          1143.05830	         6.21515e+57
          1143.86460	         2.61796e+58
          1144.67090	         2.99770e+58
          1145.47720	         7.15919e+57
          1146.28350	         1.18614e+58
          1147.08980	         1.09230e+58
          1147.89610	         1.28935e+58
          1148.70240	         1.49289e+58
          1149.50870	         2.39642e+58
          1150.31500	         1.55757e+58
          1151.12130	         2.10225e+57
          1151.92760	        -3.33539e+57
          1152.73390	        -5.82177e+57
          1153.54020	         1.90549e+57
          1154.34650	         3.08491e+58
          1155.15280	         1.84116e+58
          1155.95910	         5.72554e+57
          1156.76540	         3.73888e+57
          1157.57170	        -4.98345e+57
          1158.37800	        -6.81737e+56
          1159.18430	        -7.79570e+57
          1159.99060	        -3.27920e+57
          1160.79690	         5.59840e+57
          1161.60320	         1.85001e+58
          1162.40950	         2.45884e+58
          1163.21580	         2.83803e+58
          1164.02210	         1.45607e+58
          1164.82840	         1.21177e+58
          1165.63470	         2.08795e+58
          1166.44100	         3.33225e+58
          1167.24730	         2.19820e+58
          1168.05360	         1.15931e+58
          1168.85990	         5.65860e+57
          1169.66620	        -2.35060e+56
          1170.47250	         1.22316e+58
          1171.27880	         8.15676e+57
          1172.08510	         9.08144e+57
          1172.89140	         1.12113e+58
          1173.69770	         1.00162e+58
          1174.50400	         8.18637e+57
          1175.31030	         8.40018e+57
          1176.11660	         1.61592e+58
          1176.92290	         1.40328e+58
          1177.72920	         1.10124e+58
          1178.53550	         8.10051e+57
          1179.34180	         3.70416e+57
          1180.14810	         7.00574e+57
          1180.95440	         1.07496e+58
          1181.76070	         6.46250e+57
          1182.56700	         7.49462e+57
          1183.37330	         6.85789e+57
          1184.17960	         1.31674e+58
          1184.98590	         7.55521e+57
          1185.79220	         6.47884e+57
          1186.59850	         1.36901e+58
          1187.40480	         1.48972e+58
          1188.21110	         1.49403e+58
          1189.01740	         1.25837e+58
          1189.82370	         9.61412e+57
          1190.63000	         1.33132e+58
          1191.43630	         1.31119e+58
          1192.24260	         1.05263e+58
          1193.04890	         1.20250e+58
          1193.85520	         1.16207e+58
          1194.66150	         1.17086e+58
          1195.46780	         1.79665e+58
          1196.27410	         2.12254e+58
          1197.08040	         1.90426e+58
          1197.88670	         1.58387e+58
          1198.69300	         1.54927e+58
          1199.49930	         1.84096e+58
          1200.30560	         1.00851e+58
          1201.11190	         8.04176e+57
          1201.91820	         1.00464e+58
          1202.72450	         8.84166e+57
          1203.53080	         1.45087e+58
          1204.33710	         7.38681e+57
          1205.14340	         5.81258e+57
          1205.94970	         7.51934e+57
          1206.75600	         8.76715e+57
          1207.56230	         5.63815e+57
          1208.36860	         7.55406e+57
          1209.17490	         6.83196e+57
          1209.98120	         9.44439e+57
          1210.78750	         9.58413e+57
          1211.59380	         1.19364e+58
          1212.40010	         1.88765e+58
          1213.20640	         2.20697e+58
          1214.01270	         2.15721e+58
          1214.81900	         2.48115e+58
          1215.62530	         4.44663e+58
          1216.43160	         8.94621e+58
          1217.23790	         1.50698e+59
          1218.04420	         1.10662e+59
          1218.85050	         8.40702e+58
          1219.65680	         5.94808e+58
          1220.46310	         3.69144e+58
          1221.26940	         2.31654e+58
          1222.07570	         1.05614e+58
          1222.88200	         1.12721e+58
          1223.68830	         1.30662e+58
          1224.49460	         1.00250e+58
          1225.30090	         5.31558e+57
          1226.10720	         5.49977e+57
          1226.91350	         5.90674e+57
          1227.71980	         7.86644e+57
          1228.52610	         1.29042e+58
          1229.33240	         1.02848e+58
          1230.13870	         1.22610e+58
          1230.94500	         1.30187e+58
          1231.75130	         6.91805e+57
          1232.55760	         9.35793e+57
          1233.36390	         8.89118e+57
          1234.17020	         8.15842e+57
          1234.97650	         8.89071e+57
          1235.78280	         9.95181e+57
          1236.58910	         7.39517e+57
          1237.39540	         9.15526e+57
          1238.20170	         1.02491e+58
          1239.00800	         1.44806e+58
          1239.81430	         1.68833e+58
          1240.62060	         1.19721e+58
          1241.42690	         1.27644e+58
          1242.23320	         1.29362e+58
          1243.03950	         9.33065e+57
          1243.84580	         1.03859e+58
          1244.65210	         1.14390e+58
          1245.45840	         9.15978e+57
          1246.26470	         7.72670e+57
          1247.07100	         5.82403e+57
          1247.87730	         4.98847e+57
          1248.68360	         6.50546e+57
          1249.48990	         5.70853e+57
          1250.29620	         7.47897e+57
          1251.10250	         8.24477e+57
          1251.90880	         7.00468e+57
          1252.71510	         6.42737e+57
          1253.52140	         9.01434e+57
          1254.32770	         9.72511e+57
          1255.13400	         1.21800e+58
          1255.94030	         1.21210e+58
          1256.74660	         7.62527e+57
          1257.55290	         9.43796e+57
          1258.35920	         1.15063e+58
          1259.16550	         7.56624e+57
          1259.97180	         6.09545e+57
          1260.77810	         9.31306e+57
          1261.58440	         1.15014e+58
          1262.39070	         8.82293e+57
          1263.19700	         7.90257e+57
          1264.00330	         9.32709e+57
          1264.80960	         1.03631e+58
          1265.61590	         1.11606e+58
          1266.42220	         1.17976e+58
          1267.22850	         1.06786e+58
          1268.03480	         1.37943e+58
          1268.84110	         1.64356e+58
          1269.64740	         1.31167e+58
          1270.45370	         1.34515e+58
          1271.26000	         1.35011e+58
          1272.06630	         1.27831e+58
          1272.87260	         1.14339e+58
          1273.67890	         1.22518e+58
          1274.48520	         1.30020e+58
          1275.29150	         1.47148e+58
          1276.09780	         1.16577e+58
          1276.90410	         1.53115e+58
          1277.71040	         1.56471e+58
          1278.51670	         1.27350e+58
          1279.32300	         1.57536e+58
          1280.12930	         1.35554e+58
          1280.93560	         1.10694e+58
          1281.74190	         1.47841e+58
          1282.54820	         1.43206e+58
          1283.35450	         1.13433e+58
          1284.16080	         1.10030e+58
          1284.96710	         1.18057e+58
          1285.77340	         8.69710e+57
          1286.57970	         9.27797e+57
          1287.38600	         1.62676e+58
          1288.19230	         1.88347e+58
          1288.99860	         1.55181e+58
          1289.80490	         1.16879e+58
          1290.61120	         1.40541e+58
          1291.41750	         1.50455e+58
          1292.22380	         1.15094e+58
          1293.03010	         8.71375e+57
          1293.83640	         1.02896e+58
          1294.64270	         1.12728e+58
          1295.44900	         8.56833e+57
          1296.25530	         9.10043e+57
          1297.06160	         1.21812e+58
          1297.86790	         1.13398e+58
          1298.67420	         9.98252e+57
          1299.48050	         1.07567e+58
          1300.28680	         1.11475e+58
          1301.09310	         9.88234e+57
          1301.89940	         4.73688e+57
          1302.70570	         4.67865e+57
          1303.51200	         6.58487e+57
          1304.31830	         8.48634e+57
          1305.12460	         1.01040e+58
          1305.93090	         1.14857e+58
          1306.73720	         1.32544e+58
          1307.54350	         1.37676e+58
          1308.34980	         1.27277e+58
          1309.15610	         1.56078e+58
          1309.96240	         1.71619e+58
          1310.76870	         1.18770e+58
          1311.57500	         6.65336e+57
          1312.38130	         8.16388e+57
          1313.18760	         1.38859e+58
          1313.99390	         1.54047e+58
          1314.80020	         1.59184e+58
          1315.60650	         1.69747e+58
          1316.41280	         1.54932e+58
          1317.21910	         1.20114e+58
          1318.02540	         1.17677e+58
          1318.83170	         1.37484e+58
          1319.63800	         1.22856e+58
          1320.44430	         1.05957e+58
          1321.25060	         1.18199e+58
          1322.05690	         1.24424e+58
          1322.86320	         1.24972e+58
          1323.66950	         1.15415e+58
          1324.47580	         9.59097e+57
          1325.28210	         1.09173e+58
          1326.08840	         1.24377e+58
          1326.89470	         1.36514e+58
          1327.70100	         1.12399e+58
          1328.50730	         7.00782e+57
          1329.31360	         9.08692e+57
          1330.11990	         9.65803e+57
          1330.92620	         8.05008e+57
          1331.73250	         9.62201e+57
          1332.53880	         9.52530e+57
          1333.34510	         8.04615e+57
          1334.15140	         8.96113e+57
          1334.95770	         1.00625e+58
          1335.76400	         1.10654e+58
          1336.57030	         1.10157e+58
          1337.37660	         1.12212e+58
          1338.18290	         1.11650e+58
          1338.98920	         1.22179e+58
          1339.79550	         1.30759e+58
          1340.60180	         1.27621e+58
          1341.40810	         1.27275e+58
          1342.21440	         1.16605e+58
          1343.02070	         1.17062e+58
          1343.82700	         1.23778e+58
          1344.63330	         1.18169e+58
          1345.43960	         1.15615e+58
          1346.24590	         1.15372e+58
          1347.05220	         1.25687e+58
          1347.85850	         1.08450e+58
          1348.66480	         1.01026e+58
          1349.47110	         1.21257e+58
          1350.27740	         1.13562e+58
          1351.08370	         1.07694e+58
          1351.89000	         1.04972e+58
          1352.69630	         1.07605e+58
          1353.50260	         1.24587e+58
          1354.30890	         1.23758e+58
          1355.11520	         1.16416e+58
          1355.92150	         1.19489e+58
          1356.72780	         1.04361e+58
          1357.53410	         9.86526e+57
          1358.34040	         1.05796e+58
          1359.14670	         1.06627e+58
          1359.95300	         1.08296e+58
          1360.75930	         1.02769e+58
          1361.56560	         9.84113e+57
          1362.37190	         1.01824e+58
          1363.17820	         9.40657e+57
          1363.98450	         1.02597e+58
          1364.79080	         1.26360e+58
          1365.59710	         1.45771e+58
          1366.40340	         1.30944e+58
          1367.20970	         9.25697e+57
          1368.01600	         9.56939e+57
          1368.82230	         1.04156e+58
          1369.62860	         1.03216e+58
          1370.43490	         1.11755e+58
          1371.24120	         1.05201e+58
          1372.04750	         8.86604e+57
          1372.85380	         1.08446e+58
          1373.66010	         9.69838e+57
          1374.46640	         1.06500e+58
          1375.27270	         1.05924e+58
          1376.07900	         9.53843e+57
          1376.88530	         9.87221e+57
          1377.69160	         1.02128e+58
          1378.49790	         8.00003e+57
          1379.30420	         6.19256e+57
          1380.11050	         8.79273e+57
          1380.91680	         7.82930e+57
          1381.72310	         8.15210e+57
          1382.52940	         9.23813e+57
          1383.33570	         8.09705e+57
          1384.14200	         9.44301e+57
          1384.94830	         1.04024e+58
          1385.75460	         1.06530e+58
          1386.56090	         1.18798e+58
          1387.36720	         1.04151e+58
          1388.17350	         1.25777e+58
          1388.97980	         1.13900e+58
          1389.78610	         8.66902e+57
          1390.59240	         8.29083e+57
          1391.39870	         7.41555e+57
          1392.20500	         7.30367e+57
          1393.01130	         7.15321e+57
          1393.81760	         6.52317e+57
          1394.62390	         5.85016e+57
          1395.43020	         6.22956e+57
          1396.23650	         6.32067e+57
          1397.04280	         6.20720e+57
          1397.84910	         7.86749e+57
          1398.65540	         8.25851e+57
          1399.46170	         9.49220e+57
          1400.26800	         8.19220e+57
          1401.07430	         6.88217e+57
          1401.88060	         7.84664e+57
          1402.68690	         8.69299e+57
          1403.49320	         9.25367e+57
          1404.29950	         8.94854e+57
          1405.10580	         9.45960e+57
          1405.91210	         1.09535e+58
          1406.71840	         1.12226e+58
          1407.52470	         1.07989e+58
          1408.33100	         1.10813e+58
          1409.13730	         1.19275e+58
          1409.94360	         1.22336e+58
          1410.74990	         1.14890e+58
          1411.55620	         9.95148e+57
          1412.36250	         9.06715e+57
          1413.16880	         8.76411e+57
          1413.97510	         9.19485e+57
          1414.78140	         9.24880e+57
          1415.58770	         9.22624e+57
          1416.39400	         9.58258e+57
          1417.20030	         1.07319e+58
          1418.00660	         1.01808e+58
          1418.81290	         8.28389e+57
          1419.61920	         7.98903e+57
          1420.42550	         1.13964e+58
          1421.23180	         1.19220e+58
          1422.03810	         1.08170e+58
          1422.84440	         1.05339e+58
          1423.65070	         1.23311e+58
          1424.45700	         1.14779e+58
          1425.26330	         8.88673e+57
          1426.06960	         8.66490e+57
          1426.87590	         1.03852e+58
          1427.68220	         1.04186e+58
          1428.48850	         1.17169e+58
          1429.29480	         1.12968e+58
          1430.10110	         1.03758e+58
          1430.90740	         9.31020e+57
          1431.71370	         7.87980e+57
          1432.52000	         8.79502e+57
          1433.32630	         8.20197e+57
          1434.13260	         7.08003e+57
          1434.93890	         7.82040e+57
          1435.74520	         8.79664e+57
          1436.55150	         8.84811e+57
          1437.35780	         8.61910e+57
          1438.16410	         8.54431e+57
          1438.97040	         9.06131e+57
          1439.77670	         9.39161e+57
          1440.58300	         9.03275e+57
          1441.38930	         9.65790e+57
          1442.19560	         1.08393e+58
          1443.00190	         1.10456e+58
          1443.80820	         1.13140e+58
          1444.61450	         9.96031e+57
          1445.42080	         9.17580e+57
          1446.22710	         1.11745e+58
          1447.03340	         9.54471e+57
          1447.83970	         1.00608e+58
          1448.64600	         1.22590e+58
          1449.45230	         1.10185e+58
          1450.25860	         1.01217e+58
          1451.06490	         8.79222e+57
          1451.87120	         7.15977e+57
          1452.67750	         7.55206e+57
          1453.48380	         8.12424e+57
          1454.29010	         7.66713e+57
          1455.09640	         8.56861e+57
          1455.90270	         9.18332e+57
          1456.70900	         8.36277e+57
          1457.51530	         9.16620e+57
          1458.32160	         1.20715e+58
          1459.12790	         1.12507e+58
          1459.93420	         9.69236e+57
          1460.74050	         8.51846e+57
          1461.54680	         8.70607e+57
          1462.35310	         9.10899e+57
          1463.15940	         9.39247e+57
          1463.96570	         1.06439e+58
          1464.77200	         1.27791e+58
          1465.57830	         1.16387e+58
          1466.38460	         8.58054e+57
          1467.19090	         8.87931e+57
          1467.99720	         8.64013e+57
          1468.80350	         8.61265e+57
          1469.60980	         8.97325e+57
          1470.41610	         1.01684e+58
          1471.22240	         9.63577e+57
          1472.02870	         1.00231e+58
          1472.83500	         9.80621e+57
          1473.64130	         9.13576e+57
          1474.44760	         1.01419e+58
          1475.25390	         9.46420e+57
          1476.06020	         8.94748e+57
          1476.86650	         9.39133e+57
          1477.67280	         8.92530e+57
          1478.47910	         6.72353e+57
          1479.28540	         7.16400e+57
          1480.09170	         8.70922e+57
          1480.89800	         9.08835e+57
          1481.70430	         8.76964e+57
          1482.51060	         7.71744e+57
          1483.31690	         7.52237e+57
          1484.12320	         8.43539e+57
          1484.92950	         8.40775e+57
          1485.73580	         9.19771e+57
          1486.54210	         8.79942e+57
          1487.34840	         8.26628e+57
          1488.15470	         7.72680e+57
          1488.96100	         8.36088e+57
          1489.76730	         9.60851e+57
