#sample_104_stacked_spectrum_rest_UV-bands_median_H-alpha_noDC.txt
#median Lum: 1.68371e+42
#Rest-frame wavelength (A) | Luminosity (erg/s/A)
#
          1110.00000	         0.00000e+00
          1110.80630	         1.75161e+59
          1111.61260	         1.88015e+59
          1112.41890	         1.77336e+59
          1113.22520	         6.79398e+56
          1114.03150	        -2.42383e+59
          1114.83780	         1.61595e+59
          1115.64410	         1.74859e+59
          1116.45040	         1.45594e+59
          1117.25670	        -6.27119e+58
          1118.06300	         3.32186e+58
          1118.86930	         1.30123e+59
          1119.67560	         1.09303e+59
          1120.48190	         3.51067e+58
          1121.28820	        -5.54710e+58
          1122.09450	         2.12476e+58
          1122.90080	         8.66673e+58
          1123.70710	         1.14711e+59
          1124.51340	         6.04173e+58
          1125.31970	         5.03326e+58
          1126.12600	        -8.27489e+56
          1126.93230	        -3.67964e+58
          1127.73860	         2.51536e+58
          1128.54490	         3.74511e+58
          1129.35120	         3.46607e+58
          1130.15750	         9.77148e+57
          1130.96380	        -8.56980e+57
          1131.77010	         2.45904e+58
          1132.57640	         4.67529e+58
          1133.38270	         3.88440e+58
          1134.18900	         1.30941e+58
          1134.99530	         1.91652e+58
          1135.80160	         3.74764e+58
          1136.60790	         3.14854e+58
          1137.41420	        -2.16985e+57
          1138.22050	         3.71603e+58
          1139.02680	         3.91561e+58
          1139.83310	         2.85937e+58
          1140.63940	         1.25481e+58
          1141.44570	        -1.45995e+58
          1142.25200	         1.27080e+57
          1143.05830	         1.66857e+58
          1143.86460	         1.73063e+58
          1144.67090	         1.94970e+58
          1145.47720	         1.45785e+58
          1146.28350	         7.55609e+57
          1147.08980	         1.55810e+58
          1147.89610	         1.72051e+58
          1148.70240	         2.81100e+58
          1149.50870	         2.06924e+58
          1150.31500	         1.48732e+58
          1151.12130	         6.85874e+57
          1151.92760	         9.51880e+57
          1152.73390	         1.13954e+58
          1153.54020	         1.34655e+58
          1154.34650	         1.72385e+58
          1155.15280	         1.46827e+58
          1155.95910	         1.58185e+58
          1156.76540	         1.81380e+58
          1157.57170	         9.51646e+57
          1158.37800	        -4.11431e+57
          1159.18430	         1.21679e+57
          1159.99060	         5.25097e+57
          1160.79690	         1.45561e+58
          1161.60320	         1.25322e+58
          1162.40950	         1.38297e+58
          1163.21580	         1.74307e+58
          1164.02210	         1.15640e+58
          1164.82840	         8.11145e+57
          1165.63470	         2.33969e+58
          1166.44100	         3.01662e+58
          1167.24730	         2.15342e+58
          1168.05360	         1.37203e+57
          1168.85990	         1.05623e+58
          1169.66620	         8.74769e+57
          1170.47250	         1.45171e+58
          1171.27880	         1.71946e+58
          1172.08510	         1.92805e+58
          1172.89140	         1.14311e+58
          1173.69770	         1.58020e+58
          1174.50400	         1.75778e+58
          1175.31030	         1.49025e+58
          1176.11660	         1.58460e+58
          1176.92290	         1.71564e+58
          1177.72920	         1.21063e+58
          1178.53550	         4.18384e+57
          1179.34180	         1.90452e+57
          1180.14810	         9.65604e+57
          1180.95440	         1.17561e+58
          1181.76070	         8.12004e+57
          1182.56700	         4.41453e+57
          1183.37330	         4.62285e+57
          1184.17960	         1.25581e+58
          1184.98590	         1.91371e+58
          1185.79220	         1.10820e+58
          1186.59850	         6.43929e+57
          1187.40480	         6.20273e+57
          1188.21110	         1.71216e+58
          1189.01740	         8.30007e+57
          1189.82370	         7.59211e+57
          1190.63000	         8.32999e+57
          1191.43630	         1.03861e+58
          1192.24260	         7.29165e+57
          1193.04890	         1.21044e+58
          1193.85520	         1.55296e+58
          1194.66150	         2.75070e+57
          1195.46780	         4.98675e+57
          1196.27410	         1.97523e+58
          1197.08040	         7.60411e+57
          1197.88670	         1.02951e+58
          1198.69300	         1.33165e+58
          1199.49930	         1.26586e+58
          1200.30560	         7.67826e+57
          1201.11190	         7.61624e+57
          1201.91820	         9.03065e+57
          1202.72450	         5.23312e+57
          1203.53080	         9.45146e+57
          1204.33710	         7.09600e+57
          1205.14340	         4.70074e+57
          1205.94970	         5.44684e+57
          1206.75600	         4.86030e+57
          1207.56230	         1.90996e+57
          1208.36860	         8.18893e+57
          1209.17490	         4.33366e+57
          1209.98120	         3.98689e+57
          1210.78750	         6.73774e+57
          1211.59380	         1.37662e+58
          1212.40010	         1.66061e+58
          1213.20640	         1.88628e+58
          1214.01270	         1.85828e+58
          1214.81900	         2.66878e+58
          1215.62530	         4.64685e+58
          1216.43160	         8.88371e+58
          1217.23790	         1.47952e+59
          1218.04420	         1.09355e+59
          1218.85050	         8.61450e+58
          1219.65680	         5.41218e+58
          1220.46310	         3.30378e+58
          1221.26940	         2.07835e+58
          1222.07570	         8.66645e+57
          1222.88200	         7.43918e+57
          1223.68830	         1.00304e+58
          1224.49460	         7.21842e+57
          1225.30090	         3.91296e+57
          1226.10720	         6.28084e+57
          1226.91350	         7.86887e+57
          1227.71980	         9.32498e+57
          1228.52610	         1.31492e+58
          1229.33240	         9.85442e+57
          1230.13870	         9.31030e+57
          1230.94500	         6.43474e+57
          1231.75130	         4.35107e+57
          1232.55760	         7.67282e+57
          1233.36390	         8.83706e+57
          1234.17020	         8.04394e+57
          1234.97650	         7.25793e+57
          1235.78280	         7.76439e+57
          1236.58910	         8.11376e+57
          1237.39540	         1.02375e+58
          1238.20170	         1.13391e+58
          1239.00800	         1.37585e+58
          1239.81430	         1.48200e+58
          1240.62060	         9.03742e+57
          1241.42690	         1.03798e+58
          1242.23320	         1.31686e+58
          1243.03950	         7.53079e+57
          1243.84580	         6.45900e+57
          1244.65210	         8.13764e+57
          1245.45840	         1.05323e+58
          1246.26470	         1.26002e+58
          1247.07100	         1.05171e+58
          1247.87730	         7.81994e+57
          1248.68360	         3.23756e+57
          1249.48990	         8.73131e+57
          1250.29620	         1.27937e+58
          1251.10250	         1.08780e+58
          1251.90880	         5.53670e+57
          1252.71510	         5.11309e+57
          1253.52140	         7.34076e+57
          1254.32770	         9.35085e+57
          1255.13400	         1.28867e+58
          1255.94030	         1.29817e+58
          1256.74660	         9.54217e+57
          1257.55290	         9.49099e+57
          1258.35920	         7.66825e+57
          1259.16550	         4.98402e+57
          1259.97180	         4.37141e+57
          1260.77810	         7.91601e+57
          1261.58440	         1.11209e+58
          1262.39070	         8.76545e+57
          1263.19700	         7.75653e+57
          1264.00330	         8.55637e+57
          1264.80960	         1.15153e+58
          1265.61590	         1.30634e+58
          1266.42220	         1.28877e+58
          1267.22850	         1.19712e+58
          1268.03480	         1.44870e+58
          1268.84110	         1.36607e+58
          1269.64740	         1.26450e+58
          1270.45370	         1.43907e+58
          1271.26000	         1.28946e+58
          1272.06630	         1.21408e+58
          1272.87260	         1.30498e+58
          1273.67890	         1.39819e+58
          1274.48520	         1.16580e+58
          1275.29150	         1.08344e+58
          1276.09780	         8.86261e+57
          1276.90410	         1.24628e+58
          1277.71040	         1.29272e+58
          1278.51670	         1.14709e+58
          1279.32300	         1.26134e+58
          1280.12930	         1.17975e+58
          1280.93560	         1.12819e+58
          1281.74190	         1.25640e+58
          1282.54820	         1.25569e+58
          1283.35450	         1.07149e+58
          1284.16080	         1.07276e+58
          1284.96710	         1.47639e+58
          1285.77340	         1.29450e+58
          1286.57970	         1.03156e+58
          1287.38600	         1.63820e+58
          1288.19230	         1.92749e+58
          1288.99860	         1.47637e+58
          1289.80490	         9.92897e+57
          1290.61120	         1.15903e+58
          1291.41750	         1.17043e+58
          1292.22380	         1.08954e+58
          1293.03010	         1.25681e+58
          1293.83640	         1.29971e+58
          1294.64270	         1.06189e+58
          1295.44900	         6.92124e+57
          1296.25530	         7.12496e+57
          1297.06160	         9.30068e+57
          1297.86790	         9.22413e+57
          1298.67420	         8.54175e+57
          1299.48050	         8.51387e+57
          1300.28680	         1.00634e+58
          1301.09310	         7.90925e+57
          1301.89940	         2.88886e+57
          1302.70570	         5.30818e+57
          1303.51200	         8.08527e+57
          1304.31830	         9.92822e+57
          1305.12460	         1.04865e+58
          1305.93090	         1.04058e+58
          1306.73720	         1.19908e+58
          1307.54350	         1.43029e+58
          1308.34980	         1.54243e+58
          1309.15610	         1.63493e+58
          1309.96240	         1.49906e+58
          1310.76870	         1.35267e+58
          1311.57500	         1.51825e+58
          1312.38130	         1.40478e+58
          1313.18760	         1.20360e+58
          1313.99390	         1.56478e+58
          1314.80020	         1.50923e+58
          1315.60650	         1.26932e+58
          1316.41280	         1.39700e+58
          1317.21910	         1.27911e+58
          1318.02540	         1.39410e+58
          1318.83170	         1.36735e+58
          1319.63800	         1.16419e+58
          1320.44430	         1.03185e+58
          1321.25060	         1.21050e+58
          1322.05690	         1.31011e+58
          1322.86320	         1.20679e+58
          1323.66950	         1.06969e+58
          1324.47580	         9.75357e+57
          1325.28210	         1.08315e+58
          1326.08840	         1.28240e+58
          1326.89470	         1.38316e+58
          1327.70100	         1.09164e+58
          1328.50730	         8.27861e+57
          1329.31360	         1.17234e+58
          1330.11990	         1.11415e+58
          1330.92620	         8.87079e+57
          1331.73250	         1.05125e+58
          1332.53880	         1.00993e+58
          1333.34510	         7.72317e+57
          1334.15140	         7.35138e+57
          1334.95770	         7.90300e+57
          1335.76400	         9.50521e+57
          1336.57030	         1.06590e+58
          1337.37660	         1.06309e+58
          1338.18290	         1.02723e+58
          1338.98920	         1.05811e+58
          1339.79550	         1.17367e+58
          1340.60180	         1.13349e+58
          1341.40810	         1.24809e+58
          1342.21440	         1.16332e+58
          1343.02070	         1.14648e+58
          1343.82700	         1.34425e+58
          1344.63330	         1.29683e+58
          1345.43960	         1.31413e+58
          1346.24590	         9.92436e+57
          1347.05220	         1.09919e+58
          1347.85850	         1.08344e+58
          1348.66480	         1.21817e+58
          1349.47110	         1.20048e+58
          1350.27740	         9.31166e+57
          1351.08370	         1.00789e+58
          1351.89000	         1.03213e+58
          1352.69630	         9.56962e+57
          1353.50260	         1.07482e+58
          1354.30890	         1.18644e+58
          1355.11520	         1.10853e+58
          1355.92150	         1.04539e+58
          1356.72780	         9.75560e+57
          1357.53410	         1.02155e+58
          1358.34040	         1.12812e+58
          1359.14670	         9.82042e+57
          1359.95300	         1.08643e+58
          1360.75930	         1.12221e+58
          1361.56560	         1.03717e+58
          1362.37190	         1.22610e+58
          1363.17820	         1.22065e+58
          1363.98450	         1.25010e+58
          1364.79080	         1.10563e+58
          1365.59710	         1.09149e+58
          1366.40340	         1.19696e+58
          1367.20970	         1.05371e+58
          1368.01600	         1.05111e+58
          1368.82230	         9.76251e+57
          1369.62860	         1.00472e+58
          1370.43490	         9.46374e+57
          1371.24120	         9.05208e+57
          1372.04750	         8.66192e+57
          1372.85380	         1.14514e+58
          1373.66010	         1.09901e+58
          1374.46640	         1.04158e+58
          1375.27270	         1.09883e+58
          1376.07900	         1.04012e+58
          1376.88530	         8.82958e+57
          1377.69160	         8.35292e+57
          1378.49790	         7.19137e+57
          1379.30420	         7.62164e+57
          1380.11050	         8.88270e+57
          1380.91680	         8.17477e+57
          1381.72310	         8.34679e+57
          1382.52940	         9.30997e+57
          1383.33570	         8.52734e+57
          1384.14200	         8.28546e+57
          1384.94830	         8.76822e+57
          1385.75460	         9.88127e+57
          1386.56090	         1.10122e+58
          1387.36720	         1.05831e+58
          1388.17350	         1.29936e+58
          1388.97980	         1.06956e+58
          1389.78610	         8.92604e+57
          1390.59240	         8.11811e+57
          1391.39870	         5.78303e+57
          1392.20500	         7.12656e+57
          1393.01130	         7.77558e+57
          1393.81760	         8.08764e+57
          1394.62390	         7.76976e+57
          1395.43020	         6.53424e+57
          1396.23650	         6.75102e+57
          1397.04280	         6.17790e+57
          1397.84910	         8.13364e+57
          1398.65540	         9.47134e+57
          1399.46170	         1.01780e+58
          1400.26800	         8.24093e+57
          1401.07430	         6.74880e+57
          1401.88060	         7.77401e+57
          1402.68690	         9.49425e+57
          1403.49320	         9.38001e+57
          1404.29950	         8.01961e+57
          1405.10580	         1.00703e+58
          1405.91210	         1.15911e+58
          1406.71840	         9.92283e+57
          1407.52470	         9.66673e+57
          1408.33100	         1.04379e+58
          1409.13730	         1.17382e+58
          1409.94360	         1.23032e+58
          1410.74990	         1.27983e+58
          1411.55620	         1.15324e+58
          1412.36250	         9.12360e+57
          1413.16880	         9.17529e+57
          1413.97510	         8.99595e+57
          1414.78140	         8.67995e+57
          1415.58770	         1.02344e+58
          1416.39400	         1.05110e+58
          1417.20030	         1.00155e+58
          1418.00660	         9.42359e+57
          1418.81290	         1.14336e+58
          1419.61920	         1.13283e+58
          1420.42550	         1.15135e+58
          1421.23180	         1.38312e+58
          1422.03810	         1.45141e+58
          1422.84440	         1.23156e+58
          1423.65070	         1.07864e+58
          1424.45700	         1.07994e+58
          1425.26330	         8.35788e+57
          1426.06960	         8.93645e+57
          1426.87590	         1.03240e+58
          1427.68220	         9.46237e+57
          1428.48850	         1.04080e+58
          1429.29480	         1.05587e+58
          1430.10110	         9.29491e+57
          1430.90740	         9.14999e+57
          1431.71370	         9.42229e+57
          1432.52000	         9.00449e+57
          1433.32630	         7.44397e+57
          1434.13260	         7.00936e+57
          1434.93890	         6.74715e+57
          1435.74520	         7.83855e+57
          1436.55150	         8.29320e+57
          1437.35780	         8.03236e+57
          1438.16410	         9.45423e+57
          1438.97040	         9.64890e+57
          1439.77670	         9.57013e+57
          1440.58300	         9.81381e+57
          1441.38930	         9.70562e+57
          1442.19560	         9.53388e+57
          1443.00190	         8.87996e+57
          1443.80820	         1.12153e+58
          1444.61450	         9.69837e+57
          1445.42080	         7.43006e+57
          1446.22710	         9.79773e+57
          1447.03340	         8.95191e+57
          1447.83970	         9.70096e+57
          1448.64600	         1.05431e+58
          1449.45230	         9.88899e+57
          1450.25860	         8.66041e+57
          1451.06490	         7.60628e+57
          1451.87120	         7.22486e+57
          1452.67750	         7.05340e+57
          1453.48380	         8.08742e+57
          1454.29010	         7.62207e+57
          1455.09640	         6.94450e+57
          1455.90270	         8.76829e+57
          1456.70900	         9.12553e+57
          1457.51530	         1.02674e+58
          1458.32160	         1.22303e+58
          1459.12790	         1.08585e+58
          1459.93420	         9.17635e+57
          1460.74050	         7.06997e+57
          1461.54680	         8.36247e+57
          1462.35310	         8.20950e+57
          1463.15940	         8.19665e+57
          1463.96570	         1.10110e+58
          1464.77200	         1.20118e+58
          1465.57830	         1.08084e+58
          1466.38460	         9.23146e+57
          1467.19090	         8.03257e+57
          1467.99720	         8.98029e+57
          1468.80350	         8.91224e+57
          1469.60980	         9.21034e+57
          1470.41610	         1.04871e+58
          1471.22240	         9.94261e+57
          1472.02870	         9.60157e+57
          1472.83500	         1.03126e+58
          1473.64130	         1.03844e+58
          1474.44760	         9.15077e+57
          1475.25390	         9.17178e+57
          1476.06020	         8.66726e+57
          1476.86650	         9.14793e+57
          1477.67280	         8.44669e+57
          1478.47910	         7.15627e+57
          1479.28540	         7.11515e+57
          1480.09170	         7.50325e+57
          1480.89800	         8.25327e+57
          1481.70430	         9.60310e+57
          1482.51060	         9.17083e+57
          1483.31690	         7.66693e+57
          1484.12320	         7.12068e+57
          1484.92950	         7.43923e+57
          1485.73580	         8.26198e+57
          1486.54210	         9.13621e+57
          1487.34840	         8.67590e+57
          1488.15470	         7.57245e+57
          1488.96100	         9.17155e+57
          1489.76730	         8.79572e+57
