#sample_314_stacked_spectrum_rest_UV-bands_median_H-alpha_noDC.txt
#median Lum: 1.69237e+42
#Rest-frame wavelength (A) | Luminosity (erg/s/A)
#
          1110.00000	         0.00000e+00
          1110.80630	        -1.50595e+59
          1111.61260	         7.68934e+57
          1112.41890	         1.21179e+59
          1113.22520	        -5.54099e+58
          1114.03150	         3.15799e+58
          1114.83780	         1.84520e+59
          1115.64410	         1.90154e+59
          1116.45040	         1.87718e+59
          1117.25670	         5.09911e+58
          1118.06300	         8.88924e+58
          1118.86930	         4.40663e+56
          1119.67560	         1.00324e+59
          1120.48190	         1.22188e+58
          1121.28820	        -2.01506e+59
          1122.09450	        -3.99712e+58
          1122.90080	        -5.24377e+58
          1123.70710	         1.25460e+58
          1124.51340	         1.17508e+59
          1125.31970	         2.43563e+58
          1126.12600	        -1.24824e+58
          1126.93230	        -1.16263e+57
          1127.73860	        -2.21085e+58
          1128.54490	         5.20218e+58
          1129.35120	         3.75074e+58
          1130.15750	         1.22337e+58
          1130.96380	        -3.46032e+58
          1131.77010	         2.31813e+58
          1132.57640	         5.34856e+58
          1133.38270	         4.09853e+58
          1134.18900	         2.65940e+58
          1134.99530	        -9.31524e+57
          1135.80160	         6.49527e+57
          1136.60790	         2.91590e+58
          1137.41420	         2.23678e+57
          1138.22050	         4.45917e+58
          1139.02680	         1.75278e+58
          1139.83310	         1.09023e+58
          1140.63940	         1.82090e+58
          1141.44570	         1.65753e+57
          1142.25200	        -1.09750e+58
          1143.05830	         7.37983e+57
          1143.86460	         3.67650e+58
          1144.67090	         3.16973e+58
          1145.47720	         2.20962e+58
          1146.28350	         1.96397e+58
          1147.08980	         1.15513e+58
          1147.89610	         1.49273e+58
          1148.70240	         2.74684e+58
          1149.50870	         2.00701e+58
          1150.31500	         1.33838e+58
          1151.12130	         3.63044e+57
          1151.92760	        -3.24990e+57
          1152.73390	         1.39537e+58
          1153.54020	         1.86383e+58
          1154.34650	         1.61143e+58
          1155.15280	         1.35105e+58
          1155.95910	         1.61675e+58
          1156.76540	         2.15995e+58
          1157.57170	         1.30100e+58
          1158.37800	        -6.52789e+57
          1159.18430	        -6.83720e+57
          1159.99060	         6.89501e+57
          1160.79690	         4.09232e+57
          1161.60320	         1.17433e+58
          1162.40950	         2.08959e+58
          1163.21580	         3.00709e+58
          1164.02210	         1.51883e+58
          1164.82840	         8.64526e+57
          1165.63470	         1.85826e+58
          1166.44100	         2.96630e+58
          1167.24730	         1.56589e+58
          1168.05360	         3.80463e+57
          1168.85990	         5.94147e+57
          1169.66620	         1.34760e+58
          1170.47250	         1.04332e+58
          1171.27880	         9.18981e+57
          1172.08510	         1.47786e+58
          1172.89140	         2.13206e+58
          1173.69770	         6.38542e+57
          1174.50400	         1.20640e+58
          1175.31030	         1.68044e+58
          1176.11660	         2.01089e+58
          1176.92290	         2.10769e+58
          1177.72920	         1.27198e+58
          1178.53550	         7.25145e+57
          1179.34180	         1.12347e+58
          1180.14810	         1.19614e+58
          1180.95440	         8.28858e+57
          1181.76070	         9.27936e+57
          1182.56700	         9.07084e+57
          1183.37330	         6.52203e+57
          1184.17960	         5.98724e+57
          1184.98590	         4.94579e+57
          1185.79220	         2.42086e+57
          1186.59850	         1.13496e+58
          1187.40480	         1.60811e+58
          1188.21110	         1.36436e+58
          1189.01740	         1.11892e+58
          1189.82370	         1.33270e+58
          1190.63000	         1.36921e+58
          1191.43630	         1.34671e+58
          1192.24260	         7.05534e+57
          1193.04890	         1.14441e+58
          1193.85520	         9.84863e+57
          1194.66150	         5.39721e+57
          1195.46780	         1.46191e+58
          1196.27410	         1.45228e+58
          1197.08040	         9.55663e+57
          1197.88670	         1.43200e+58
          1198.69300	         1.86472e+58
          1199.49930	         1.59627e+58
          1200.30560	         1.00411e+58
          1201.11190	         1.09335e+58
          1201.91820	         7.33053e+57
          1202.72450	         4.31094e+57
          1203.53080	         1.21802e+58
          1204.33710	         9.37077e+57
          1205.14340	         3.92383e+57
          1205.94970	         8.21799e+57
          1206.75600	         9.39599e+57
          1207.56230	         7.54394e+57
          1208.36860	         8.65523e+57
          1209.17490	         5.36306e+57
          1209.98120	         4.48422e+57
          1210.78750	         7.10479e+57
          1211.59380	         1.18622e+58
          1212.40010	         1.65570e+58
          1213.20640	         1.58525e+58
          1214.01270	         1.46891e+58
          1214.81900	         2.19319e+58
          1215.62530	         4.33610e+58
          1216.43160	         8.91332e+58
          1217.23790	         1.52266e+59
          1218.04420	         1.14767e+59
          1218.85050	         8.59013e+58
          1219.65680	         5.53000e+58
          1220.46310	         3.25446e+58
          1221.26940	         2.29064e+58
          1222.07570	         1.39904e+58
          1222.88200	         1.37804e+58
          1223.68830	         1.27664e+58
          1224.49460	         7.13241e+57
          1225.30090	         6.60260e+57
          1226.10720	         6.08293e+57
          1226.91350	         6.57384e+57
          1227.71980	         8.44955e+57
          1228.52610	         1.29420e+58
          1229.33240	         8.37470e+57
          1230.13870	         8.13516e+57
          1230.94500	         7.30797e+57
          1231.75130	         7.58045e+57
          1232.55760	         9.33127e+57
          1233.36390	         8.97530e+57
          1234.17020	         7.78488e+57
          1234.97650	         7.38240e+57
          1235.78280	         7.43920e+57
          1236.58910	         1.04920e+58
          1237.39540	         1.14549e+58
          1238.20170	         9.79406e+57
          1239.00800	         1.04089e+58
          1239.81430	         1.47664e+58
          1240.62060	         1.17073e+58
          1241.42690	         6.20724e+57
          1242.23320	         8.29013e+57
          1243.03950	         9.52661e+57
          1243.84580	         8.64447e+57
          1244.65210	         8.93849e+57
          1245.45840	         9.97618e+57
          1246.26470	         1.12109e+58
          1247.07100	         8.13125e+57
          1247.87730	         6.11947e+57
          1248.68360	         5.38531e+57
          1249.48990	         7.54509e+57
          1250.29620	         1.07353e+58
          1251.10250	         8.77433e+57
          1251.90880	         5.95803e+57
          1252.71510	         6.54145e+57
          1253.52140	         8.16003e+57
          1254.32770	         1.10403e+58
          1255.13400	         1.33404e+58
          1255.94030	         1.20869e+58
          1256.74660	         1.12924e+58
          1257.55290	         1.03388e+58
          1258.35920	         8.38491e+57
          1259.16550	         5.80677e+57
          1259.97180	         4.30541e+57
          1260.77810	         8.27712e+57
          1261.58440	         9.93683e+57
          1262.39070	         6.18581e+57
          1263.19700	         7.07632e+57
          1264.00330	         1.01290e+58
          1264.80960	         1.22292e+58
          1265.61590	         1.25127e+58
          1266.42220	         1.27328e+58
          1267.22850	         9.97401e+57
          1268.03480	         1.39014e+58
          1268.84110	         1.43077e+58
          1269.64740	         1.27181e+58
          1270.45370	         1.49690e+58
          1271.26000	         1.02668e+58
          1272.06630	         1.04987e+58
          1272.87260	         1.34663e+58
          1273.67890	         1.28156e+58
          1274.48520	         1.49323e+58
          1275.29150	         1.32538e+58
          1276.09780	         1.09201e+58
          1276.90410	         1.38044e+58
          1277.71040	         1.13489e+58
          1278.51670	         1.15428e+58
          1279.32300	         1.39642e+58
          1280.12930	         1.21496e+58
          1280.93560	         1.01937e+58
          1281.74190	         1.02244e+58
          1282.54820	         1.12515e+58
          1283.35450	         1.22223e+58
          1284.16080	         1.21285e+58
          1284.96710	         1.08497e+58
          1285.77340	         9.44285e+57
          1286.57970	         1.08967e+58
          1287.38600	         1.36574e+58
          1288.19230	         1.83324e+58
          1288.99860	         1.50760e+58
          1289.80490	         1.00006e+58
          1290.61120	         1.09314e+58
          1291.41750	         1.13702e+58
          1292.22380	         1.11580e+58
          1293.03010	         1.17481e+58
          1293.83640	         1.12531e+58
          1294.64270	         9.00451e+57
          1295.44900	         6.57296e+57
          1296.25530	         6.22630e+57
          1297.06160	         8.85069e+57
          1297.86790	         1.09945e+58
          1298.67420	         1.03636e+58
          1299.48050	         1.12280e+58
          1300.28680	         1.28798e+58
          1301.09310	         8.61988e+57
          1301.89940	         4.34240e+57
          1302.70570	         6.30039e+57
          1303.51200	         7.47229e+57
          1304.31830	         8.85532e+57
          1305.12460	         9.82866e+57
          1305.93090	         1.06637e+58
          1306.73720	         1.29039e+58
          1307.54350	         1.52639e+58
          1308.34980	         1.54258e+58
          1309.15610	         1.47027e+58
          1309.96240	         1.56533e+58
          1310.76870	         1.42341e+58
          1311.57500	         1.10826e+58
          1312.38130	         9.91874e+57
          1313.18760	         1.21886e+58
          1313.99390	         1.53061e+58
          1314.80020	         1.77975e+58
          1315.60650	         1.66430e+58
          1316.41280	         1.24787e+58
          1317.21910	         1.10351e+58
          1318.02540	         1.12689e+58
          1318.83170	         1.24849e+58
          1319.63800	         1.22087e+58
          1320.44430	         1.21952e+58
          1321.25060	         1.27602e+58
          1322.05690	         1.15047e+58
          1322.86320	         1.13731e+58
          1323.66950	         9.61208e+57
          1324.47580	         8.83162e+57
          1325.28210	         1.09077e+58
          1326.08840	         1.26754e+58
          1326.89470	         1.22620e+58
          1327.70100	         8.70303e+57
          1328.50730	         6.78065e+57
          1329.31360	         8.72397e+57
          1330.11990	         1.03253e+58
          1330.92620	         8.42925e+57
          1331.73250	         9.48057e+57
          1332.53880	         1.04911e+58
          1333.34510	         9.55570e+57
          1334.15140	         9.25043e+57
          1334.95770	         8.49916e+57
          1335.76400	         1.00287e+58
          1336.57030	         1.12341e+58
          1337.37660	         1.14239e+58
          1338.18290	         1.11977e+58
          1338.98920	         1.10138e+58
          1339.79550	         1.17275e+58
          1340.60180	         1.34030e+58
          1341.40810	         1.37757e+58
          1342.21440	         1.18467e+58
          1343.02070	         1.20968e+58
          1343.82700	         1.30508e+58
          1344.63330	         1.14252e+58
          1345.43960	         1.30395e+58
          1346.24590	         1.17613e+58
          1347.05220	         1.24950e+58
          1347.85850	         1.13505e+58
          1348.66480	         1.14864e+58
          1349.47110	         1.23213e+58
          1350.27740	         1.17911e+58
          1351.08370	         1.11683e+58
          1351.89000	         1.08116e+58
          1352.69630	         1.19855e+58
          1353.50260	         1.23188e+58
          1354.30890	         1.22496e+58
          1355.11520	         1.21113e+58
          1355.92150	         1.12830e+58
          1356.72780	         1.03710e+58
          1357.53410	         1.04797e+58
          1358.34040	         1.01024e+58
          1359.14670	         9.33521e+57
          1359.95300	         1.12680e+58
          1360.75930	         1.20995e+58
          1361.56560	         1.08421e+58
          1362.37190	         1.20856e+58
          1363.17820	         1.10075e+58
          1363.98450	         1.16728e+58
          1364.79080	         1.46516e+58
          1365.59710	         1.43925e+58
          1366.40340	         1.28093e+58
          1367.20970	         1.02598e+58
          1368.01600	         9.64513e+57
          1368.82230	         1.02383e+58
          1369.62860	         1.15296e+58
          1370.43490	         1.06592e+58
          1371.24120	         9.67598e+57
          1372.04750	         9.02411e+57
          1372.85380	         1.03964e+58
          1373.66010	         1.07725e+58
          1374.46640	         1.13239e+58
          1375.27270	         1.08441e+58
          1376.07900	         8.68523e+57
          1376.88530	         8.48121e+57
          1377.69160	         8.15006e+57
          1378.49790	         7.56817e+57
          1379.30420	         7.55233e+57
          1380.11050	         9.12637e+57
          1380.91680	         9.28352e+57
          1381.72310	         9.02412e+57
          1382.52940	         8.32845e+57
          1383.33570	         7.64635e+57
          1384.14200	         1.00320e+58
          1384.94830	         1.09425e+58
          1385.75460	         1.02541e+58
          1386.56090	         1.11798e+58
          1387.36720	         1.03568e+58
          1388.17350	         1.11411e+58
          1388.97980	         1.05445e+58
          1389.78610	         1.10838e+58
          1390.59240	         1.01106e+58
          1391.39870	         7.93635e+57
          1392.20500	         8.08484e+57
          1393.01130	         8.20881e+57
          1393.81760	         7.17402e+57
          1394.62390	         6.87343e+57
          1395.43020	         5.99920e+57
          1396.23650	         7.08497e+57
          1397.04280	         8.19600e+57
          1397.84910	         7.99401e+57
          1398.65540	         8.46488e+57
          1399.46170	         8.84216e+57
          1400.26800	         7.44703e+57
          1401.07430	         7.98691e+57
          1401.88060	         8.66959e+57
          1402.68690	         9.63529e+57
          1403.49320	         9.21452e+57
          1404.29950	         8.93182e+57
          1405.10580	         9.49633e+57
          1405.91210	         1.10076e+58
          1406.71840	         1.06546e+58
          1407.52470	         1.05431e+58
          1408.33100	         1.02999e+58
          1409.13730	         1.17994e+58
          1409.94360	         1.28513e+58
          1410.74990	         1.16001e+58
          1411.55620	         1.02250e+58
          1412.36250	         8.84871e+57
          1413.16880	         9.11210e+57
          1413.97510	         9.25793e+57
          1414.78140	         1.06388e+58
          1415.58770	         1.07715e+58
          1416.39400	         1.00167e+58
          1417.20030	         1.07700e+58
          1418.00660	         1.03695e+58
          1418.81290	         9.20311e+57
          1419.61920	         9.88003e+57
          1420.42550	         1.21773e+58
          1421.23180	         1.38326e+58
          1422.03810	         1.20302e+58
          1422.84440	         1.18148e+58
          1423.65070	         1.33091e+58
          1424.45700	         1.11464e+58
          1425.26330	         8.88833e+57
          1426.06960	         9.23399e+57
          1426.87590	         9.59080e+57
          1427.68220	         9.77648e+57
          1428.48850	         1.01118e+58
          1429.29480	         9.42584e+57
          1430.10110	         1.00314e+58
          1430.90740	         9.85393e+57
          1431.71370	         9.42171e+57
          1432.52000	         8.52452e+57
          1433.32630	         7.17919e+57
          1434.13260	         8.04879e+57
          1434.93890	         8.48238e+57
          1435.74520	         8.93072e+57
          1436.55150	         8.96594e+57
          1437.35780	         9.32622e+57
          1438.16410	         9.57993e+57
          1438.97040	         8.46381e+57
          1439.77670	         8.76224e+57
          1440.58300	         9.37284e+57
          1441.38930	         1.01135e+58
          1442.19560	         1.03498e+58
          1443.00190	         9.94618e+57
          1443.80820	         1.02040e+58
          1444.61450	         9.73211e+57
          1445.42080	         8.59533e+57
          1446.22710	         9.61985e+57
          1447.03340	         9.74479e+57
          1447.83970	         1.05047e+58
          1448.64600	         1.00099e+58
          1449.45230	         8.97641e+57
          1450.25860	         1.00565e+58
          1451.06490	         8.84132e+57
          1451.87120	         7.45441e+57
          1452.67750	         8.22386e+57
          1453.48380	         9.48530e+57
          1454.29010	         8.56090e+57
          1455.09640	         7.84307e+57
          1455.90270	         9.05313e+57
          1456.70900	         8.40406e+57
          1457.51530	         9.71736e+57
          1458.32160	         1.25571e+58
          1459.12790	         1.22147e+58
          1459.93420	         9.72808e+57
          1460.74050	         7.77011e+57
          1461.54680	         8.84103e+57
          1462.35310	         8.83538e+57
          1463.15940	         9.40369e+57
          1463.96570	         1.03967e+58
          1464.77200	         1.06976e+58
          1465.57830	         1.07293e+58
          1466.38460	         9.77467e+57
          1467.19090	         8.12373e+57
          1467.99720	         8.25058e+57
          1468.80350	         9.75693e+57
          1469.60980	         1.07516e+58
          1470.41610	         1.09177e+58
          1471.22240	         9.76824e+57
          1472.02870	         9.73424e+57
          1472.83500	         8.90405e+57
          1473.64130	         9.35941e+57
          1474.44760	         1.02560e+58
          1475.25390	         8.79396e+57
          1476.06020	         7.61273e+57
          1476.86650	         8.16110e+57
          1477.67280	         7.11353e+57
          1478.47910	         6.19316e+57
          1479.28540	         7.02506e+57
          1480.09170	         8.32267e+57
          1480.89800	         8.69340e+57
          1481.70430	         8.60136e+57
          1482.51060	         7.29311e+57
          1483.31690	         6.74304e+57
          1484.12320	         8.37945e+57
          1484.92950	         7.78926e+57
          1485.73580	         7.27406e+57
          1486.54210	         8.14201e+57
          1487.34840	         8.45277e+57
          1488.15470	         8.48482e+57
          1488.96100	         8.23266e+57
          1489.76730	         8.10481e+57
