#sample_396_stacked_spectrum_rest_UV-bands_median_H-alpha_noDC.txt
#median Lum: 1.73142e+42
#Rest-frame wavelength (A) | Luminosity (erg/s/A)
#
          1110.00000	         0.00000e+00
          1110.80630	        -4.22125e+59
          1111.61260	        -1.75461e+59
          1112.41890	         2.81472e+59
          1113.22520	        -1.85726e+58
          1114.03150	        -1.75250e+59
          1114.83780	        -5.38254e+58
          1115.64410	         4.26425e+58
          1116.45040	        -3.57513e+58
          1117.25670	        -5.59537e+58
          1118.06300	         1.79389e+59
          1118.86930	        -4.09677e+58
          1119.67560	         1.49806e+59
          1120.48190	         3.96745e+58
          1121.28820	        -8.16662e+58
          1122.09450	         5.19425e+58
          1122.90080	         3.65337e+58
          1123.70710	        -3.43224e+58
          1124.51340	         2.31839e+58
          1125.31970	         4.09684e+57
          1126.12600	        -1.73742e+58
          1126.93230	        -4.24495e+58
          1127.73860	        -5.90689e+58
          1128.54490	        -1.29597e+58
          1129.35120	         1.21833e+58
          1130.15750	        -2.69947e+58
          1130.96380	         2.04605e+57
          1131.77010	         5.17736e+58
          1132.57640	         6.50145e+58
          1133.38270	         4.71089e+58
          1134.18900	         3.65474e+58
          1134.99530	        -7.84079e+57
          1135.80160	         3.57881e+58
          1136.60790	         2.25098e+57
          1137.41420	        -1.29217e+58
          1138.22050	         3.97296e+58
          1139.02680	         3.67309e+58
          1139.83310	         1.87601e+58
          1140.63940	         1.70304e+58
          1141.44570	        -1.43810e+58
          1142.25200	        -1.97151e+57
          1143.05830	         8.10196e+57
          1143.86460	         2.58673e+58
          1144.67090	         8.05996e+56
          1145.47720	         7.43732e+57
          1146.28350	         2.01910e+58
          1147.08980	         9.83605e+57
          1147.89610	         1.35049e+58
          1148.70240	         1.59414e+58
          1149.50870	         1.02216e+58
          1150.31500	         2.14293e+58
          1151.12130	         1.90621e+58
          1151.92760	         1.68833e+58
          1152.73390	        -1.53502e+57
          1153.54020	        -3.35986e+57
          1154.34650	         1.97785e+58
          1155.15280	         1.01424e+58
          1155.95910	         1.04399e+58
          1156.76540	         1.50609e+58
          1157.57170	         1.67397e+57
          1158.37800	         4.13122e+57
          1159.18430	        -2.30317e+57
          1159.99060	         6.74871e+57
          1160.79690	         4.20283e+57
          1161.60320	         7.57945e+57
          1162.40950	         1.25625e+58
          1163.21580	         1.64880e+58
          1164.02210	         8.14521e+57
          1164.82840	         9.96819e+57
          1165.63470	         1.94091e+58
          1166.44100	         2.89481e+58
          1167.24730	         1.33131e+58
          1168.05360	         3.00291e+57
          1168.85990	         3.86815e+57
          1169.66620	         2.87514e+57
          1170.47250	         5.15905e+57
          1171.27880	         1.11809e+58
          1172.08510	         1.82791e+58
          1172.89140	         1.31907e+58
          1173.69770	         8.26689e+57
          1174.50400	         1.02157e+58
          1175.31030	         2.11193e+58
          1176.11660	         2.28399e+58
          1176.92290	         1.74089e+58
          1177.72920	         1.07446e+58
          1178.53550	         1.09488e+58
          1179.34180	         8.30038e+57
          1180.14810	         6.62656e+57
          1180.95440	         1.40884e+58
          1181.76070	         1.25616e+58
          1182.56700	         1.06299e+58
          1183.37330	         4.05531e+57
          1184.17960	         8.68785e+57
          1184.98590	         1.16657e+58
          1185.79220	         7.59099e+57
          1186.59850	         1.11541e+58
          1187.40480	         1.66622e+58
          1188.21110	         1.60700e+58
          1189.01740	         1.02487e+58
          1189.82370	         1.40746e+58
          1190.63000	         1.33217e+58
          1191.43630	         1.26201e+58
          1192.24260	         1.25446e+58
          1193.04890	         1.49727e+58
          1193.85520	         1.46559e+58
          1194.66150	         4.11787e+57
          1195.46780	         1.49431e+58
          1196.27410	         1.51535e+58
          1197.08040	         6.07493e+57
          1197.88670	         1.62527e+58
          1198.69300	         1.79086e+58
          1199.49930	         1.85703e+58
          1200.30560	         1.28210e+58
          1201.11190	         6.34346e+57
          1201.91820	         1.04868e+58
          1202.72450	         8.67713e+57
          1203.53080	         1.49672e+58
          1204.33710	         1.02061e+58
          1205.14340	         1.06439e+58
          1205.94970	         7.29930e+57
          1206.75600	         8.03556e+57
          1207.56230	         6.30550e+57
          1208.36860	         1.00684e+58
          1209.17490	         4.21905e+57
          1209.98120	         5.83874e+57
          1210.78750	         5.03574e+57
          1211.59380	         7.80969e+57
          1212.40010	         1.95965e+58
          1213.20640	         1.79389e+58
          1214.01270	         1.64205e+58
          1214.81900	         2.19322e+58
          1215.62530	         4.44328e+58
          1216.43160	         9.12107e+58
          1217.23790	         1.48837e+59
          1218.04420	         1.19476e+59
          1218.85050	         9.02470e+58
          1219.65680	         5.66352e+58
          1220.46310	         3.42232e+58
          1221.26940	         2.51625e+58
          1222.07570	         1.42711e+58
          1222.88200	         1.52341e+58
          1223.68830	         1.20112e+58
          1224.49460	         8.48235e+57
          1225.30090	         5.15861e+57
          1226.10720	         6.73418e+57
          1226.91350	         7.46043e+57
          1227.71980	         9.46484e+57
          1228.52610	         1.23024e+58
          1229.33240	         1.01286e+58
          1230.13870	         7.63712e+57
          1230.94500	         7.00970e+57
          1231.75130	         3.34384e+57
          1232.55760	         8.82222e+57
          1233.36390	         1.03246e+58
          1234.17020	         8.49652e+57
          1234.97650	         7.99764e+57
          1235.78280	         9.75830e+57
          1236.58910	         8.40241e+57
          1237.39540	         8.56729e+57
          1238.20170	         1.22201e+58
          1239.00800	         1.51936e+58
          1239.81430	         1.57971e+58
          1240.62060	         1.29431e+58
          1241.42690	         1.07123e+58
          1242.23320	         1.16166e+58
          1243.03950	         9.59990e+57
          1243.84580	         1.02383e+58
          1244.65210	         1.17913e+58
          1245.45840	         8.49782e+57
          1246.26470	         9.07663e+57
          1247.07100	         9.91955e+57
          1247.87730	         6.93671e+57
          1248.68360	         7.92195e+57
          1249.48990	         1.12904e+58
          1250.29620	         1.12370e+58
          1251.10250	         7.28006e+57
          1251.90880	         6.13081e+57
          1252.71510	         5.46413e+57
          1253.52140	         6.17779e+57
          1254.32770	         9.24491e+57
          1255.13400	         1.41217e+58
          1255.94030	         1.21938e+58
          1256.74660	         1.19749e+58
          1257.55290	         1.30570e+58
          1258.35920	         8.45420e+57
          1259.16550	         4.60035e+57
          1259.97180	         5.35006e+57
          1260.77810	         8.02137e+57
          1261.58440	         9.39043e+57
          1262.39070	         6.84172e+57
          1263.19700	         6.48418e+57
          1264.00330	         9.10000e+57
          1264.80960	         9.33037e+57
          1265.61590	         1.15294e+58
          1266.42220	         1.32331e+58
          1267.22850	         1.12773e+58
          1268.03480	         1.29782e+58
          1268.84110	         1.55064e+58
          1269.64740	         1.51365e+58
          1270.45370	         1.53508e+58
          1271.26000	         1.23012e+58
          1272.06630	         1.22436e+58
          1272.87260	         1.40569e+58
          1273.67890	         1.44184e+58
          1274.48520	         1.29550e+58
          1275.29150	         1.30325e+58
          1276.09780	         1.24881e+58
          1276.90410	         1.41173e+58
          1277.71040	         1.28245e+58
          1278.51670	         1.26818e+58
          1279.32300	         1.42071e+58
          1280.12930	         1.21205e+58
          1280.93560	         1.06299e+58
          1281.74190	         1.21277e+58
          1282.54820	         1.31678e+58
          1283.35450	         8.97057e+57
          1284.16080	         8.64923e+57
          1284.96710	         1.13820e+58
          1285.77340	         1.16916e+58
          1286.57970	         9.58434e+57
          1287.38600	         1.45587e+58
          1288.19230	         1.95191e+58
          1288.99860	         1.77175e+58
          1289.80490	         1.39581e+58
          1290.61120	         1.31826e+58
          1291.41750	         1.47792e+58
          1292.22380	         1.25853e+58
          1293.03010	         1.24686e+58
          1293.83640	         1.34401e+58
          1294.64270	         1.08060e+58
          1295.44900	         6.30621e+57
          1296.25530	         6.66153e+57
          1297.06160	         9.16573e+57
          1297.86790	         1.05123e+58
          1298.67420	         1.09947e+58
          1299.48050	         1.06193e+58
          1300.28680	         1.01553e+58
          1301.09310	         8.98757e+57
          1301.89940	         5.50593e+57
          1302.70570	         6.06423e+57
          1303.51200	         6.72156e+57
          1304.31830	         9.82554e+57
          1305.12460	         1.14110e+58
          1305.93090	         9.96532e+57
          1306.73720	         1.12063e+58
          1307.54350	         1.34729e+58
          1308.34980	         1.65483e+58
          1309.15610	         1.82304e+58
          1309.96240	         1.68671e+58
          1310.76870	         1.49951e+58
          1311.57500	         1.20762e+58
          1312.38130	         1.23592e+58
          1313.18760	         1.36643e+58
          1313.99390	         1.49280e+58
          1314.80020	         1.60523e+58
          1315.60650	         1.74610e+58
          1316.41280	         1.18769e+58
          1317.21910	         9.63930e+57
          1318.02540	         1.23437e+58
          1318.83170	         1.45247e+58
          1319.63800	         1.23113e+58
          1320.44430	         1.14573e+58
          1321.25060	         1.31530e+58
          1322.05690	         1.35633e+58
          1322.86320	         1.37633e+58
          1323.66950	         1.20561e+58
          1324.47580	         8.55460e+57
          1325.28210	         8.85213e+57
          1326.08840	         1.05903e+58
          1326.89470	         1.19364e+58
          1327.70100	         1.12117e+58
          1328.50730	         1.02422e+58
          1329.31360	         1.04333e+58
          1330.11990	         1.07087e+58
          1330.92620	         9.83266e+57
          1331.73250	         1.17403e+58
          1332.53880	         1.10577e+58
          1333.34510	         1.01995e+58
          1334.15140	         9.65869e+57
          1334.95770	         8.56858e+57
          1335.76400	         9.87200e+57
          1336.57030	         1.08143e+58
          1337.37660	         1.06452e+58
          1338.18290	         1.15230e+58
          1338.98920	         1.15862e+58
          1339.79550	         1.07126e+58
          1340.60180	         1.24524e+58
          1341.40810	         1.53144e+58
          1342.21440	         1.33938e+58
          1343.02070	         1.19230e+58
          1343.82700	         1.36059e+58
          1344.63330	         1.26861e+58
          1345.43960	         1.24553e+58
          1346.24590	         1.27939e+58
          1347.05220	         1.16984e+58
          1347.85850	         9.73145e+57
          1348.66480	         1.24185e+58
          1349.47110	         1.34951e+58
          1350.27740	         1.20400e+58
          1351.08370	         1.20313e+58
          1351.89000	         1.22242e+58
          1352.69630	         1.22260e+58
          1353.50260	         1.28454e+58
          1354.30890	         1.30444e+58
          1355.11520	         1.37232e+58
          1355.92150	         1.14000e+58
          1356.72780	         1.00324e+58
          1357.53410	         1.06975e+58
          1358.34040	         1.05701e+58
          1359.14670	         1.00072e+58
          1359.95300	         1.16744e+58
          1360.75930	         1.23549e+58
          1361.56560	         1.10730e+58
          1362.37190	         1.18734e+58
          1363.17820	         1.14413e+58
          1363.98450	         1.14967e+58
          1364.79080	         1.24343e+58
          1365.59710	         1.28172e+58
          1366.40340	         1.38077e+58
          1367.20970	         1.30373e+58
          1368.01600	         1.12497e+58
          1368.82230	         1.00692e+58
          1369.62860	         1.09234e+58
          1370.43490	         1.02857e+58
          1371.24120	         9.53051e+57
          1372.04750	         9.73220e+57
          1372.85380	         1.19898e+58
          1373.66010	         1.23665e+58
          1374.46640	         1.02419e+58
          1375.27270	         1.01690e+58
          1376.07900	         9.40582e+57
          1376.88530	         8.78389e+57
          1377.69160	         9.21647e+57
          1378.49790	         7.70970e+57
          1379.30420	         7.62670e+57
          1380.11050	         1.01267e+58
          1380.91680	         9.36664e+57
          1381.72310	         8.80542e+57
          1382.52940	         9.44430e+57
          1383.33570	         8.74327e+57
          1384.14200	         1.04175e+58
          1384.94830	         1.15288e+58
          1385.75460	         9.87958e+57
          1386.56090	         1.07075e+58
          1387.36720	         1.11396e+58
          1388.17350	         1.25298e+58
          1388.97980	         1.16253e+58
          1389.78610	         9.09132e+57
          1390.59240	         8.70752e+57
          1391.39870	         8.72041e+57
          1392.20500	         9.64843e+57
          1393.01130	         8.15234e+57
          1393.81760	         7.08344e+57
          1394.62390	         7.96786e+57
          1395.43020	         6.64576e+57
          1396.23650	         5.67705e+57
          1397.04280	         6.29477e+57
          1397.84910	         8.70961e+57
          1398.65540	         8.70752e+57
          1399.46170	         9.55530e+57
          1400.26800	         9.02333e+57
          1401.07430	         7.55232e+57
          1401.88060	         8.79627e+57
          1402.68690	         9.69924e+57
          1403.49320	         1.00459e+58
          1404.29950	         9.68351e+57
          1405.10580	         1.04057e+58
          1405.91210	         1.18817e+58
          1406.71840	         1.14200e+58
          1407.52470	         1.13404e+58
          1408.33100	         1.12182e+58
          1409.13730	         1.11738e+58
          1409.94360	         1.07716e+58
          1410.74990	         1.20883e+58
          1411.55620	         1.02257e+58
          1412.36250	         9.51277e+57
          1413.16880	         1.00807e+58
          1413.97510	         8.22673e+57
          1414.78140	         9.58110e+57
          1415.58770	         1.18929e+58
          1416.39400	         1.19409e+58
          1417.20030	         1.06414e+58
          1418.00660	         9.62812e+57
          1418.81290	         1.07199e+58
          1419.61920	         1.08575e+58
          1420.42550	         1.26982e+58
          1421.23180	         1.52136e+58
          1422.03810	         1.22922e+58
          1422.84440	         1.07480e+58
          1423.65070	         1.24291e+58
          1424.45700	         1.12928e+58
          1425.26330	         7.90420e+57
          1426.06960	         8.11369e+57
          1426.87590	         1.02809e+58
          1427.68220	         1.05640e+58
          1428.48850	         1.08844e+58
          1429.29480	         1.02248e+58
          1430.10110	         1.05721e+58
          1430.90740	         9.41507e+57
          1431.71370	         8.04109e+57
          1432.52000	         9.29705e+57
          1433.32630	         8.84158e+57
          1434.13260	         8.16060e+57
          1434.93890	         8.16536e+57
          1435.74520	         8.90367e+57
          1436.55150	         1.02003e+58
          1437.35780	         9.74295e+57
          1438.16410	         1.00215e+58
          1438.97040	         9.76413e+57
          1439.77670	         9.34799e+57
          1440.58300	         9.42680e+57
          1441.38930	         1.01289e+58
          1442.19560	         8.88447e+57
          1443.00190	         9.04107e+57
          1443.80820	         1.09989e+58
          1444.61450	         1.02541e+58
          1445.42080	         8.37372e+57
          1446.22710	         9.82220e+57
          1447.03340	         1.00087e+58
          1447.83970	         1.05369e+58
          1448.64600	         1.03081e+58
          1449.45230	         9.48224e+57
          1450.25860	         1.02273e+58
          1451.06490	         8.94063e+57
          1451.87120	         8.75996e+57
          1452.67750	         8.67788e+57
          1453.48380	         9.31579e+57
          1454.29010	         8.45956e+57
          1455.09640	         7.67199e+57
          1455.90270	         8.62714e+57
          1456.70900	         9.10300e+57
          1457.51530	         1.01930e+58
          1458.32160	         1.22843e+58
          1459.12790	         1.25844e+58
          1459.93420	         1.05865e+58
          1460.74050	         8.78793e+57
          1461.54680	         8.16504e+57
          1462.35310	         8.30783e+57
          1463.15940	         9.50475e+57
          1463.96570	         1.00571e+58
          1464.77200	         1.05819e+58
          1465.57830	         1.04341e+58
          1466.38460	         9.41039e+57
          1467.19090	         8.32859e+57
          1467.99720	         7.99540e+57
          1468.80350	         8.98730e+57
          1469.60980	         1.05386e+58
          1470.41610	         1.07187e+58
          1471.22240	         9.54803e+57
          1472.02870	         9.92345e+57
          1472.83500	         9.78371e+57
          1473.64130	         8.78269e+57
          1474.44760	         9.57286e+57
          1475.25390	         9.51539e+57
          1476.06020	         8.23027e+57
          1476.86650	         9.19206e+57
          1477.67280	         9.47466e+57
          1478.47910	         7.25102e+57
          1479.28540	         7.09173e+57
          1480.09170	         8.67370e+57
          1480.89800	         9.23307e+57
          1481.70430	         9.37179e+57
          1482.51060	         8.43481e+57
          1483.31690	         8.29129e+57
          1484.12320	         8.02698e+57
          1484.92950	         7.65153e+57
          1485.73580	         8.32062e+57
          1486.54210	         9.48456e+57
          1487.34840	         9.80066e+57
          1488.15470	         8.04576e+57
          1488.96100	         9.05385e+57
          1489.76730	         1.12955e+58
