#sample_328_stacked_spectrum_rest_UV-bands_median_H-alpha_noDC.txt
#median Lum: 1.67912e+42
#Rest-frame wavelength (A) | Luminosity (erg/s/A)
#
          1110.00000	         0.00000e+00
          1110.80630	        -2.90913e+59
          1111.61260	         8.37892e+58
          1112.41890	        -4.95534e+58
          1113.22520	        -2.82507e+58
          1114.03150	        -2.49186e+59
          1114.83780	        -3.36431e+57
          1115.64410	         1.47018e+58
          1116.45040	         8.66922e+58
          1117.25670	         2.07688e+58
          1118.06300	         2.08050e+59
          1118.86930	        -2.46922e+58
          1119.67560	         1.34283e+58
          1120.48190	         5.75780e+58
          1121.28820	        -1.19928e+59
          1122.09450	        -9.80434e+57
          1122.90080	         7.83186e+58
          1123.70710	         5.30277e+58
          1124.51340	         1.23359e+59
          1125.31970	        -2.68593e+58
          1126.12600	         1.84759e+58
          1126.93230	        -8.68386e+57
          1127.73860	        -5.33028e+58
          1128.54490	         5.65169e+57
          1129.35120	         2.49698e+58
          1130.15750	        -1.42030e+58
          1130.96380	        -2.23894e+58
          1131.77010	         4.83392e+58
          1132.57640	         2.56389e+58
          1133.38270	        -1.40997e+58
          1134.18900	         1.85142e+58
          1134.99530	        -7.44286e+57
          1135.80160	        -5.37466e+57
          1136.60790	         3.02116e+57
          1137.41420	        -2.96439e+58
          1138.22050	         3.55683e+58
          1139.02680	         3.62253e+58
          1139.83310	         2.72798e+58
          1140.63940	         2.84340e+58
          1141.44570	         4.62164e+57
          1142.25200	        -1.61629e+58
          1143.05830	         5.60271e+57
          1143.86460	         2.64858e+58
          1144.67090	         3.43082e+58
          1145.47720	         2.88432e+58
          1146.28350	         1.94444e+58
          1147.08980	         1.87953e+58
          1147.89610	         1.91287e+58
          1148.70240	         3.23922e+58
          1149.50870	         3.10596e+58
          1150.31500	         2.18113e+58
          1151.12130	         1.86858e+58
          1151.92760	         9.66867e+57
          1152.73390	         9.23101e+57
          1153.54020	         6.48393e+57
          1154.34650	         2.09864e+58
          1155.15280	         1.32826e+58
          1155.95910	         1.21486e+58
          1156.76540	         5.76784e+57
          1157.57170	        -6.17820e+57
          1158.37800	        -5.44312e+57
          1159.18430	        -7.96878e+57
          1159.99060	        -1.22074e+57
          1160.79690	         2.38665e+57
          1161.60320	         1.42838e+58
          1162.40950	         1.73315e+58
          1163.21580	         7.35937e+57
          1164.02210	         5.83467e+57
          1164.82840	         3.71331e+57
          1165.63470	         1.05867e+58
          1166.44100	         1.87126e+58
          1167.24730	         1.79723e+58
          1168.05360	         1.24492e+58
          1168.85990	         1.33039e+57
          1169.66620	         4.27506e+57
          1170.47250	         9.57716e+57
          1171.27880	         1.32361e+58
          1172.08510	         1.99175e+58
          1172.89140	         2.21259e+58
          1173.69770	         5.75234e+57
          1174.50400	         6.73445e+57
          1175.31030	         1.57443e+58
          1176.11660	         1.65872e+58
          1176.92290	         1.58917e+58
          1177.72920	         9.83416e+57
          1178.53550	         5.17981e+57
          1179.34180	         5.08959e+57
          1180.14810	         5.59647e+57
          1180.95440	         8.96280e+57
          1181.76070	         1.37661e+58
          1182.56700	         1.09329e+58
          1183.37330	         3.81937e+57
          1184.17960	         1.33775e+58
          1184.98590	         1.52132e+58
          1185.79220	         9.32652e+57
          1186.59850	         1.32813e+58
          1187.40480	         8.22108e+57
          1188.21110	         1.55389e+58
          1189.01740	         6.61202e+57
          1189.82370	         9.89073e+57
          1190.63000	         1.25683e+58
          1191.43630	         1.46166e+58
          1192.24260	         9.44393e+57
          1193.04890	         1.16402e+58
          1193.85520	         9.29749e+57
          1194.66150	         5.09133e+57
          1195.46780	         1.22684e+58
          1196.27410	         1.35153e+58
          1197.08040	         1.01887e+58
          1197.88670	         1.33487e+58
          1198.69300	         1.57086e+58
          1199.49930	         1.59241e+58
          1200.30560	         9.61885e+57
          1201.11190	         8.56526e+57
          1201.91820	         7.20596e+57
          1202.72450	         8.37686e+57
          1203.53080	         1.24394e+58
          1204.33710	         1.02480e+58
          1205.14340	         9.19865e+57
          1205.94970	         1.03047e+58
          1206.75600	         6.42309e+57
          1207.56230	         6.95872e+57
          1208.36860	         7.42291e+57
          1209.17490	         7.20836e+57
          1209.98120	         8.00707e+57
          1210.78750	         7.88270e+57
          1211.59380	         1.03870e+58
          1212.40010	         1.87231e+58
          1213.20640	         2.15649e+58
          1214.01270	         2.02758e+58
          1214.81900	         2.29043e+58
          1215.62530	         4.30670e+58
          1216.43160	         8.90348e+58
          1217.23790	         1.52902e+59
          1218.04420	         1.14480e+59
          1218.85050	         8.61594e+58
          1219.65680	         6.03696e+58
          1220.46310	         3.50478e+58
          1221.26940	         2.05734e+58
          1222.07570	         1.28476e+58
          1222.88200	         1.10970e+58
          1223.68830	         1.11666e+58
          1224.49460	         8.84316e+57
          1225.30090	         6.98175e+57
          1226.10720	         8.05521e+57
          1226.91350	         9.37622e+57
          1227.71980	         8.83784e+57
          1228.52610	         1.29470e+58
          1229.33240	         1.03298e+58
          1230.13870	         7.75567e+57
          1230.94500	         7.12752e+57
          1231.75130	         6.20810e+57
          1232.55760	         6.41792e+57
          1233.36390	         8.03882e+57
          1234.17020	         6.63910e+57
          1234.97650	         9.43062e+57
          1235.78280	         9.72348e+57
          1236.58910	         8.69190e+57
          1237.39540	         9.73853e+57
          1238.20170	         1.04859e+58
          1239.00800	         1.25031e+58
          1239.81430	         1.25089e+58
          1240.62060	         7.70817e+57
          1241.42690	         9.22836e+57
          1242.23320	         1.11526e+58
          1243.03950	         8.40491e+57
          1243.84580	         8.13005e+57
          1244.65210	         9.78932e+57
          1245.45840	         1.10800e+58
          1246.26470	         1.09497e+58
          1247.07100	         1.02634e+58
          1247.87730	         6.31150e+57
          1248.68360	         2.87090e+57
          1249.48990	         5.86518e+57
          1250.29620	         1.02761e+58
          1251.10250	         7.23643e+57
          1251.90880	         3.81179e+57
          1252.71510	         6.36370e+57
          1253.52140	         8.47617e+57
          1254.32770	         9.41437e+57
          1255.13400	         1.37074e+58
          1255.94030	         1.29675e+58
          1256.74660	         1.01394e+58
          1257.55290	         1.20650e+58
          1258.35920	         8.20404e+57
          1259.16550	         5.23248e+57
          1259.97180	         6.26333e+57
          1260.77810	         7.34863e+57
          1261.58440	         1.03582e+58
          1262.39070	         8.28507e+57
          1263.19700	         6.88276e+57
          1264.00330	         8.02947e+57
          1264.80960	         1.08686e+58
          1265.61590	         1.27608e+58
          1266.42220	         1.22942e+58
          1267.22850	         9.76239e+57
          1268.03480	         1.14329e+58
          1268.84110	         1.56246e+58
          1269.64740	         1.29724e+58
          1270.45370	         1.17090e+58
          1271.26000	         1.30908e+58
          1272.06630	         1.23789e+58
          1272.87260	         1.01861e+58
          1273.67890	         1.05675e+58
          1274.48520	         1.27095e+58
          1275.29150	         1.20040e+58
          1276.09780	         9.64104e+57
          1276.90410	         1.45668e+58
          1277.71040	         1.59805e+58
          1278.51670	         1.31558e+58
          1279.32300	         1.50366e+58
          1280.12930	         1.28059e+58
          1280.93560	         9.98882e+57
          1281.74190	         1.05375e+58
          1282.54820	         1.11578e+58
          1283.35450	         1.04925e+58
          1284.16080	         1.16313e+58
          1284.96710	         1.40530e+58
          1285.77340	         1.26782e+58
          1286.57970	         1.00687e+58
          1287.38600	         1.33134e+58
          1288.19230	         1.82715e+58
          1288.99860	         1.59705e+58
          1289.80490	         8.66331e+57
          1290.61120	         1.17589e+58
          1291.41750	         1.48775e+58
          1292.22380	         1.14616e+58
          1293.03010	         1.00030e+58
          1293.83640	         1.15726e+58
          1294.64270	         1.10575e+58
          1295.44900	         8.14233e+57
          1296.25530	         7.88285e+57
          1297.06160	         1.07387e+58
          1297.86790	         1.16821e+58
          1298.67420	         1.07499e+58
          1299.48050	         1.00680e+58
          1300.28680	         1.20517e+58
          1301.09310	         1.01425e+58
          1301.89940	         4.50259e+57
          1302.70570	         6.49317e+57
          1303.51200	         9.28925e+57
          1304.31830	         9.79362e+57
          1305.12460	         1.02992e+58
          1305.93090	         1.06664e+58
          1306.73720	         1.20468e+58
          1307.54350	         1.49992e+58
          1308.34980	         1.68298e+58
          1309.15610	         1.65704e+58
          1309.96240	         1.57592e+58
          1310.76870	         1.35930e+58
          1311.57500	         1.04477e+58
          1312.38130	         8.65362e+57
          1313.18760	         1.40058e+58
          1313.99390	         1.64997e+58
          1314.80020	         1.46366e+58
          1315.60650	         1.47776e+58
          1316.41280	         1.27353e+58
          1317.21910	         9.42465e+57
          1318.02540	         1.11052e+58
          1318.83170	         1.33798e+58
          1319.63800	         1.30234e+58
          1320.44430	         1.10656e+58
          1321.25060	         1.15417e+58
          1322.05690	         1.30325e+58
          1322.86320	         1.26256e+58
          1323.66950	         1.20557e+58
          1324.47580	         1.01214e+58
          1325.28210	         9.43090e+57
          1326.08840	         1.09136e+58
          1326.89470	         1.21789e+58
          1327.70100	         8.01270e+57
          1328.50730	         7.18227e+57
          1329.31360	         9.13688e+57
          1330.11990	         1.14319e+58
          1330.92620	         1.15490e+58
          1331.73250	         1.13392e+58
          1332.53880	         1.03837e+58
          1333.34510	         9.48436e+57
          1334.15140	         9.46711e+57
          1334.95770	         1.02608e+58
          1335.76400	         1.08332e+58
          1336.57030	         9.81360e+57
          1337.37660	         1.05338e+58
          1338.18290	         1.08879e+58
          1338.98920	         1.12020e+58
          1339.79550	         1.03977e+58
          1340.60180	         1.13403e+58
          1341.40810	         1.38453e+58
          1342.21440	         1.32778e+58
          1343.02070	         1.36695e+58
          1343.82700	         1.26807e+58
          1344.63330	         1.25564e+58
          1345.43960	         1.52460e+58
          1346.24590	         1.34451e+58
          1347.05220	         1.14308e+58
          1347.85850	         9.45441e+57
          1348.66480	         1.11345e+58
          1349.47110	         1.51326e+58
          1350.27740	         1.31656e+58
          1351.08370	         1.09089e+58
          1351.89000	         1.01982e+58
          1352.69630	         1.09456e+58
          1353.50260	         1.25934e+58
          1354.30890	         1.26326e+58
          1355.11520	         1.16547e+58
          1355.92150	         1.08365e+58
          1356.72780	         1.11935e+58
          1357.53410	         1.18299e+58
          1358.34040	         1.10452e+58
          1359.14670	         9.93059e+57
          1359.95300	         1.06991e+58
          1360.75930	         1.16199e+58
          1361.56560	         1.05002e+58
          1362.37190	         1.16085e+58
          1363.17820	         1.16786e+58
          1363.98450	         1.18011e+58
          1364.79080	         1.28440e+58
          1365.59710	         1.25669e+58
          1366.40340	         1.06391e+58
          1367.20970	         1.09366e+58
          1368.01600	         9.96325e+57
          1368.82230	         8.90582e+57
          1369.62860	         9.61085e+57
          1370.43490	         7.63897e+57
          1371.24120	         8.99869e+57
          1372.04750	         8.80459e+57
          1372.85380	         1.04636e+58
          1373.66010	         1.08847e+58
          1374.46640	         1.01890e+58
          1375.27270	         1.06791e+58
          1376.07900	         9.16258e+57
          1376.88530	         8.91963e+57
          1377.69160	         1.00235e+58
          1378.49790	         9.23211e+57
          1379.30420	         8.40666e+57
          1380.11050	         9.00142e+57
          1380.91680	         7.43911e+57
          1381.72310	         8.57996e+57
          1382.52940	         1.01438e+58
          1383.33570	         9.35955e+57
          1384.14200	         1.05425e+58
          1384.94830	         1.11718e+58
          1385.75460	         9.82337e+57
          1386.56090	         1.17317e+58
          1387.36720	         1.21760e+58
          1388.17350	         1.39365e+58
          1388.97980	         1.07544e+58
          1389.78610	         8.04278e+57
          1390.59240	         7.53543e+57
          1391.39870	         6.06999e+57
          1392.20500	         7.03203e+57
          1393.01130	         6.79625e+57
          1393.81760	         5.94452e+57
          1394.62390	         7.85621e+57
          1395.43020	         7.02201e+57
          1396.23650	         6.66589e+57
          1397.04280	         9.58710e+57
          1397.84910	         9.53487e+57
          1398.65540	         7.82220e+57
          1399.46170	         9.02282e+57
          1400.26800	         9.30922e+57
          1401.07430	         8.46345e+57
          1401.88060	         8.81840e+57
          1402.68690	         8.95883e+57
          1403.49320	         9.24226e+57
          1404.29950	         8.95965e+57
          1405.10580	         9.89952e+57
          1405.91210	         9.98184e+57
          1406.71840	         9.43075e+57
          1407.52470	         9.48390e+57
          1408.33100	         9.71942e+57
          1409.13730	         1.11256e+58
          1409.94360	         1.08857e+58
          1410.74990	         1.10539e+58
          1411.55620	         1.04877e+58
          1412.36250	         1.00038e+58
          1413.16880	         8.91763e+57
          1413.97510	         7.92676e+57
          1414.78140	         8.35421e+57
          1415.58770	         1.07576e+58
          1416.39400	         1.15422e+58
          1417.20030	         1.20579e+58
          1418.00660	         1.11397e+58
          1418.81290	         1.19367e+58
          1419.61920	         1.13209e+58
          1420.42550	         1.22157e+58
          1421.23180	         1.18904e+58
          1422.03810	         1.15741e+58
          1422.84440	         1.22580e+58
          1423.65070	         1.32647e+58
          1424.45700	         1.21297e+58
          1425.26330	         1.02503e+58
          1426.06960	         9.79024e+57
          1426.87590	         9.77322e+57
          1427.68220	         9.61837e+57
          1428.48850	         1.09395e+58
          1429.29480	         1.10349e+58
          1430.10110	         1.06963e+58
          1430.90740	         9.73779e+57
          1431.71370	         9.41566e+57
          1432.52000	         9.41403e+57
          1433.32630	         8.77953e+57
          1434.13260	         7.81658e+57
          1434.93890	         8.37708e+57
          1435.74520	         9.21428e+57
          1436.55150	         9.18487e+57
          1437.35780	         8.76538e+57
          1438.16410	         9.05278e+57
          1438.97040	         8.56305e+57
          1439.77670	         8.31364e+57
          1440.58300	         9.10520e+57
          1441.38930	         9.61286e+57
          1442.19560	         9.77945e+57
          1443.00190	         9.89823e+57
          1443.80820	         1.12753e+58
          1444.61450	         1.02799e+58
          1445.42080	         9.38150e+57
          1446.22710	         1.08320e+58
          1447.03340	         1.05382e+58
          1447.83970	         9.75619e+57
          1448.64600	         8.95192e+57
          1449.45230	         9.37521e+57
          1450.25860	         1.02822e+58
          1451.06490	         9.29205e+57
          1451.87120	         7.96324e+57
          1452.67750	         7.23041e+57
          1453.48380	         9.20844e+57
          1454.29010	         8.41816e+57
          1455.09640	         7.01205e+57
          1455.90270	         8.20118e+57
          1456.70900	         9.25424e+57
          1457.51530	         1.01586e+58
          1458.32160	         1.22616e+58
          1459.12790	         1.25094e+58
          1459.93420	         1.11712e+58
          1460.74050	         8.05000e+57
          1461.54680	         7.15619e+57
          1462.35310	         7.05369e+57
          1463.15940	         9.23166e+57
          1463.96570	         1.18165e+58
          1464.77200	         1.18465e+58
          1465.57830	         1.03150e+58
          1466.38460	         9.06300e+57
          1467.19090	         9.26897e+57
          1467.99720	         8.51450e+57
          1468.80350	         9.11242e+57
          1469.60980	         9.39139e+57
          1470.41610	         1.08903e+58
          1471.22240	         9.47204e+57
          1472.02870	         8.55567e+57
          1472.83500	         9.83299e+57
          1473.64130	         1.07052e+58
          1474.44760	         1.06885e+58
          1475.25390	         1.02194e+58
          1476.06020	         8.96017e+57
          1476.86650	         8.38511e+57
          1477.67280	         8.57328e+57
          1478.47910	         7.09001e+57
          1479.28540	         6.75645e+57
          1480.09170	         8.99510e+57
          1480.89800	         8.87401e+57
          1481.70430	         8.06676e+57
          1482.51060	         8.06170e+57
          1483.31690	         7.04510e+57
          1484.12320	         7.15570e+57
          1484.92950	         8.64289e+57
          1485.73580	         7.76558e+57
          1486.54210	         8.28018e+57
          1487.34840	         8.99169e+57
          1488.15470	         7.88570e+57
          1488.96100	         8.99866e+57
          1489.76730	         8.98092e+57
