#sample_321_stacked_spectrum_rest_UV-bands_median_H-alpha_noDC.txt
#median Lum: 1.69570e+42
#Rest-frame wavelength (A) | Luminosity (erg/s/A)
#
          1110.00000	         0.00000e+00
          1110.80630	         3.87613e+59
          1111.61260	         2.92866e+58
          1112.41890	         7.61863e+58
          1113.22520	         1.14379e+58
          1114.03150	         1.49041e+59
          1114.83780	         1.71012e+59
          1115.64410	         1.21125e+59
          1116.45040	         2.03451e+59
          1117.25670	         1.22257e+59
          1118.06300	         1.28508e+58
          1118.86930	        -6.56126e+58
          1119.67560	         9.27612e+58
          1120.48190	        -6.70915e+58
          1121.28820	        -1.46337e+59
          1122.09450	         1.82188e+58
          1122.90080	        -2.43800e+58
          1123.70710	         1.23355e+59
          1124.51340	         1.00500e+59
          1125.31970	         3.99729e+58
          1126.12600	         1.55705e+57
          1126.93230	        -2.88466e+58
          1127.73860	        -7.45139e+58
          1128.54490	        -2.24413e+58
          1129.35120	         4.12362e+58
          1130.15750	         1.24909e+58
          1130.96380	        -2.44837e+58
          1131.77010	         2.75719e+58
          1132.57640	         4.93524e+58
          1133.38270	         3.37045e+58
          1134.18900	         1.59867e+58
          1134.99530	         1.34597e+58
          1135.80160	         1.93614e+58
          1136.60790	         3.20989e+58
          1137.41420	        -8.14880e+57
          1138.22050	         3.77872e+58
          1139.02680	         3.90968e+58
          1139.83310	         1.92563e+58
          1140.63940	         3.78823e+58
          1141.44570	         4.15026e+57
          1142.25200	         8.42702e+57
          1143.05830	         1.17261e+58
          1143.86460	         1.20344e+58
          1144.67090	         2.82101e+58
          1145.47720	         1.32776e+58
          1146.28350	         1.20947e+58
          1147.08980	         3.18795e+57
          1147.89610	         9.96508e+57
          1148.70240	         2.14073e+58
          1149.50870	         1.75596e+58
          1150.31500	         9.66404e+57
          1151.12130	         2.88058e+57
          1151.92760	         1.11156e+58
          1152.73390	         9.62590e+56
          1153.54020	         1.07876e+58
          1154.34650	         2.25733e+58
          1155.15280	         1.71541e+58
          1155.95910	         2.54139e+58
          1156.76540	         1.28444e+58
          1157.57170	         1.43659e+57
          1158.37800	         2.39873e+57
          1159.18430	         9.84567e+56
          1159.99060	         4.34951e+57
          1160.79690	         1.11202e+58
          1161.60320	         1.60373e+58
          1162.40950	         2.34777e+58
          1163.21580	         1.01270e+58
          1164.02210	         1.10137e+58
          1164.82840	         4.92944e+57
          1165.63470	         1.62442e+58
          1166.44100	         3.20095e+58
          1167.24730	         2.34903e+58
          1168.05360	         9.42373e+57
          1168.85990	         1.22732e+58
          1169.66620	         1.27891e+58
          1170.47250	         8.70693e+57
          1171.27880	         1.12409e+58
          1172.08510	         2.02347e+58
          1172.89140	         1.23581e+58
          1173.69770	         1.13836e+57
          1174.50400	         8.75781e+57
          1175.31030	         1.36904e+58
          1176.11660	         1.53488e+58
          1176.92290	         1.46955e+58
          1177.72920	         1.23584e+58
          1178.53550	         7.62937e+57
          1179.34180	         3.59345e+57
          1180.14810	         4.53290e+57
          1180.95440	         7.91888e+57
          1181.76070	         8.22906e+57
          1182.56700	         9.05561e+57
          1183.37330	         4.15980e+57
          1184.17960	         7.92361e+57
          1184.98590	         1.25529e+58
          1185.79220	         8.53253e+57
          1186.59850	         8.18723e+57
          1187.40480	         6.90659e+57
          1188.21110	         1.10078e+58
          1189.01740	         1.24324e+58
          1189.82370	         1.48683e+58
          1190.63000	         1.35623e+58
          1191.43630	         1.27463e+58
          1192.24260	         6.63244e+57
          1193.04890	         1.12890e+58
          1193.85520	         1.20936e+58
          1194.66150	         5.40637e+57
          1195.46780	         1.10755e+58
          1196.27410	         1.33692e+58
          1197.08040	         1.07527e+58
          1197.88670	         1.30191e+58
          1198.69300	         1.38124e+58
          1199.49930	         1.16593e+58
          1200.30560	         6.72404e+57
          1201.11190	         1.15514e+58
          1201.91820	         1.19686e+58
          1202.72450	         9.37141e+57
          1203.53080	         1.30003e+58
          1204.33710	         1.13587e+58
          1205.14340	         6.81837e+57
          1205.94970	         8.41226e+57
          1206.75600	         5.74079e+57
          1207.56230	         4.11634e+57
          1208.36860	         5.89918e+57
          1209.17490	         5.35574e+57
          1209.98120	         8.03397e+57
          1210.78750	         7.94391e+57
          1211.59380	         1.15472e+58
          1212.40010	         1.51778e+58
          1213.20640	         1.91587e+58
          1214.01270	         2.07609e+58
          1214.81900	         2.54949e+58
          1215.62530	         4.23247e+58
          1216.43160	         8.73636e+58
          1217.23790	         1.50065e+59
          1218.04420	         1.16412e+59
          1218.85050	         8.83358e+58
          1219.65680	         6.02316e+58
          1220.46310	         3.21074e+58
          1221.26940	         2.01746e+58
          1222.07570	         1.59721e+58
          1222.88200	         1.29020e+58
          1223.68830	         1.20480e+58
          1224.49460	         7.47926e+57
          1225.30090	         7.23241e+57
          1226.10720	         9.83151e+57
          1226.91350	         1.07801e+58
          1227.71980	         1.08012e+58
          1228.52610	         1.29423e+58
          1229.33240	         8.60904e+57
          1230.13870	         8.44943e+57
          1230.94500	         7.18456e+57
          1231.75130	         5.75669e+57
          1232.55760	         8.10240e+57
          1233.36390	         6.53055e+57
          1234.17020	         7.33918e+57
          1234.97650	         8.88852e+57
          1235.78280	         9.80415e+57
          1236.58910	         9.95120e+57
          1237.39540	         1.17338e+58
          1238.20170	         1.00511e+58
          1239.00800	         1.02671e+58
          1239.81430	         1.39643e+58
          1240.62060	         9.16220e+57
          1241.42690	         7.21287e+57
          1242.23320	         1.00860e+58
          1243.03950	         8.12198e+57
          1243.84580	         6.63298e+57
          1244.65210	         8.92518e+57
          1245.45840	         1.20865e+58
          1246.26470	         1.14005e+58
          1247.07100	         9.87625e+57
          1247.87730	         7.04197e+57
          1248.68360	         5.93610e+57
          1249.48990	         7.14003e+57
          1250.29620	         8.71920e+57
          1251.10250	         7.50683e+57
          1251.90880	         4.15970e+57
          1252.71510	         5.57353e+57
          1253.52140	         7.05864e+57
          1254.32770	         9.29236e+57
          1255.13400	         1.23834e+58
          1255.94030	         1.08460e+58
          1256.74660	         9.60808e+57
          1257.55290	         1.05207e+58
          1258.35920	         9.35173e+57
          1259.16550	         5.07693e+57
          1259.97180	         4.63372e+57
          1260.77810	         8.86892e+57
          1261.58440	         1.24527e+58
          1262.39070	         8.77335e+57
          1263.19700	         8.04100e+57
          1264.00330	         9.32708e+57
          1264.80960	         9.85185e+57
          1265.61590	         1.11901e+58
          1266.42220	         1.21457e+58
          1267.22850	         9.56932e+57
          1268.03480	         1.29888e+58
          1268.84110	         1.53357e+58
          1269.64740	         1.11649e+58
          1270.45370	         1.20423e+58
          1271.26000	         1.25163e+58
          1272.06630	         1.41144e+58
          1272.87260	         1.43284e+58
          1273.67890	         1.08904e+58
          1274.48520	         1.24781e+58
          1275.29150	         1.14213e+58
          1276.09780	         1.03962e+58
          1276.90410	         1.43572e+58
          1277.71040	         1.42327e+58
          1278.51670	         1.19008e+58
          1279.32300	         1.15620e+58
          1280.12930	         1.30718e+58
          1280.93560	         1.27160e+58
          1281.74190	         1.12556e+58
          1282.54820	         1.13912e+58
          1283.35450	         9.96473e+57
          1284.16080	         1.08388e+58
          1284.96710	         1.25546e+58
          1285.77340	         9.21491e+57
          1286.57970	         1.27855e+58
          1287.38600	         1.75030e+58
          1288.19230	         1.77299e+58
          1288.99860	         1.55760e+58
          1289.80490	         1.19370e+58
          1290.61120	         1.40474e+58
          1291.41750	         1.52134e+58
          1292.22380	         1.34183e+58
          1293.03010	         1.25343e+58
          1293.83640	         1.23771e+58
          1294.64270	         1.12481e+58
          1295.44900	         5.30924e+57
          1296.25530	         5.40167e+57
          1297.06160	         7.23279e+57
          1297.86790	         8.23986e+57
          1298.67420	         9.72406e+57
          1299.48050	         1.12459e+58
          1300.28680	         1.24276e+58
          1301.09310	         6.36564e+57
          1301.89940	         1.09071e+57
          1302.70570	         4.72788e+57
          1303.51200	         8.44067e+57
          1304.31830	         1.18256e+58
          1305.12460	         1.21321e+58
          1305.93090	         1.16671e+58
          1306.73720	         1.22069e+58
          1307.54350	         1.48145e+58
          1308.34980	         1.49837e+58
          1309.15610	         1.49882e+58
          1309.96240	         1.49794e+58
          1310.76870	         1.45546e+58
          1311.57500	         1.38012e+58
          1312.38130	         1.36355e+58
          1313.18760	         1.34577e+58
          1313.99390	         1.55067e+58
          1314.80020	         1.75672e+58
          1315.60650	         1.42669e+58
          1316.41280	         1.22279e+58
          1317.21910	         1.19008e+58
          1318.02540	         1.14958e+58
          1318.83170	         1.18069e+58
          1319.63800	         1.17212e+58
          1320.44430	         1.00259e+58
          1321.25060	         1.18429e+58
          1322.05690	         1.41811e+58
          1322.86320	         1.23537e+58
          1323.66950	         9.89857e+57
          1324.47580	         8.69439e+57
          1325.28210	         9.84407e+57
          1326.08840	         1.20103e+58
          1326.89470	         1.26594e+58
          1327.70100	         1.05628e+58
          1328.50730	         9.82469e+57
          1329.31360	         9.44640e+57
          1330.11990	         9.34144e+57
          1330.92620	         1.07881e+58
          1331.73250	         1.13520e+58
          1332.53880	         1.08529e+58
          1333.34510	         9.45051e+57
          1334.15140	         9.16731e+57
          1334.95770	         8.66217e+57
          1335.76400	         9.37897e+57
          1336.57030	         8.97571e+57
          1337.37660	         9.00814e+57
          1338.18290	         1.19099e+58
          1338.98920	         1.30293e+58
          1339.79550	         1.23101e+58
          1340.60180	         1.21054e+58
          1341.40810	         1.38758e+58
          1342.21440	         1.26510e+58
          1343.02070	         1.19334e+58
          1343.82700	         1.36023e+58
          1344.63330	         1.07516e+58
          1345.43960	         9.62430e+57
          1346.24590	         9.66526e+57
          1347.05220	         1.15431e+58
          1347.85850	         1.10957e+58
          1348.66480	         1.14760e+58
          1349.47110	         1.26696e+58
          1350.27740	         1.18572e+58
          1351.08370	         1.11135e+58
          1351.89000	         1.17376e+58
          1352.69630	         1.09612e+58
          1353.50260	         1.07403e+58
          1354.30890	         1.17645e+58
          1355.11520	         1.13039e+58
          1355.92150	         1.09656e+58
          1356.72780	         1.13525e+58
          1357.53410	         1.00324e+58
          1358.34040	         1.00413e+58
          1359.14670	         9.81241e+57
          1359.95300	         1.11202e+58
          1360.75930	         1.27343e+58
          1361.56560	         1.16072e+58
          1362.37190	         1.04258e+58
          1363.17820	         9.79692e+57
          1363.98450	         1.08636e+58
          1364.79080	         1.28601e+58
          1365.59710	         1.30046e+58
          1366.40340	         1.18649e+58
          1367.20970	         9.17774e+57
          1368.01600	         8.08311e+57
          1368.82230	         9.34887e+57
          1369.62860	         9.64942e+57
          1370.43490	         6.90239e+57
          1371.24120	         8.43912e+57
          1372.04750	         9.65730e+57
          1372.85380	         1.10899e+58
          1373.66010	         1.10129e+58
          1374.46640	         1.18597e+58
          1375.27270	         1.24331e+58
          1376.07900	         1.03785e+58
          1376.88530	         8.62353e+57
          1377.69160	         8.13174e+57
          1378.49790	         7.28686e+57
          1379.30420	         7.96544e+57
          1380.11050	         9.36845e+57
          1380.91680	         8.53686e+57
          1381.72310	         7.72915e+57
          1382.52940	         8.41796e+57
          1383.33570	         8.86290e+57
          1384.14200	         9.99512e+57
          1384.94830	         1.01338e+58
          1385.75460	         1.12552e+58
          1386.56090	         1.17272e+58
          1387.36720	         1.07466e+58
          1388.17350	         1.24765e+58
          1388.97980	         1.02808e+58
          1389.78610	         7.98877e+57
          1390.59240	         8.87086e+57
          1391.39870	         7.78862e+57
          1392.20500	         9.28368e+57
          1393.01130	         8.05054e+57
          1393.81760	         8.00268e+57
          1394.62390	         8.52075e+57
          1395.43020	         6.81642e+57
          1396.23650	         6.52463e+57
          1397.04280	         7.35638e+57
          1397.84910	         9.00940e+57
          1398.65540	         8.72846e+57
          1399.46170	         7.70130e+57
          1400.26800	         6.47673e+57
          1401.07430	         5.91898e+57
          1401.88060	         7.29731e+57
          1402.68690	         8.82988e+57
          1403.49320	         9.19903e+57
          1404.29950	         9.12454e+57
          1405.10580	         1.04665e+58
          1405.91210	         1.15082e+58
          1406.71840	         1.04350e+58
          1407.52470	         1.01939e+58
          1408.33100	         1.08442e+58
          1409.13730	         1.12218e+58
          1409.94360	         1.13765e+58
          1410.74990	         1.16169e+58
          1411.55620	         9.93134e+57
          1412.36250	         8.46917e+57
          1413.16880	         8.13618e+57
          1413.97510	         9.05460e+57
          1414.78140	         1.12271e+58
          1415.58770	         1.17106e+58
          1416.39400	         1.04139e+58
          1417.20030	         9.62353e+57
          1418.00660	         8.45768e+57
          1418.81290	         9.20051e+57
          1419.61920	         1.07494e+58
          1420.42550	         1.17273e+58
          1421.23180	         1.36181e+58
          1422.03810	         1.18405e+58
          1422.84440	         1.04570e+58
          1423.65070	         1.21560e+58
          1424.45700	         9.88805e+57
          1425.26330	         7.93739e+57
          1426.06960	         7.75507e+57
          1426.87590	         9.08887e+57
          1427.68220	         9.77648e+57
          1428.48850	         1.20556e+58
          1429.29480	         1.10585e+58
          1430.10110	         8.58871e+57
          1430.90740	         8.40619e+57
          1431.71370	         9.82617e+57
          1432.52000	         9.66336e+57
          1433.32630	         7.74890e+57
          1434.13260	         7.84465e+57
          1434.93890	         9.08339e+57
          1435.74520	         9.78131e+57
          1436.55150	         1.04668e+58
          1437.35780	         9.22420e+57
          1438.16410	         8.71395e+57
          1438.97040	         8.41236e+57
          1439.77670	         8.56701e+57
          1440.58300	         9.04848e+57
          1441.38930	         9.98368e+57
          1442.19560	         1.05887e+58
          1443.00190	         1.12719e+58
          1443.80820	         1.21665e+58
          1444.61450	         1.01918e+58
          1445.42080	         8.42639e+57
          1446.22710	         9.33672e+57
          1447.03340	         9.03448e+57
          1447.83970	         1.06881e+58
          1448.64600	         1.06064e+58
          1449.45230	         1.01193e+58
          1450.25860	         9.70361e+57
          1451.06490	         8.35828e+57
          1451.87120	         7.75137e+57
          1452.67750	         7.53908e+57
          1453.48380	         9.04167e+57
          1454.29010	         7.82304e+57
          1455.09640	         6.98023e+57
          1455.90270	         8.99457e+57
          1456.70900	         8.40274e+57
          1457.51530	         9.51866e+57
          1458.32160	         1.15583e+58
          1459.12790	         1.11990e+58
          1459.93420	         1.02299e+58
          1460.74050	         7.79071e+57
          1461.54680	         7.45775e+57
          1462.35310	         7.50532e+57
          1463.15940	         9.55020e+57
          1463.96570	         1.04474e+58
          1464.77200	         1.09044e+58
          1465.57830	         9.68762e+57
          1466.38460	         8.82703e+57
          1467.19090	         7.80389e+57
          1467.99720	         8.59406e+57
          1468.80350	         9.84120e+57
          1469.60980	         9.79855e+57
          1470.41610	         1.12711e+58
          1471.22240	         1.01435e+58
          1472.02870	         9.81390e+57
          1472.83500	         1.06411e+58
          1473.64130	         1.05271e+58
          1474.44760	         9.72100e+57
          1475.25390	         8.26003e+57
          1476.06020	         8.48542e+57
          1476.86650	         7.83748e+57
          1477.67280	         6.84281e+57
          1478.47910	         6.27212e+57
          1479.28540	         7.37982e+57
          1480.09170	         8.60216e+57
          1480.89800	         8.34646e+57
          1481.70430	         8.56711e+57
          1482.51060	         8.58825e+57
          1483.31690	         8.75320e+57
          1484.12320	         8.76477e+57
          1484.92950	         7.47261e+57
          1485.73580	         7.34174e+57
          1486.54210	         8.49911e+57
          1487.34840	         9.17687e+57
          1488.15470	         8.27846e+57
          1488.96100	         8.95579e+57
          1489.76730	         9.80731e+57
