#sample_180_stacked_spectrum_rest_UV-bands_median_H-alpha_noDC.txt
#median Lum: 1.70751e+42
#Rest-frame wavelength (A) | Luminosity (erg/s/A)
#
          1110.00000	         0.00000e+00
          1110.80630	         1.76532e+59
          1111.61260	         1.58014e+59
          1112.41890	        -1.03300e+59
          1113.22520	        -1.56562e+59
          1114.03150	        -7.18966e+58
          1114.83780	         1.76499e+59
          1115.64410	         2.32497e+59
          1116.45040	         5.83132e+58
          1117.25670	         1.78277e+59
          1118.06300	         4.75704e+58
          1118.86930	         6.98190e+58
          1119.67560	         1.01497e+59
          1120.48190	        -2.04229e+58
          1121.28820	        -1.07425e+59
          1122.09450	        -1.52342e+58
          1122.90080	        -1.29717e+58
          1123.70710	         7.20941e+58
          1124.51340	         1.96969e+58
          1125.31970	        -3.14897e+58
          1126.12600	         5.50574e+58
          1126.93230	         8.28731e+57
          1127.73860	         1.04492e+58
          1128.54490	        -1.10243e+58
          1129.35120	         1.62578e+58
          1130.15750	        -3.03359e+57
          1130.96380	        -2.93286e+57
          1131.77010	         5.41374e+58
          1132.57640	         5.10669e+58
          1133.38270	         4.53642e+58
          1134.18900	         1.31763e+58
          1134.99530	         5.10968e+57
          1135.80160	         1.73070e+58
          1136.60790	        -9.93528e+56
          1137.41420	         2.41427e+57
          1138.22050	         4.08355e+58
          1139.02680	         2.92808e+58
          1139.83310	         1.75168e+58
          1140.63940	         9.21321e+57
          1141.44570	        -7.94867e+57
          1142.25200	         1.45664e+58
          1143.05830	         3.06180e+58
          1143.86460	         3.40722e+58
          1144.67090	         4.07067e+58
          1145.47720	         1.22938e+58
          1146.28350	         1.78592e+58
          1147.08980	         4.47958e+57
          1147.89610	         1.15427e+58
          1148.70240	         2.33245e+58
          1149.50870	         1.74959e+58
          1150.31500	         1.61268e+58
          1151.12130	         3.42585e+57
          1151.92760	        -6.20323e+57
          1152.73390	         3.79039e+57
          1153.54020	        -1.30397e+57
          1154.34650	         2.08875e+58
          1155.15280	         2.37034e+58
          1155.95910	         1.36583e+58
          1156.76540	         1.20115e+58
          1157.57170	         4.16562e+57
          1158.37800	         8.81923e+57
          1159.18430	         1.28746e+57
          1159.99060	         1.33900e+58
          1160.79690	         4.86609e+57
          1161.60320	         6.99519e+57
          1162.40950	         6.90783e+57
          1163.21580	         2.04768e+58
          1164.02210	         1.60334e+58
          1164.82840	         1.13477e+58
          1165.63470	         1.96442e+58
          1166.44100	         3.06688e+58
          1167.24730	         2.21469e+58
          1168.05360	         3.67286e+57
          1168.85990	         1.12725e+57
          1169.66620	         1.31712e+58
          1170.47250	         1.53784e+58
          1171.27880	         1.60598e+58
          1172.08510	         1.82330e+58
          1172.89140	         1.52808e+58
          1173.69770	         1.03588e+58
          1174.50400	         9.98919e+57
          1175.31030	         1.89633e+58
          1176.11660	         1.97150e+58
          1176.92290	         1.50862e+58
          1177.72920	         7.95732e+57
          1178.53550	         8.77981e+57
          1179.34180	         1.95360e+57
          1180.14810	         3.78323e+57
          1180.95440	         5.31011e+57
          1181.76070	         1.58082e+57
          1182.56700	         5.74925e+57
          1183.37330	         8.30535e+57
          1184.17960	         1.40103e+58
          1184.98590	         1.34344e+58
          1185.79220	         8.14214e+57
          1186.59850	         8.95449e+57
          1187.40480	         8.02695e+57
          1188.21110	         1.11637e+58
          1189.01740	         9.56992e+57
          1189.82370	         6.31472e+57
          1190.63000	         9.09640e+57
          1191.43630	         1.21134e+58
          1192.24260	         8.83389e+57
          1193.04890	         1.39407e+58
          1193.85520	         1.59820e+58
          1194.66150	         7.27534e+57
          1195.46780	         6.45196e+57
          1196.27410	         1.27712e+58
          1197.08040	         8.65818e+57
          1197.88670	         1.30548e+58
          1198.69300	         1.77577e+58
          1199.49930	         1.52816e+58
          1200.30560	         8.47889e+57
          1201.11190	         1.04160e+58
          1201.91820	         9.97861e+57
          1202.72450	         8.02904e+57
          1203.53080	         9.96626e+57
          1204.33710	         9.33700e+57
          1205.14340	         4.27062e+57
          1205.94970	         4.68080e+57
          1206.75600	         7.51524e+57
          1207.56230	         4.80709e+57
          1208.36860	         8.23671e+57
          1209.17490	         5.40342e+57
          1209.98120	         6.76703e+57
          1210.78750	         9.32745e+57
          1211.59380	         1.19896e+58
          1212.40010	         1.99629e+58
          1213.20640	         2.11088e+58
          1214.01270	         1.95637e+58
          1214.81900	         2.42711e+58
          1215.62530	         4.43255e+58
          1216.43160	         9.15889e+58
          1217.23790	         1.48839e+59
          1218.04420	         1.17993e+59
          1218.85050	         8.69843e+58
          1219.65680	         5.93511e+58
          1220.46310	         3.69192e+58
          1221.26940	         2.46503e+58
          1222.07570	         1.52860e+58
          1222.88200	         1.36853e+58
          1223.68830	         1.09534e+58
          1224.49460	         6.93143e+57
          1225.30090	         8.40744e+57
          1226.10720	         8.79207e+57
          1226.91350	         6.17878e+57
          1227.71980	         9.08286e+57
          1228.52610	         1.14614e+58
          1229.33240	         7.05920e+57
          1230.13870	         5.38779e+57
          1230.94500	         8.86926e+57
          1231.75130	         7.41622e+57
          1232.55760	         6.58405e+57
          1233.36390	         8.56499e+57
          1234.17020	         9.70869e+57
          1234.97650	         9.45386e+57
          1235.78280	         5.30843e+57
          1236.58910	         5.56599e+57
          1237.39540	         9.43536e+57
          1238.20170	         1.00642e+58
          1239.00800	         1.37618e+58
          1239.81430	         1.70765e+58
          1240.62060	         1.12600e+58
          1241.42690	         1.20738e+58
          1242.23320	         1.41923e+58
          1243.03950	         1.01638e+58
          1243.84580	         9.44731e+57
          1244.65210	         1.10040e+58
          1245.45840	         1.16676e+58
          1246.26470	         1.04864e+58
          1247.07100	         1.06937e+58
          1247.87730	         7.12238e+57
          1248.68360	         2.36057e+57
          1249.48990	         9.18452e+57
          1250.29620	         1.50124e+58
          1251.10250	         6.65737e+57
          1251.90880	         5.39053e+57
          1252.71510	         6.78786e+57
          1253.52140	         6.38157e+57
          1254.32770	         1.00172e+58
          1255.13400	         1.22704e+58
          1255.94030	         1.05273e+58
          1256.74660	         7.98427e+57
          1257.55290	         9.47621e+57
          1258.35920	         8.58751e+57
          1259.16550	         5.36631e+57
          1259.97180	         4.40280e+57
          1260.77810	         6.37815e+57
          1261.58440	         1.08694e+58
          1262.39070	         9.16196e+57
          1263.19700	         8.50810e+57
          1264.00330	         9.22366e+57
          1264.80960	         1.12636e+58
          1265.61590	         1.28655e+58
          1266.42220	         1.28846e+58
          1267.22850	         1.11112e+58
          1268.03480	         1.24987e+58
          1268.84110	         1.37935e+58
          1269.64740	         1.26620e+58
          1270.45370	         1.37285e+58
          1271.26000	         1.33200e+58
          1272.06630	         1.29631e+58
          1272.87260	         1.49191e+58
          1273.67890	         1.41226e+58
          1274.48520	         1.33334e+58
          1275.29150	         1.15543e+58
          1276.09780	         1.04591e+58
          1276.90410	         1.42829e+58
          1277.71040	         1.28883e+58
          1278.51670	         1.11780e+58
          1279.32300	         1.36895e+58
          1280.12930	         1.32734e+58
          1280.93560	         1.21209e+58
          1281.74190	         1.25585e+58
          1282.54820	         1.25125e+58
          1283.35450	         1.05716e+58
          1284.16080	         1.23436e+58
          1284.96710	         1.54457e+58
          1285.77340	         1.30843e+58
          1286.57970	         1.17807e+58
          1287.38600	         1.63371e+58
          1288.19230	         1.70789e+58
          1288.99860	         1.42108e+58
          1289.80490	         1.29063e+58
          1290.61120	         1.30989e+58
          1291.41750	         1.41403e+58
          1292.22380	         1.36308e+58
          1293.03010	         1.14695e+58
          1293.83640	         1.35928e+58
          1294.64270	         1.29047e+58
          1295.44900	         8.88719e+57
          1296.25530	         9.97596e+57
          1297.06160	         9.68469e+57
          1297.86790	         8.17419e+57
          1298.67420	         8.37929e+57
          1299.48050	         1.04548e+58
          1300.28680	         1.17156e+58
          1301.09310	         9.25126e+57
          1301.89940	         4.73870e+57
          1302.70570	         6.00072e+57
          1303.51200	         8.06342e+57
          1304.31830	         1.01115e+58
          1305.12460	         1.07769e+58
          1305.93090	         1.11485e+58
          1306.73720	         1.16463e+58
          1307.54350	         1.28988e+58
          1308.34980	         1.47950e+58
          1309.15610	         1.57367e+58
          1309.96240	         1.58796e+58
          1310.76870	         1.42036e+58
          1311.57500	         1.20465e+58
          1312.38130	         9.63306e+57
          1313.18760	         1.15343e+58
          1313.99390	         1.64648e+58
          1314.80020	         1.63634e+58
          1315.60650	         1.49039e+58
          1316.41280	         1.40305e+58
          1317.21910	         1.17685e+58
          1318.02540	         1.19886e+58
          1318.83170	         1.28149e+58
          1319.63800	         1.21030e+58
          1320.44430	         1.13997e+58
          1321.25060	         1.20909e+58
          1322.05690	         1.17790e+58
          1322.86320	         1.27134e+58
          1323.66950	         1.06188e+58
          1324.47580	         8.33294e+57
          1325.28210	         9.70310e+57
          1326.08840	         1.26510e+58
          1326.89470	         1.29291e+58
          1327.70100	         1.01994e+58
          1328.50730	         1.03122e+58
          1329.31360	         1.12109e+58
          1330.11990	         1.06381e+58
          1330.92620	         8.15267e+57
          1331.73250	         9.00454e+57
          1332.53880	         1.19184e+58
          1333.34510	         9.59890e+57
          1334.15140	         9.57697e+57
          1334.95770	         1.06638e+58
          1335.76400	         1.27873e+58
          1336.57030	         1.27383e+58
          1337.37660	         1.02967e+58
          1338.18290	         1.11769e+58
          1338.98920	         1.22431e+58
          1339.79550	         1.22321e+58
          1340.60180	         1.30068e+58
          1341.40810	         1.48689e+58
          1342.21440	         1.29430e+58
          1343.02070	         1.31459e+58
          1343.82700	         1.40312e+58
          1344.63330	         1.25273e+58
          1345.43960	         1.32944e+58
          1346.24590	         1.15809e+58
          1347.05220	         1.20578e+58
          1347.85850	         9.13385e+57
          1348.66480	         1.00415e+58
          1349.47110	         1.31104e+58
          1350.27740	         1.21794e+58
          1351.08370	         1.09127e+58
          1351.89000	         1.15992e+58
          1352.69630	         1.25290e+58
          1353.50260	         1.18476e+58
          1354.30890	         1.20055e+58
          1355.11520	         1.31070e+58
          1355.92150	         1.26995e+58
          1356.72780	         1.03699e+58
          1357.53410	         9.43743e+57
          1358.34040	         1.08058e+58
          1359.14670	         1.05505e+58
          1359.95300	         1.13922e+58
          1360.75930	         1.26638e+58
          1361.56560	         1.16940e+58
          1362.37190	         1.26355e+58
          1363.17820	         1.17812e+58
          1363.98450	         1.20785e+58
          1364.79080	         1.23571e+58
          1365.59710	         1.28278e+58
          1366.40340	         1.18764e+58
          1367.20970	         8.95719e+57
          1368.01600	         8.29393e+57
          1368.82230	         1.00541e+58
          1369.62860	         1.19321e+58
          1370.43490	         9.55690e+57
          1371.24120	         9.41696e+57
          1372.04750	         9.82081e+57
          1372.85380	         1.11948e+58
          1373.66010	         1.12720e+58
          1374.46640	         1.20586e+58
          1375.27270	         1.21977e+58
          1376.07900	         1.11202e+58
          1376.88530	         9.75670e+57
          1377.69160	         8.35489e+57
          1378.49790	         7.87032e+57
          1379.30420	         8.26864e+57
          1380.11050	         9.04812e+57
          1380.91680	         8.96010e+57
          1381.72310	         9.53284e+57
          1382.52940	         9.01608e+57
          1383.33570	         8.12598e+57
          1384.14200	         9.57749e+57
          1384.94830	         1.03090e+58
          1385.75460	         1.01632e+58
          1386.56090	         1.18139e+58
          1387.36720	         1.08757e+58
          1388.17350	         1.30234e+58
          1388.97980	         1.14480e+58
          1389.78610	         8.80306e+57
          1390.59240	         8.19815e+57
          1391.39870	         6.64405e+57
          1392.20500	         8.24981e+57
          1393.01130	         8.41599e+57
          1393.81760	         8.14568e+57
          1394.62390	         8.19892e+57
          1395.43020	         8.49989e+57
          1396.23650	         8.31438e+57
          1397.04280	         7.79657e+57
          1397.84910	         8.25527e+57
          1398.65540	         8.86057e+57
          1399.46170	         9.76204e+57
          1400.26800	         7.99025e+57
          1401.07430	         7.09382e+57
          1401.88060	         6.79573e+57
          1402.68690	         8.21840e+57
          1403.49320	         8.74263e+57
          1404.29950	         8.98136e+57
          1405.10580	         1.02809e+58
          1405.91210	         1.09407e+58
          1406.71840	         1.09861e+58
          1407.52470	         1.03794e+58
          1408.33100	         9.31496e+57
          1409.13730	         1.15096e+58
          1409.94360	         1.23090e+58
          1410.74990	         1.06639e+58
          1411.55620	         1.03098e+58
          1412.36250	         9.03202e+57
          1413.16880	         8.25472e+57
          1413.97510	         8.02343e+57
          1414.78140	         8.42485e+57
          1415.58770	         1.05680e+58
          1416.39400	         9.62391e+57
          1417.20030	         9.46155e+57
          1418.00660	         9.38291e+57
          1418.81290	         1.00118e+58
          1419.61920	         9.77749e+57
          1420.42550	         1.15771e+58
          1421.23180	         1.29856e+58
          1422.03810	         1.21787e+58
          1422.84440	         1.17090e+58
          1423.65070	         1.32066e+58
          1424.45700	         1.11817e+58
          1425.26330	         7.78161e+57
          1426.06960	         7.69790e+57
          1426.87590	         9.27796e+57
          1427.68220	         1.01894e+58
          1428.48850	         1.13406e+58
          1429.29480	         1.09495e+58
          1430.10110	         1.01195e+58
          1430.90740	         8.71536e+57
          1431.71370	         8.82452e+57
          1432.52000	         8.28210e+57
          1433.32630	         7.53924e+57
          1434.13260	         8.25448e+57
          1434.93890	         8.98115e+57
          1435.74520	         9.39917e+57
          1436.55150	         9.13775e+57
          1437.35780	         8.98105e+57
          1438.16410	         9.38221e+57
          1438.97040	         8.95701e+57
          1439.77670	         8.90704e+57
          1440.58300	         9.74392e+57
          1441.38930	         1.03208e+58
          1442.19560	         9.45702e+57
          1443.00190	         9.48422e+57
          1443.80820	         9.89881e+57
          1444.61450	         9.32299e+57
          1445.42080	         8.09395e+57
          1446.22710	         1.01466e+58
          1447.03340	         1.06029e+58
          1447.83970	         1.12401e+58
          1448.64600	         1.08842e+58
          1449.45230	         9.37377e+57
          1450.25860	         1.01143e+58
          1451.06490	         8.87096e+57
          1451.87120	         7.88149e+57
          1452.67750	         7.57159e+57
          1453.48380	         9.11825e+57
          1454.29010	         8.09865e+57
          1455.09640	         6.85166e+57
          1455.90270	         7.62492e+57
          1456.70900	         8.04453e+57
          1457.51530	         9.35863e+57
          1458.32160	         1.16241e+58
          1459.12790	         1.15558e+58
          1459.93420	         1.03519e+58
          1460.74050	         7.82535e+57
          1461.54680	         7.69808e+57
          1462.35310	         8.07326e+57
          1463.15940	         9.25038e+57
          1463.96570	         1.03194e+58
          1464.77200	         1.17635e+58
          1465.57830	         1.10826e+58
          1466.38460	         9.46477e+57
          1467.19090	         8.81421e+57
          1467.99720	         8.78289e+57
          1468.80350	         8.58558e+57
          1469.60980	         9.75155e+57
          1470.41610	         1.16765e+58
          1471.22240	         1.04595e+58
          1472.02870	         9.20092e+57
          1472.83500	         8.95935e+57
          1473.64130	         9.96308e+57
          1474.44760	         9.44374e+57
          1475.25390	         9.30869e+57
          1476.06020	         9.72458e+57
          1476.86650	         9.30895e+57
          1477.67280	         8.26942e+57
          1478.47910	         7.63428e+57
          1479.28540	         7.76425e+57
          1480.09170	         7.94520e+57
          1480.89800	         8.27713e+57
          1481.70430	         9.28522e+57
          1482.51060	         8.45112e+57
          1483.31690	         8.22874e+57
          1484.12320	         8.01345e+57
          1484.92950	         7.68415e+57
          1485.73580	         8.34025e+57
          1486.54210	         8.81538e+57
          1487.34840	         8.17650e+57
          1488.15470	         9.34964e+57
          1488.96100	         9.62571e+57
          1489.76730	         8.66895e+57
