#sample_470_stacked_spectrum_rest_UV-bands_median_H-alpha_noDC.txt
#median Lum: 1.69204e+42
#Rest-frame wavelength (A) | Luminosity (erg/s/A)
#
          1110.00000	         0.00000e+00
          1110.80630	         4.14625e+59
          1111.61260	         7.03061e+59
          1112.41890	         5.20640e+59
          1113.22520	        -2.27167e+58
          1114.03150	        -2.64535e+58
          1114.83780	         4.86208e+59
          1115.64410	         9.47164e+58
          1116.45040	         1.33616e+58
          1117.25670	        -8.70141e+58
          1118.06300	         2.40852e+58
          1118.86930	         9.25589e+58
          1119.67560	         1.68246e+59
          1120.48190	         3.20046e+58
          1121.28820	        -9.05813e+58
          1122.09450	        -2.77244e+57
          1122.90080	         1.20307e+59
          1123.70710	         1.14572e+59
          1124.51340	         1.19538e+59
          1125.31970	        -2.01026e+57
          1126.12600	        -6.10125e+58
          1126.93230	        -3.80027e+58
          1127.73860	        -2.63266e+58
          1128.54490	         1.55716e+58
          1129.35120	         4.32158e+57
          1130.15750	        -7.88577e+57
          1130.96380	         6.21759e+57
          1131.77010	         3.82760e+58
          1132.57640	         6.25875e+58
          1133.38270	         4.59525e+58
          1134.18900	         1.03178e+58
          1134.99530	         4.38919e+58
          1135.80160	         4.32933e+58
          1136.60790	         1.95198e+58
          1137.41420	         5.42019e+57
          1138.22050	         3.86475e+58
          1139.02680	         5.78377e+58
          1139.83310	         2.71171e+58
          1140.63940	         1.06035e+58
          1141.44570	        -1.92840e+58
          1142.25200	        -1.02357e+58
          1143.05830	         1.37662e+58
          1143.86460	         2.76970e+58
          1144.67090	         1.76927e+58
          1145.47720	         1.64514e+58
          1146.28350	         1.00817e+58
          1147.08980	         1.72918e+58
          1147.89610	         1.47538e+57
          1148.70240	         1.57091e+58
          1149.50870	         2.57324e+58
          1150.31500	         1.63919e+58
          1151.12130	         1.08397e+58
          1151.92760	         6.56564e+57
          1152.73390	        -4.66164e+57
          1153.54020	        -1.01905e+58
          1154.34650	         2.45221e+58
          1155.15280	         2.89673e+58
          1155.95910	         1.04080e+58
          1156.76540	         1.63629e+58
          1157.57170	         5.52043e+57
          1158.37800	        -6.22337e+57
          1159.18430	         1.71875e+57
          1159.99060	         7.53050e+57
          1160.79690	         3.71705e+57
          1161.60320	         7.29680e+57
          1162.40950	         1.00356e+58
          1163.21580	         9.73984e+57
          1164.02210	         1.24001e+58
          1164.82840	         1.03071e+58
          1165.63470	         1.75172e+58
          1166.44100	         2.93471e+58
          1167.24730	         1.81747e+58
          1168.05360	         6.45962e+57
          1168.85990	         8.51367e+57
          1169.66620	         8.22878e+57
          1170.47250	         1.18620e+58
          1171.27880	         1.53883e+58
          1172.08510	         1.79164e+58
          1172.89140	         1.42169e+58
          1173.69770	        -1.27905e+57
          1174.50400	         3.65264e+57
          1175.31030	         1.05107e+58
          1176.11660	         1.63951e+58
          1176.92290	         1.48247e+58
          1177.72920	         1.08159e+58
          1178.53550	         8.37039e+57
          1179.34180	         5.38571e+57
          1180.14810	         1.24477e+58
          1180.95440	         1.00999e+58
          1181.76070	         6.99255e+57
          1182.56700	         9.20544e+57
          1183.37330	         4.71867e+57
          1184.17960	         1.10203e+58
          1184.98590	         1.17457e+58
          1185.79220	         6.07789e+57
          1186.59850	         7.22689e+57
          1187.40480	         1.17370e+58
          1188.21110	         1.56394e+58
          1189.01740	         1.24420e+58
          1189.82370	         1.48231e+58
          1190.63000	         1.44037e+58
          1191.43630	         1.64969e+58
          1192.24260	         1.12676e+58
          1193.04890	         1.30514e+58
          1193.85520	         1.01829e+58
          1194.66150	         5.91975e+57
          1195.46780	         1.15460e+58
          1196.27410	         1.46182e+58
          1197.08040	         5.21164e+57
          1197.88670	         9.79489e+57
          1198.69300	         1.40309e+58
          1199.49930	         1.67894e+58
          1200.30560	         1.07498e+58
          1201.11190	         1.01299e+58
          1201.91820	         9.33492e+57
          1202.72450	         6.77760e+57
          1203.53080	         1.43985e+58
          1204.33710	         6.25070e+57
          1205.14340	         6.86065e+57
          1205.94970	         8.32682e+57
          1206.75600	         5.19264e+57
          1207.56230	         5.47007e+57
          1208.36860	         7.53594e+57
          1209.17490	         2.29398e+57
          1209.98120	         3.51404e+57
          1210.78750	         8.49081e+57
          1211.59380	         1.36987e+58
          1212.40010	         1.82805e+58
          1213.20640	         1.85703e+58
          1214.01270	         2.19148e+58
          1214.81900	         2.81152e+58
          1215.62530	         4.48622e+58
          1216.43160	         8.83142e+58
          1217.23790	         1.49299e+59
          1218.04420	         1.13965e+59
          1218.85050	         8.71354e+58
          1219.65680	         5.71298e+58
          1220.46310	         3.36374e+58
          1221.26940	         2.22347e+58
          1222.07570	         1.38528e+58
          1222.88200	         1.17700e+58
          1223.68830	         9.83989e+57
          1224.49460	         8.41158e+57
          1225.30090	         7.17490e+57
          1226.10720	         7.38980e+57
          1226.91350	         8.86583e+57
          1227.71980	         8.49853e+57
          1228.52610	         9.20433e+57
          1229.33240	         8.22877e+57
          1230.13870	         6.36047e+57
          1230.94500	         5.14741e+57
          1231.75130	         6.63664e+57
          1232.55760	         9.59531e+57
          1233.36390	         9.77860e+57
          1234.17020	         7.32731e+57
          1234.97650	         6.11145e+57
          1235.78280	         7.42623e+57
          1236.58910	         7.36397e+57
          1237.39540	         8.73115e+57
          1238.20170	         1.00933e+58
          1239.00800	         1.27627e+58
          1239.81430	         1.49563e+58
          1240.62060	         1.23639e+58
          1241.42690	         1.36032e+58
          1242.23320	         1.37864e+58
          1243.03950	         1.09242e+58
          1243.84580	         8.07678e+57
          1244.65210	         1.05133e+58
          1245.45840	         9.26927e+57
          1246.26470	         6.83833e+57
          1247.07100	         6.61950e+57
          1247.87730	         4.81952e+57
          1248.68360	         3.52001e+57
          1249.48990	         5.28899e+57
          1250.29620	         9.60684e+57
          1251.10250	         1.04287e+58
          1251.90880	         5.51915e+57
          1252.71510	         3.95730e+57
          1253.52140	         4.87388e+57
          1254.32770	         9.49329e+57
          1255.13400	         1.31071e+58
          1255.94030	         1.05662e+58
          1256.74660	         1.15193e+58
          1257.55290	         1.24039e+58
          1258.35920	         1.06830e+58
          1259.16550	         6.73118e+57
          1259.97180	         3.61864e+57
          1260.77810	         6.72993e+57
          1261.58440	         1.11669e+58
          1262.39070	         9.90013e+57
          1263.19700	         8.93815e+57
          1264.00330	         9.59377e+57
          1264.80960	         1.19928e+58
          1265.61590	         1.23530e+58
          1266.42220	         1.14333e+58
          1267.22850	         1.07927e+58
          1268.03480	         1.22072e+58
          1268.84110	         1.43193e+58
          1269.64740	         1.14193e+58
          1270.45370	         1.18826e+58
          1271.26000	         1.10785e+58
          1272.06630	         7.98855e+57
          1272.87260	         9.24551e+57
          1273.67890	         1.03235e+58
          1274.48520	         1.17005e+58
          1275.29150	         1.21399e+58
          1276.09780	         1.17818e+58
          1276.90410	         1.51609e+58
          1277.71040	         1.22916e+58
          1278.51670	         1.10574e+58
          1279.32300	         1.21574e+58
          1280.12930	         1.05797e+58
          1280.93560	         9.99180e+57
          1281.74190	         1.08505e+58
          1282.54820	         1.35305e+58
          1283.35450	         1.14081e+58
          1284.16080	         1.02217e+58
          1284.96710	         1.28559e+58
          1285.77340	         1.07557e+58
          1286.57970	         9.97389e+57
          1287.38600	         1.58758e+58
          1288.19230	         1.84881e+58
          1288.99860	         1.73508e+58
          1289.80490	         1.24527e+58
          1290.61120	         1.17585e+58
          1291.41750	         1.50684e+58
          1292.22380	         1.45455e+58
          1293.03010	         1.08057e+58
          1293.83640	         1.02967e+58
          1294.64270	         9.37340e+57
          1295.44900	         6.72706e+57
          1296.25530	         6.76109e+57
          1297.06160	         9.36554e+57
          1297.86790	         1.08198e+58
          1298.67420	         1.07325e+58
          1299.48050	         1.02952e+58
          1300.28680	         1.04836e+58
          1301.09310	         7.44235e+57
          1301.89940	         4.68176e+57
          1302.70570	         7.40799e+57
          1303.51200	         8.60087e+57
          1304.31830	         1.06754e+58
          1305.12460	         1.17831e+58
          1305.93090	         1.21021e+58
          1306.73720	         1.30024e+58
          1307.54350	         1.23312e+58
          1308.34980	         1.24692e+58
          1309.15610	         1.59373e+58
          1309.96240	         1.72253e+58
          1310.76870	         1.33094e+58
          1311.57500	         1.05436e+58
          1312.38130	         1.24307e+58
          1313.18760	         1.31521e+58
          1313.99390	         1.46957e+58
          1314.80020	         1.48555e+58
          1315.60650	         1.49680e+58
          1316.41280	         1.26848e+58
          1317.21910	         1.18509e+58
          1318.02540	         1.19279e+58
          1318.83170	         1.20870e+58
          1319.63800	         1.15739e+58
          1320.44430	         1.01991e+58
          1321.25060	         1.24941e+58
          1322.05690	         1.36883e+58
          1322.86320	         1.30500e+58
          1323.66950	         1.04300e+58
          1324.47580	         9.06820e+57
          1325.28210	         9.30609e+57
          1326.08840	         1.02343e+58
          1326.89470	         1.09827e+58
          1327.70100	         1.00860e+58
          1328.50730	         8.94636e+57
          1329.31360	         8.35159e+57
          1330.11990	         8.49557e+57
          1330.92620	         8.88611e+57
          1331.73250	         9.94552e+57
          1332.53880	         9.73458e+57
          1333.34510	         8.70005e+57
          1334.15140	         8.17528e+57
          1334.95770	         9.10644e+57
          1335.76400	         1.05004e+58
          1336.57030	         1.12251e+58
          1337.37660	         1.05847e+58
          1338.18290	         1.05744e+58
          1338.98920	         1.09755e+58
          1339.79550	         1.14812e+58
          1340.60180	         1.19573e+58
          1341.40810	         1.30714e+58
          1342.21440	         1.23805e+58
          1343.02070	         1.37468e+58
          1343.82700	         1.51217e+58
          1344.63330	         1.42020e+58
          1345.43960	         1.34393e+58
          1346.24590	         1.20880e+58
          1347.05220	         1.36083e+58
          1347.85850	         1.23486e+58
          1348.66480	         1.23559e+58
          1349.47110	         1.21021e+58
          1350.27740	         1.04646e+58
          1351.08370	         1.07828e+58
          1351.89000	         1.19857e+58
          1352.69630	         1.11835e+58
          1353.50260	         1.05258e+58
          1354.30890	         1.14487e+58
          1355.11520	         1.12606e+58
          1355.92150	         1.00824e+58
          1356.72780	         1.04934e+58
          1357.53410	         1.10451e+58
          1358.34040	         1.05460e+58
          1359.14670	         1.02816e+58
          1359.95300	         9.82461e+57
          1360.75930	         9.75390e+57
          1361.56560	         1.05740e+58
          1362.37190	         1.11574e+58
          1363.17820	         1.04304e+58
          1363.98450	         1.00464e+58
          1364.79080	         1.12866e+58
          1365.59710	         1.38078e+58
          1366.40340	         1.25213e+58
          1367.20970	         1.00158e+58
          1368.01600	         9.47591e+57
          1368.82230	         8.73021e+57
          1369.62860	         9.43652e+57
          1370.43490	         8.93916e+57
          1371.24120	         9.63897e+57
          1372.04750	         8.93706e+57
          1372.85380	         1.10745e+58
          1373.66010	         1.15518e+58
          1374.46640	         1.10654e+58
          1375.27270	         1.00975e+58
          1376.07900	         8.74131e+57
          1376.88530	         8.18513e+57
          1377.69160	         8.47434e+57
          1378.49790	         7.63977e+57
          1379.30420	         7.41155e+57
          1380.11050	         8.72325e+57
          1380.91680	         9.10569e+57
          1381.72310	         1.02747e+58
          1382.52940	         8.22004e+57
          1383.33570	         6.66697e+57
          1384.14200	         8.58177e+57
          1384.94830	         1.07408e+58
          1385.75460	         8.69514e+57
          1386.56090	         9.89318e+57
          1387.36720	         1.08764e+58
          1388.17350	         1.16421e+58
          1388.97980	         1.15298e+58
          1389.78610	         8.88985e+57
          1390.59240	         8.00821e+57
          1391.39870	         7.19135e+57
          1392.20500	         8.62503e+57
          1393.01130	         8.92271e+57
          1393.81760	         8.98536e+57
          1394.62390	         8.35378e+57
          1395.43020	         5.19644e+57
          1396.23650	         6.39529e+57
          1397.04280	         7.48124e+57
          1397.84910	         8.35814e+57
          1398.65540	         9.29471e+57
          1399.46170	         1.06988e+58
          1400.26800	         8.77790e+57
          1401.07430	         7.81446e+57
          1401.88060	         8.72718e+57
          1402.68690	         9.04886e+57
          1403.49320	         8.79816e+57
          1404.29950	         9.26622e+57
          1405.10580	         1.01160e+58
          1405.91210	         1.02356e+58
          1406.71840	         1.02341e+58
          1407.52470	         1.02901e+58
          1408.33100	         1.01017e+58
          1409.13730	         1.13518e+58
          1409.94360	         1.18344e+58
          1410.74990	         1.18030e+58
          1411.55620	         1.04604e+58
          1412.36250	         9.96449e+57
          1413.16880	         9.81347e+57
          1413.97510	         8.33144e+57
          1414.78140	         9.02832e+57
          1415.58770	         1.00967e+58
          1416.39400	         9.11034e+57
          1417.20030	         1.00779e+58
          1418.00660	         1.04948e+58
          1418.81290	         1.01010e+58
          1419.61920	         1.13701e+58
          1420.42550	         1.24888e+58
          1421.23180	         1.34168e+58
          1422.03810	         1.27541e+58
          1422.84440	         1.20767e+58
          1423.65070	         1.27777e+58
          1424.45700	         1.07068e+58
          1425.26330	         8.00193e+57
          1426.06960	         8.63728e+57
          1426.87590	         1.04082e+58
          1427.68220	         9.56527e+57
          1428.48850	         1.09419e+58
          1429.29480	         1.12626e+58
          1430.10110	         1.08451e+58
          1430.90740	         9.07370e+57
          1431.71370	         7.74109e+57
          1432.52000	         8.63087e+57
          1433.32630	         8.28023e+57
          1434.13260	         7.57531e+57
          1434.93890	         8.73724e+57
          1435.74520	         9.64227e+57
          1436.55150	         8.79502e+57
          1437.35780	         8.48789e+57
          1438.16410	         9.89230e+57
          1438.97040	         1.01380e+58
          1439.77670	         9.89714e+57
          1440.58300	         9.54870e+57
          1441.38930	         9.74424e+57
          1442.19560	         8.42167e+57
          1443.00190	         8.19237e+57
          1443.80820	         1.04637e+58
          1444.61450	         9.27520e+57
          1445.42080	         8.83337e+57
          1446.22710	         1.06902e+58
          1447.03340	         1.01633e+58
          1447.83970	         1.11510e+58
          1448.64600	         1.13103e+58
          1449.45230	         1.10879e+58
          1450.25860	         1.05030e+58
          1451.06490	         8.91431e+57
          1451.87120	         8.10570e+57
          1452.67750	         7.65735e+57
          1453.48380	         8.70712e+57
          1454.29010	         8.15292e+57
          1455.09640	         7.61856e+57
          1455.90270	         9.31022e+57
          1456.70900	         9.27336e+57
          1457.51530	         1.05421e+58
          1458.32160	         1.30915e+58
          1459.12790	         1.31484e+58
          1459.93420	         1.05646e+58
          1460.74050	         8.82585e+57
          1461.54680	         9.19616e+57
          1462.35310	         8.33158e+57
          1463.15940	         9.57664e+57
          1463.96570	         1.10846e+58
          1464.77200	         1.16375e+58
          1465.57830	         1.00014e+58
          1466.38460	         9.16916e+57
          1467.19090	         8.94591e+57
          1467.99720	         9.37881e+57
          1468.80350	         9.41930e+57
          1469.60980	         8.66226e+57
          1470.41610	         1.07117e+58
          1471.22240	         1.05471e+58
          1472.02870	         9.15110e+57
          1472.83500	         9.67018e+57
          1473.64130	         1.02635e+58
          1474.44760	         9.80106e+57
          1475.25390	         1.02262e+58
          1476.06020	         8.98923e+57
          1476.86650	         8.97212e+57
          1477.67280	         8.64639e+57
          1478.47910	         6.60690e+57
          1479.28540	         6.87941e+57
          1480.09170	         9.67129e+57
          1480.89800	         9.92639e+57
          1481.70430	         8.74068e+57
          1482.51060	         8.13614e+57
          1483.31690	         7.67733e+57
          1484.12320	         7.70073e+57
          1484.92950	         8.02638e+57
          1485.73580	         8.25808e+57
          1486.54210	         9.60792e+57
          1487.34840	         9.26723e+57
          1488.15470	         8.97135e+57
          1488.96100	         9.40395e+57
          1489.76730	         9.70947e+57
