#sample_86_stacked_spectrum_rest_UV-bands_median_H-alpha_noDC.txt
#median Lum: 1.65452e+42
#Rest-frame wavelength (A) | Luminosity (erg/s/A)
#
          1110.00000	         0.00000e+00
          1110.80630	         1.82291e+59
          1111.61260	         1.41135e+59
          1112.41890	         4.06563e+59
          1113.22520	         1.02283e+59
          1114.03150	         2.97651e+58
          1114.83780	         2.00138e+59
          1115.64410	         1.74343e+58
          1116.45040	         2.36183e+59
          1117.25670	         1.68544e+58
          1118.06300	         1.40601e+59
          1118.86930	        -2.34108e+58
          1119.67560	         3.35700e+57
          1120.48190	        -3.94347e+58
          1121.28820	        -9.69676e+58
          1122.09450	         8.82182e+57
          1122.90080	         1.01362e+59
          1123.70710	         1.41688e+59
          1124.51340	         3.86037e+58
          1125.31970	         2.09044e+58
          1126.12600	         4.31961e+58
          1126.93230	        -8.79421e+57
          1127.73860	        -5.10014e+58
          1128.54490	         2.54325e+58
          1129.35120	         1.49860e+58
          1130.15750	        -1.60215e+58
          1130.96380	        -3.44335e+58
          1131.77010	         1.56426e+57
          1132.57640	         3.82030e+58
          1133.38270	         2.34722e+58
          1134.18900	        -1.14693e+57
          1134.99530	        -1.57854e+58
          1135.80160	         1.73926e+58
          1136.60790	         1.96337e+58
          1137.41420	         1.41658e+58
          1138.22050	         6.75912e+58
          1139.02680	         2.76783e+58
          1139.83310	         2.61499e+58
          1140.63940	         1.13658e+58
          1141.44570	        -9.34537e+57
          1142.25200	        -2.45889e+58
          1143.05830	         1.13766e+58
          1143.86460	         1.30732e+58
          1144.67090	         2.73096e+58
          1145.47720	         9.59538e+57
          1146.28350	         7.10239e+57
          1147.08980	         6.88869e+57
          1147.89610	         1.04373e+58
          1148.70240	         1.56329e+58
          1149.50870	         2.60911e+58
          1150.31500	         1.01332e+58
          1151.12130	         6.22427e+57
          1151.92760	         6.70390e+57
          1152.73390	         1.01677e+58
          1153.54020	         1.22781e+58
          1154.34650	         2.67131e+58
          1155.15280	         2.24936e+58
          1155.95910	         2.10787e+58
          1156.76540	         2.41112e+58
          1157.57170	         8.23011e+57
          1158.37800	         2.77736e+57
          1159.18430	         5.75807e+57
          1159.99060	         1.26435e+58
          1160.79690	         7.50332e+57
          1161.60320	         1.51027e+58
          1162.40950	         1.85199e+58
          1163.21580	         1.39135e+58
          1164.02210	         1.51657e+58
          1164.82840	         5.09159e+57
          1165.63470	         2.08627e+58
          1166.44100	         2.99606e+58
          1167.24730	         1.62674e+58
          1168.05360	         1.07475e+58
          1168.85990	         4.08178e+57
          1169.66620	         3.40673e+57
          1170.47250	         1.69542e+58
          1171.27880	         3.99119e+57
          1172.08510	         1.45789e+58
          1172.89140	         9.06248e+57
          1173.69770	         7.50290e+57
          1174.50400	         1.45563e+58
          1175.31030	         1.60305e+58
          1176.11660	         1.29112e+58
          1176.92290	         1.46676e+58
          1177.72920	         1.25500e+58
          1178.53550	         6.84377e+57
          1179.34180	         7.27957e+57
          1180.14810	         7.83353e+57
          1180.95440	         7.72145e+57
          1181.76070	         9.16732e+57
          1182.56700	         1.29917e+58
          1183.37330	         8.89964e+57
          1184.17960	         1.08065e+58
          1184.98590	         1.29309e+58
          1185.79220	         7.92678e+57
          1186.59850	         6.78117e+57
          1187.40480	         1.03515e+58
          1188.21110	         1.01757e+58
          1189.01740	         1.23254e+58
          1189.82370	         1.29820e+58
          1190.63000	         9.91405e+57
          1191.43630	         9.79905e+57
          1192.24260	         4.99208e+57
          1193.04890	         1.18717e+58
          1193.85520	         1.30365e+58
          1194.66150	         8.53028e+57
          1195.46780	         8.90603e+57
          1196.27410	         8.81897e+57
          1197.08040	         6.81876e+57
          1197.88670	         1.19082e+58
          1198.69300	         1.44078e+58
          1199.49930	         1.45392e+58
          1200.30560	         1.12398e+58
          1201.11190	         8.81333e+57
          1201.91820	         6.54112e+57
          1202.72450	         8.19914e+57
          1203.53080	         1.27899e+58
          1204.33710	         9.05536e+57
          1205.14340	         9.43151e+57
          1205.94970	         1.00869e+58
          1206.75600	         9.80749e+57
          1207.56230	         8.57587e+57
          1208.36860	         1.20887e+58
          1209.17490	         7.96538e+57
          1209.98120	         6.51072e+57
          1210.78750	         8.66305e+57
          1211.59380	         1.00720e+58
          1212.40010	         1.77051e+58
          1213.20640	         2.03552e+58
          1214.01270	         2.09711e+58
          1214.81900	         2.58149e+58
          1215.62530	         4.51619e+58
          1216.43160	         9.29038e+58
          1217.23790	         1.54303e+59
          1218.04420	         1.12598e+59
          1218.85050	         8.79448e+58
          1219.65680	         6.12345e+58
          1220.46310	         3.58598e+58
          1221.26940	         2.56219e+58
          1222.07570	         1.74661e+58
          1222.88200	         9.37661e+57
          1223.68830	         6.57110e+57
          1224.49460	         5.96217e+57
          1225.30090	         5.56403e+57
          1226.10720	         7.06437e+57
          1226.91350	         7.75663e+57
          1227.71980	         8.39362e+57
          1228.52610	         9.82956e+57
          1229.33240	         8.15695e+57
          1230.13870	         1.00827e+58
          1230.94500	         9.13284e+57
          1231.75130	         5.94587e+57
          1232.55760	         9.32869e+57
          1233.36390	         9.81085e+57
          1234.17020	         9.76355e+57
          1234.97650	         1.08016e+58
          1235.78280	         1.00102e+58
          1236.58910	         7.46738e+57
          1237.39540	         8.64956e+57
          1238.20170	         9.86648e+57
          1239.00800	         1.18392e+58
          1239.81430	         1.24083e+58
          1240.62060	         7.95319e+57
          1241.42690	         7.64344e+57
          1242.23320	         1.02514e+58
          1243.03950	         8.55834e+57
          1243.84580	         8.65425e+57
          1244.65210	         8.48164e+57
          1245.45840	         5.30565e+57
          1246.26470	         7.02694e+57
          1247.07100	         5.88469e+57
          1247.87730	         5.06097e+57
          1248.68360	         6.18519e+57
          1249.48990	         1.07696e+58
          1250.29620	         1.09794e+58
          1251.10250	         8.72746e+57
          1251.90880	         8.05133e+57
          1252.71510	         7.33456e+57
          1253.52140	         7.47115e+57
          1254.32770	         1.03588e+58
          1255.13400	         1.11707e+58
          1255.94030	         1.04463e+58
          1256.74660	         8.66805e+57
          1257.55290	         8.69458e+57
          1258.35920	         8.68068e+57
          1259.16550	         7.28678e+57
          1259.97180	         8.24724e+57
          1260.77810	         9.25069e+57
          1261.58440	         1.16576e+58
          1262.39070	         8.88606e+57
          1263.19700	         6.64228e+57
          1264.00330	         1.06492e+58
          1264.80960	         1.06542e+58
          1265.61590	         1.25571e+58
          1266.42220	         1.44560e+58
          1267.22850	         1.22138e+58
          1268.03480	         1.40361e+58
          1268.84110	         1.58909e+58
          1269.64740	         1.29369e+58
          1270.45370	         1.20116e+58
          1271.26000	         1.38305e+58
          1272.06630	         1.35823e+58
          1272.87260	         1.20412e+58
          1273.67890	         1.08883e+58
          1274.48520	         1.13569e+58
          1275.29150	         1.29105e+58
          1276.09780	         1.14964e+58
          1276.90410	         1.37046e+58
          1277.71040	         1.28813e+58
          1278.51670	         1.09019e+58
          1279.32300	         1.33537e+58
          1280.12930	         1.48810e+58
          1280.93560	         1.25740e+58
          1281.74190	         1.12925e+58
          1282.54820	         1.26618e+58
          1283.35450	         1.25494e+58
          1284.16080	         1.37927e+58
          1284.96710	         1.43149e+58
          1285.77340	         9.85572e+57
          1286.57970	         1.12173e+58
          1287.38600	         1.67045e+58
          1288.19230	         1.73694e+58
          1288.99860	         1.45751e+58
          1289.80490	         1.05484e+58
          1290.61120	         1.33172e+58
          1291.41750	         1.40910e+58
          1292.22380	         1.34361e+58
          1293.03010	         1.29092e+58
          1293.83640	         1.27830e+58
          1294.64270	         1.14498e+58
          1295.44900	         7.41982e+57
          1296.25530	         8.82826e+57
          1297.06160	         1.03033e+58
          1297.86790	         1.32843e+58
          1298.67420	         1.20719e+58
          1299.48050	         1.06964e+58
          1300.28680	         1.03004e+58
          1301.09310	         7.03628e+57
          1301.89940	         4.15442e+57
          1302.70570	         6.03735e+57
          1303.51200	         8.55394e+57
          1304.31830	         1.02741e+58
          1305.12460	         1.09985e+58
          1305.93090	         1.05686e+58
          1306.73720	         1.06907e+58
          1307.54350	         1.22851e+58
          1308.34980	         1.38721e+58
          1309.15610	         1.34794e+58
          1309.96240	         1.38360e+58
          1310.76870	         1.25387e+58
          1311.57500	         1.12564e+58
          1312.38130	         1.11754e+58
          1313.18760	         1.23636e+58
          1313.99390	         1.50312e+58
          1314.80020	         1.77190e+58
          1315.60650	         1.61025e+58
          1316.41280	         1.40422e+58
          1317.21910	         1.47438e+58
          1318.02540	         1.35094e+58
          1318.83170	         1.21028e+58
          1319.63800	         9.96109e+57
          1320.44430	         1.03402e+58
          1321.25060	         1.22470e+58
          1322.05690	         1.21459e+58
          1322.86320	         1.22025e+58
          1323.66950	         1.13593e+58
          1324.47580	         1.03233e+58
          1325.28210	         9.76004e+57
          1326.08840	         9.74353e+57
          1326.89470	         1.21097e+58
          1327.70100	         1.07117e+58
          1328.50730	         7.30920e+57
          1329.31360	         9.50149e+57
          1330.11990	         9.24381e+57
          1330.92620	         8.30418e+57
          1331.73250	         1.04108e+58
          1332.53880	         8.84011e+57
          1333.34510	         8.55579e+57
          1334.15140	         9.40191e+57
          1334.95770	         9.13911e+57
          1335.76400	         1.05540e+58
          1336.57030	         1.17168e+58
          1337.37660	         1.12345e+58
          1338.18290	         1.09464e+58
          1338.98920	         9.53876e+57
          1339.79550	         9.79034e+57
          1340.60180	         1.15141e+58
          1341.40810	         1.25071e+58
          1342.21440	         1.15294e+58
          1343.02070	         1.28126e+58
          1343.82700	         1.59037e+58
          1344.63330	         1.45244e+58
          1345.43960	         1.45025e+58
          1346.24590	         1.17481e+58
          1347.05220	         1.13353e+58
          1347.85850	         1.03580e+58
          1348.66480	         1.09312e+58
          1349.47110	         1.13683e+58
          1350.27740	         1.15923e+58
          1351.08370	         1.20033e+58
          1351.89000	         1.17779e+58
          1352.69630	         1.17346e+58
          1353.50260	         1.16384e+58
          1354.30890	         1.14583e+58
          1355.11520	         1.18252e+58
          1355.92150	         1.15426e+58
          1356.72780	         9.89328e+57
          1357.53410	         1.05943e+58
          1358.34040	         1.03885e+58
          1359.14670	         9.49415e+57
          1359.95300	         1.03162e+58
          1360.75930	         1.11377e+58
          1361.56560	         1.18356e+58
          1362.37190	         1.23039e+58
          1363.17820	         1.11657e+58
          1363.98450	         1.10163e+58
          1364.79080	         1.19314e+58
          1365.59710	         1.34243e+58
          1366.40340	         1.28622e+58
          1367.20970	         1.13196e+58
          1368.01600	         1.09469e+58
          1368.82230	         1.03082e+58
          1369.62860	         1.02725e+58
          1370.43490	         9.87807e+57
          1371.24120	         8.70532e+57
          1372.04750	         7.04565e+57
          1372.85380	         9.64218e+57
          1373.66010	         1.15634e+58
          1374.46640	         1.08750e+58
          1375.27270	         1.03363e+58
          1376.07900	         8.74808e+57
          1376.88530	         8.01173e+57
          1377.69160	         8.31587e+57
          1378.49790	         7.35675e+57
          1379.30420	         7.80398e+57
          1380.11050	         9.35499e+57
          1380.91680	         7.06450e+57
          1381.72310	         6.89360e+57
          1382.52940	         8.11382e+57
          1383.33570	         7.28564e+57
          1384.14200	         8.26308e+57
          1384.94830	         1.15897e+58
          1385.75460	         1.10605e+58
          1386.56090	         1.09612e+58
          1387.36720	         1.11650e+58
          1388.17350	         1.25395e+58
          1388.97980	         1.15551e+58
          1389.78610	         7.54268e+57
          1390.59240	         6.72285e+57
          1391.39870	         6.07921e+57
          1392.20500	         6.97697e+57
          1393.01130	         8.06220e+57
          1393.81760	         7.21309e+57
          1394.62390	         5.97817e+57
          1395.43020	         6.13687e+57
          1396.23650	         6.72231e+57
          1397.04280	         6.05167e+57
          1397.84910	         7.44385e+57
          1398.65540	         8.85369e+57
          1399.46170	         9.43691e+57
          1400.26800	         9.09764e+57
          1401.07430	         8.05570e+57
          1401.88060	         7.62295e+57
          1402.68690	         9.37041e+57
          1403.49320	         9.61326e+57
          1404.29950	         1.05735e+58
          1405.10580	         1.14078e+58
          1405.91210	         1.06530e+58
          1406.71840	         1.04982e+58
          1407.52470	         1.04686e+58
          1408.33100	         1.07054e+58
          1409.13730	         1.18857e+58
          1409.94360	         1.19671e+58
          1410.74990	         1.18751e+58
          1411.55620	         1.12112e+58
          1412.36250	         9.68338e+57
          1413.16880	         8.60758e+57
          1413.97510	         8.24257e+57
          1414.78140	         9.42442e+57
          1415.58770	         1.05917e+58
          1416.39400	         1.03410e+58
          1417.20030	         9.39368e+57
          1418.00660	         8.79221e+57
          1418.81290	         1.05249e+58
          1419.61920	         1.17042e+58
          1420.42550	         1.27043e+58
          1421.23180	         1.31475e+58
          1422.03810	         1.30187e+58
          1422.84440	         1.08334e+58
          1423.65070	         1.18739e+58
          1424.45700	         1.25106e+58
          1425.26330	         1.04112e+58
          1426.06960	         9.46282e+57
          1426.87590	         9.96982e+57
          1427.68220	         9.48854e+57
          1428.48850	         1.05385e+58
          1429.29480	         1.18820e+58
          1430.10110	         9.75573e+57
          1430.90740	         7.93087e+57
          1431.71370	         8.59561e+57
          1432.52000	         8.30323e+57
          1433.32630	         7.55057e+57
          1434.13260	         8.20279e+57
          1434.93890	         8.44989e+57
          1435.74520	         9.35309e+57
          1436.55150	         9.17210e+57
          1437.35780	         9.09729e+57
          1438.16410	         9.49550e+57
          1438.97040	         8.71007e+57
          1439.77670	         8.32808e+57
          1440.58300	         1.01006e+58
          1441.38930	         1.11670e+58
          1442.19560	         9.98878e+57
          1443.00190	         9.28908e+57
          1443.80820	         1.05987e+58
          1444.61450	         1.00330e+58
          1445.42080	         9.11088e+57
          1446.22710	         1.00823e+58
          1447.03340	         9.72634e+57
          1447.83970	         1.02343e+58
          1448.64600	         9.96473e+57
          1449.45230	         9.46534e+57
          1450.25860	         9.43054e+57
          1451.06490	         7.98691e+57
          1451.87120	         6.79506e+57
          1452.67750	         7.35184e+57
          1453.48380	         8.89785e+57
          1454.29010	         7.91536e+57
          1455.09640	         6.98464e+57
          1455.90270	         7.90234e+57
          1456.70900	         8.37341e+57
          1457.51530	         1.01336e+58
          1458.32160	         1.26319e+58
          1459.12790	         1.34905e+58
          1459.93420	         1.05454e+58
          1460.74050	         8.41612e+57
          1461.54680	         8.54681e+57
          1462.35310	         7.80410e+57
          1463.15940	         9.04996e+57
          1463.96570	         1.07709e+58
          1464.77200	         1.15518e+58
          1465.57830	         1.14904e+58
          1466.38460	         1.03366e+58
          1467.19090	         9.15395e+57
          1467.99720	         8.21956e+57
          1468.80350	         9.05278e+57
          1469.60980	         8.89941e+57
          1470.41610	         9.21388e+57
          1471.22240	         8.66084e+57
          1472.02870	         9.64409e+57
          1472.83500	         9.51226e+57
          1473.64130	         9.70246e+57
          1474.44760	         1.00591e+58
          1475.25390	         9.02508e+57
          1476.06020	         8.67590e+57
          1476.86650	         7.75730e+57
          1477.67280	         7.99988e+57
          1478.47910	         7.97021e+57
          1479.28540	         7.99514e+57
          1480.09170	         8.12304e+57
          1480.89800	         7.89231e+57
          1481.70430	         8.18005e+57
          1482.51060	         8.12180e+57
          1483.31690	         8.09131e+57
          1484.12320	         7.44782e+57
          1484.92950	         6.89732e+57
          1485.73580	         7.81079e+57
          1486.54210	         8.34194e+57
          1487.34840	         8.48653e+57
          1488.15470	         8.62147e+57
          1488.96100	         8.90899e+57
          1489.76730	         8.44394e+57
