#sample_404_stacked_spectrum_rest_UV-bands_median_H-alpha_noDC.txt
#median Lum: 1.70979e+42
#Rest-frame wavelength (A) | Luminosity (erg/s/A)
#
          1110.00000	         0.00000e+00
          1110.80630	         8.67429e+58
          1111.61260	         3.19161e+59
          1112.41890	         3.18491e+59
          1113.22520	         2.69823e+58
          1114.03150	        -1.02914e+59
          1114.83780	         1.42085e+59
          1115.64410	         1.93810e+59
          1116.45040	         2.32047e+58
          1117.25670	        -1.91089e+58
          1118.06300	         6.50804e+58
          1118.86930	        -3.82132e+58
          1119.67560	         2.21089e+59
          1120.48190	         8.14960e+58
          1121.28820	        -7.25239e+58
          1122.09450	         3.96465e+58
          1122.90080	         1.05783e+59
          1123.70710	         9.64730e+58
          1124.51340	         8.91739e+58
          1125.31970	         2.87008e+58
          1126.12600	         1.03857e+58
          1126.93230	        -1.82787e+58
          1127.73860	        -6.85473e+58
          1128.54490	        -4.56754e+58
          1129.35120	         5.71000e+57
          1130.15750	        -3.26625e+58
          1130.96380	        -2.36928e+58
          1131.77010	         1.02940e+59
          1132.57640	         6.43118e+58
          1133.38270	         2.12662e+58
          1134.18900	         2.24382e+58
          1134.99530	        -7.27341e+57
          1135.80160	        -1.24997e+58
          1136.60790	         7.22527e+57
          1137.41420	         1.75848e+58
          1138.22050	         4.99403e+58
          1139.02680	         3.07440e+58
          1139.83310	         2.41799e+58
          1140.63940	         2.66760e+58
          1141.44570	        -1.14118e+58
          1142.25200	        -3.91548e+58
          1143.05830	        -1.08388e+57
          1143.86460	         3.07895e+58
          1144.67090	         2.90769e+58
          1145.47720	         3.01738e+58
          1146.28350	         1.64924e+58
          1147.08980	         1.39265e+58
          1147.89610	         1.40670e+58
          1148.70240	         6.53323e+57
          1149.50870	         1.94838e+58
          1150.31500	         2.38237e+58
          1151.12130	         5.14677e+57
          1151.92760	        -3.57644e+56
          1152.73390	         4.97181e+57
          1153.54020	         2.72550e+57
          1154.34650	         1.96761e+58
          1155.15280	         1.83279e+58
          1155.95910	         2.60141e+57
          1156.76540	        -2.96358e+57
          1157.57170	        -1.51702e+57
          1158.37800	         4.01851e+57
          1159.18430	        -4.45228e+56
          1159.99060	         6.25048e+57
          1160.79690	         8.09879e+57
          1161.60320	         1.20833e+58
          1162.40950	         1.81244e+58
          1163.21580	         2.06184e+58
          1164.02210	         1.62256e+58
          1164.82840	         8.94037e+57
          1165.63470	         1.83248e+58
          1166.44100	         2.68132e+58
          1167.24730	         1.96581e+58
          1168.05360	         5.66294e+57
          1168.85990	         1.14484e+58
          1169.66620	         1.47852e+58
          1170.47250	         1.30267e+58
          1171.27880	         1.07814e+58
          1172.08510	         1.42724e+58
          1172.89140	         1.33419e+58
          1173.69770	         5.58053e+57
          1174.50400	         1.10274e+58
          1175.31030	         1.63786e+58
          1176.11660	         2.05469e+58
          1176.92290	         1.68468e+58
          1177.72920	         1.47390e+58
          1178.53550	         7.20974e+57
          1179.34180	         3.11751e+57
          1180.14810	         4.87836e+57
          1180.95440	         7.34251e+57
          1181.76070	         9.05949e+57
          1182.56700	         6.69487e+57
          1183.37330	         4.00729e+57
          1184.17960	         1.23355e+58
          1184.98590	         9.59047e+57
          1185.79220	         8.08320e+57
          1186.59850	         1.08042e+58
          1187.40480	         1.01689e+58
          1188.21110	         1.32635e+58
          1189.01740	         1.06864e+58
          1189.82370	         7.10811e+57
          1190.63000	         1.47471e+58
          1191.43630	         1.60332e+58
          1192.24260	         9.46358e+57
          1193.04890	         1.24614e+58
          1193.85520	         1.05556e+58
          1194.66150	         6.11894e+57
          1195.46780	         1.42696e+58
          1196.27410	         1.18126e+58
          1197.08040	         7.20371e+57
          1197.88670	         1.52090e+58
          1198.69300	         1.44286e+58
          1199.49930	         1.32086e+58
          1200.30560	         1.06516e+58
          1201.11190	         1.43429e+58
          1201.91820	         1.28536e+58
          1202.72450	         7.25987e+57
          1203.53080	         1.56624e+58
          1204.33710	         1.01487e+58
          1205.14340	         8.03808e+57
          1205.94970	         9.29916e+57
          1206.75600	         8.76445e+57
          1207.56230	         5.20507e+57
          1208.36860	         9.12363e+57
          1209.17490	         3.15615e+57
          1209.98120	         5.13114e+57
          1210.78750	         9.04586e+57
          1211.59380	         1.10128e+58
          1212.40010	         2.05597e+58
          1213.20640	         1.80094e+58
          1214.01270	         1.85910e+58
          1214.81900	         2.53387e+58
          1215.62530	         4.57140e+58
          1216.43160	         9.16625e+58
          1217.23790	         1.50971e+59
          1218.04420	         1.15399e+59
          1218.85050	         8.74644e+58
          1219.65680	         6.06436e+58
          1220.46310	         3.78741e+58
          1221.26940	         2.66956e+58
          1222.07570	         1.59536e+58
          1222.88200	         1.41245e+58
          1223.68830	         1.26592e+58
          1224.49460	         9.77397e+57
          1225.30090	         8.35786e+57
          1226.10720	         7.46333e+57
          1226.91350	         7.18988e+57
          1227.71980	         8.38059e+57
          1228.52610	         1.17997e+58
          1229.33240	         1.32599e+58
          1230.13870	         1.21080e+58
          1230.94500	         9.62066e+57
          1231.75130	         5.25732e+57
          1232.55760	         7.44967e+57
          1233.36390	         1.03488e+58
          1234.17020	         1.07845e+58
          1234.97650	         8.91583e+57
          1235.78280	         7.90013e+57
          1236.58910	         8.38921e+57
          1237.39540	         1.12273e+58
          1238.20170	         1.20268e+58
          1239.00800	         1.19484e+58
          1239.81430	         1.49369e+58
          1240.62060	         1.03393e+58
          1241.42690	         9.81206e+57
          1242.23320	         1.40450e+58
          1243.03950	         9.21189e+57
          1243.84580	         8.00834e+57
          1244.65210	         1.14207e+58
          1245.45840	         1.00748e+58
          1246.26470	         9.08698e+57
          1247.07100	         8.13066e+57
          1247.87730	         4.73575e+57
          1248.68360	         3.89126e+57
          1249.48990	         8.57298e+57
          1250.29620	         1.08703e+58
          1251.10250	         5.92201e+57
          1251.90880	         5.84191e+57
          1252.71510	         6.65879e+57
          1253.52140	         5.80697e+57
          1254.32770	         8.87025e+57
          1255.13400	         1.29059e+58
          1255.94030	         1.23758e+58
          1256.74660	         1.13876e+58
          1257.55290	         1.28341e+58
          1258.35920	         9.51839e+57
          1259.16550	         4.42981e+57
          1259.97180	         4.51625e+57
          1260.77810	         9.93185e+57
          1261.58440	         1.08281e+58
          1262.39070	         8.67706e+57
          1263.19700	         7.54466e+57
          1264.00330	         7.44305e+57
          1264.80960	         8.62856e+57
          1265.61590	         1.14689e+58
          1266.42220	         1.35059e+58
          1267.22850	         1.18100e+58
          1268.03480	         1.30693e+58
          1268.84110	         1.46953e+58
          1269.64740	         1.40736e+58
          1270.45370	         1.58464e+58
          1271.26000	         1.15888e+58
          1272.06630	         1.00127e+58
          1272.87260	         1.34410e+58
          1273.67890	         1.43490e+58
          1274.48520	         1.47511e+58
          1275.29150	         1.33318e+58
          1276.09780	         1.21324e+58
          1276.90410	         1.57390e+58
          1277.71040	         1.32672e+58
          1278.51670	         1.31362e+58
          1279.32300	         1.36018e+58
          1280.12930	         1.23079e+58
          1280.93560	         1.21205e+58
          1281.74190	         1.20470e+58
          1282.54820	         1.43316e+58
          1283.35450	         1.14671e+58
          1284.16080	         1.16785e+58
          1284.96710	         1.40613e+58
          1285.77340	         1.06958e+58
          1286.57970	         1.05534e+58
          1287.38600	         1.53664e+58
          1288.19230	         1.67687e+58
          1288.99860	         1.59601e+58
          1289.80490	         1.27395e+58
          1290.61120	         1.32901e+58
          1291.41750	         1.48565e+58
          1292.22380	         1.29701e+58
          1293.03010	         1.20050e+58
          1293.83640	         1.20810e+58
          1294.64270	         9.84307e+57
          1295.44900	         6.92566e+57
          1296.25530	         7.98227e+57
          1297.06160	         9.35735e+57
          1297.86790	         1.10694e+58
          1298.67420	         1.03278e+58
          1299.48050	         1.10996e+58
          1300.28680	         1.12083e+58
          1301.09310	         8.57279e+57
          1301.89940	         4.41821e+57
          1302.70570	         5.33068e+57
          1303.51200	         8.74076e+57
          1304.31830	         1.10806e+58
          1305.12460	         1.17252e+58
          1305.93090	         1.27718e+58
          1306.73720	         1.39734e+58
          1307.54350	         1.40614e+58
          1308.34980	         1.43708e+58
          1309.15610	         1.44551e+58
          1309.96240	         1.50377e+58
          1310.76870	         1.23796e+58
          1311.57500	         1.15492e+58
          1312.38130	         1.38011e+58
          1313.18760	         1.56979e+58
          1313.99390	         1.63691e+58
          1314.80020	         1.49611e+58
          1315.60650	         1.50779e+58
          1316.41280	         1.46993e+58
          1317.21910	         1.36987e+58
          1318.02540	         1.27667e+58
          1318.83170	         1.14128e+58
          1319.63800	         1.05200e+58
          1320.44430	         1.01124e+58
          1321.25060	         1.27620e+58
          1322.05690	         1.31656e+58
          1322.86320	         1.25455e+58
          1323.66950	         1.16277e+58
          1324.47580	         9.66916e+57
          1325.28210	         1.08107e+58
          1326.08840	         1.13245e+58
          1326.89470	         1.10506e+58
          1327.70100	         1.04006e+58
          1328.50730	         9.67217e+57
          1329.31360	         1.11874e+58
          1330.11990	         1.15293e+58
          1330.92620	         1.04544e+58
          1331.73250	         1.20233e+58
          1332.53880	         1.11976e+58
          1333.34510	         9.15876e+57
          1334.15140	         9.23441e+57
          1334.95770	         1.04470e+58
          1335.76400	         1.11180e+58
          1336.57030	         1.16546e+58
          1337.37660	         1.11680e+58
          1338.18290	         1.13383e+58
          1338.98920	         1.33984e+58
          1339.79550	         1.28374e+58
          1340.60180	         1.28624e+58
          1341.40810	         1.31939e+58
          1342.21440	         1.13280e+58
          1343.02070	         1.27176e+58
          1343.82700	         1.40106e+58
          1344.63330	         1.23095e+58
          1345.43960	         1.26479e+58
          1346.24590	         1.15540e+58
          1347.05220	         1.28034e+58
          1347.85850	         1.21792e+58
          1348.66480	         1.32365e+58
          1349.47110	         1.36000e+58
          1350.27740	         1.12879e+58
          1351.08370	         1.15610e+58
          1351.89000	         1.18930e+58
          1352.69630	         1.10850e+58
          1353.50260	         1.10248e+58
          1354.30890	         1.22854e+58
          1355.11520	         1.32506e+58
          1355.92150	         1.24788e+58
          1356.72780	         1.10321e+58
          1357.53410	         1.10608e+58
          1358.34040	         1.10215e+58
          1359.14670	         1.05807e+58
          1359.95300	         1.10852e+58
          1360.75930	         1.13231e+58
          1361.56560	         1.20793e+58
          1362.37190	         1.27669e+58
          1363.17820	         1.10564e+58
          1363.98450	         1.23962e+58
          1364.79080	         1.39054e+58
          1365.59710	         1.27040e+58
          1366.40340	         1.14753e+58
          1367.20970	         1.07414e+58
          1368.01600	         1.13636e+58
          1368.82230	         1.00574e+58
          1369.62860	         1.00110e+58
          1370.43490	         1.12708e+58
          1371.24120	         9.82507e+57
          1372.04750	         8.42354e+57
          1372.85380	         1.09876e+58
          1373.66010	         1.21892e+58
          1374.46640	         1.08925e+58
          1375.27270	         1.19336e+58
          1376.07900	         1.16785e+58
          1376.88530	         1.05469e+58
          1377.69160	         8.79036e+57
          1378.49790	         6.60887e+57
          1379.30420	         8.13100e+57
          1380.11050	         9.91913e+57
          1380.91680	         8.09604e+57
          1381.72310	         7.96558e+57
          1382.52940	         9.32760e+57
          1383.33570	         9.05620e+57
          1384.14200	         8.81391e+57
          1384.94830	         9.74907e+57
          1385.75460	         1.07090e+58
          1386.56090	         1.10071e+58
          1387.36720	         1.12735e+58
          1388.17350	         1.37393e+58
          1388.97980	         1.16316e+58
          1389.78610	         8.51041e+57
          1390.59240	         8.61516e+57
          1391.39870	         8.72015e+57
          1392.20500	         8.38286e+57
          1393.01130	         7.50507e+57
          1393.81760	         7.64761e+57
          1394.62390	         8.55018e+57
          1395.43020	         7.12370e+57
          1396.23650	         7.22868e+57
          1397.04280	         7.52554e+57
          1397.84910	         1.04221e+58
          1398.65540	         1.10171e+58
          1399.46170	         1.04920e+58
          1400.26800	         9.25960e+57
          1401.07430	         9.23994e+57
          1401.88060	         8.82133e+57
          1402.68690	         8.55166e+57
          1403.49320	         9.27083e+57
          1404.29950	         8.90186e+57
          1405.10580	         1.06356e+58
          1405.91210	         1.19148e+58
          1406.71840	         1.11043e+58
          1407.52470	         1.10994e+58
          1408.33100	         1.14174e+58
          1409.13730	         1.21120e+58
          1409.94360	         1.17512e+58
          1410.74990	         1.17566e+58
          1411.55620	         9.40813e+57
          1412.36250	         9.31541e+57
          1413.16880	         1.07172e+58
          1413.97510	         9.55603e+57
          1414.78140	         9.68145e+57
          1415.58770	         1.12882e+58
          1416.39400	         1.12571e+58
          1417.20030	         1.05494e+58
          1418.00660	         1.03230e+58
          1418.81290	         9.93292e+57
          1419.61920	         1.01082e+58
          1420.42550	         1.17867e+58
          1421.23180	         1.39010e+58
          1422.03810	         1.37122e+58
          1422.84440	         1.18406e+58
          1423.65070	         1.37373e+58
          1424.45700	         1.12985e+58
          1425.26330	         9.23796e+57
          1426.06960	         1.03870e+58
          1426.87590	         1.04775e+58
          1427.68220	         9.89376e+57
          1428.48850	         1.12221e+58
          1429.29480	         1.04755e+58
          1430.10110	         1.06508e+58
          1430.90740	         8.71225e+57
          1431.71370	         7.91208e+57
          1432.52000	         7.88088e+57
          1433.32630	         7.79548e+57
          1434.13260	         7.83707e+57
          1434.93890	         7.54798e+57
          1435.74520	         8.96342e+57
          1436.55150	         9.97903e+57
          1437.35780	         8.85420e+57
          1438.16410	         8.88435e+57
          1438.97040	         8.60216e+57
          1439.77670	         1.02932e+58
          1440.58300	         1.09669e+58
          1441.38930	         1.00454e+58
          1442.19560	         1.08489e+58
          1443.00190	         1.04792e+58
          1443.80820	         1.07272e+58
          1444.61450	         1.04125e+58
          1445.42080	         9.65002e+57
          1446.22710	         1.16662e+58
          1447.03340	         1.17393e+58
          1447.83970	         9.96419e+57
          1448.64600	         9.61298e+57
          1449.45230	         9.71051e+57
          1450.25860	         1.03873e+58
          1451.06490	         1.00565e+58
          1451.87120	         8.47126e+57
          1452.67750	         8.03014e+57
          1453.48380	         9.23360e+57
          1454.29010	         8.69755e+57
          1455.09640	         7.75395e+57
          1455.90270	         9.04920e+57
          1456.70900	         9.63162e+57
          1457.51530	         1.00548e+58
          1458.32160	         1.26225e+58
          1459.12790	         1.24125e+58
          1459.93420	         9.61714e+57
          1460.74050	         7.40215e+57
          1461.54680	         7.45735e+57
          1462.35310	         8.74363e+57
          1463.15940	         1.03411e+58
          1463.96570	         1.06863e+58
          1464.77200	         1.17235e+58
          1465.57830	         1.09771e+58
          1466.38460	         8.96818e+57
          1467.19090	         9.24916e+57
          1467.99720	         9.03813e+57
          1468.80350	         9.26833e+57
          1469.60980	         9.71559e+57
          1470.41610	         1.06735e+58
          1471.22240	         9.61053e+57
          1472.02870	         9.20565e+57
          1472.83500	         1.03146e+58
          1473.64130	         9.52951e+57
          1474.44760	         9.13466e+57
          1475.25390	         9.11413e+57
          1476.06020	         9.46488e+57
          1476.86650	         1.05981e+58
          1477.67280	         9.15196e+57
          1478.47910	         7.63498e+57
          1479.28540	         8.26803e+57
          1480.09170	         9.69885e+57
          1480.89800	         9.48930e+57
          1481.70430	         9.37031e+57
          1482.51060	         9.99218e+57
          1483.31690	         9.86329e+57
          1484.12320	         7.71979e+57
          1484.92950	         7.62498e+57
          1485.73580	         8.73799e+57
          1486.54210	         9.44618e+57
          1487.34840	         9.81059e+57
          1488.15470	         8.75343e+57
          1488.96100	         8.04543e+57
          1489.76730	         8.22641e+57
