#sample_442_stacked_spectrum_rest_UV-bands_median_H-alpha_noDC.txt
#median Lum: 1.68664e+42
#Rest-frame wavelength (A) | Luminosity (erg/s/A)
#
          1110.00000	         0.00000e+00
          1110.80630	        -5.47448e+59
          1111.61260	        -1.04088e+59
          1112.41890	         1.50116e+59
          1113.22520	         1.35566e+59
          1114.03150	         8.11256e+58
          1114.83780	         7.36554e+58
          1115.64410	         7.05527e+58
          1116.45040	         3.26898e+59
          1117.25670	         4.16149e+58
          1118.06300	         2.06058e+59
          1118.86930	         1.34959e+58
          1119.67560	         4.18163e+58
          1120.48190	         4.76973e+58
          1121.28820	        -7.64483e+58
          1122.09450	        -2.92301e+58
          1122.90080	        -2.12939e+58
          1123.70710	         2.63641e+58
          1124.51340	         2.73101e+57
          1125.31970	        -3.80972e+58
          1126.12600	         1.91658e+58
          1126.93230	        -3.42552e+58
          1127.73860	         3.44023e+58
          1128.54490	        -1.43332e+58
          1129.35120	         1.42152e+58
          1130.15750	        -3.42382e+58
          1130.96380	        -5.03928e+58
          1131.77010	         1.65329e+58
          1132.57640	         4.30421e+58
          1133.38270	         2.57371e+58
          1134.18900	         2.41768e+58
          1134.99530	         1.81877e+58
          1135.80160	         2.80090e+58
          1136.60790	        -2.89901e+57
          1137.41420	        -1.98468e+58
          1138.22050	         2.36986e+58
          1139.02680	         1.46234e+58
          1139.83310	         1.17881e+58
          1140.63940	         1.75986e+58
          1141.44570	        -5.20964e+57
          1142.25200	         1.16682e+58
          1143.05830	         1.59515e+58
          1143.86460	         1.00514e+58
          1144.67090	        -1.06195e+58
          1145.47720	         1.01910e+58
          1146.28350	         6.36213e+57
          1147.08980	         1.15635e+58
          1147.89610	         1.16254e+58
          1148.70240	         1.66073e+58
          1149.50870	         1.99444e+58
          1150.31500	         1.98664e+58
          1151.12130	         3.75020e+57
          1151.92760	        -8.28369e+57
          1152.73390	         2.69419e+57
          1153.54020	         8.77809e+57
          1154.34650	         1.79172e+58
          1155.15280	         1.36865e+58
          1155.95910	         1.76204e+58
          1156.76540	         1.98184e+58
          1157.57170	         3.88534e+57
          1158.37800	        -1.79509e+55
          1159.18430	        -2.85359e+57
          1159.99060	         1.08292e+58
          1160.79690	         4.48293e+57
          1161.60320	         2.07514e+58
          1162.40950	         1.83932e+58
          1163.21580	         1.60167e+58
          1164.02210	         1.84152e+58
          1164.82840	         2.04767e+58
          1165.63470	         1.65200e+58
          1166.44100	         2.39821e+58
          1167.24730	         1.89237e+58
          1168.05360	         9.43305e+57
          1168.85990	         8.20576e+57
          1169.66620	         4.47785e+57
          1170.47250	         1.38686e+58
          1171.27880	         2.21727e+58
          1172.08510	         1.06912e+58
          1172.89140	         1.64177e+57
          1173.69770	         1.54687e+58
          1174.50400	         1.72308e+58
          1175.31030	         1.16283e+58
          1176.11660	         7.36794e+57
          1176.92290	         1.41420e+58
          1177.72920	         1.38789e+58
          1178.53550	         7.95919e+57
          1179.34180	         1.92228e+57
          1180.14810	         6.47909e+57
          1180.95440	         1.13143e+58
          1181.76070	         8.57848e+57
          1182.56700	         7.23185e+57
          1183.37330	         8.25335e+57
          1184.17960	         1.15721e+58
          1184.98590	         1.19685e+58
          1185.79220	         1.35555e+58
          1186.59850	         1.58816e+58
          1187.40480	         9.98631e+57
          1188.21110	         1.09565e+58
          1189.01740	         8.88704e+57
          1189.82370	         8.20888e+57
          1190.63000	         1.10158e+58
          1191.43630	         9.23478e+57
          1192.24260	         4.98581e+56
          1193.04890	         8.96115e+57
          1193.85520	         1.02905e+58
          1194.66150	         3.35927e+57
          1195.46780	         1.09169e+58
          1196.27410	         1.30565e+58
          1197.08040	         1.10351e+58
          1197.88670	         1.63869e+58
          1198.69300	         1.45629e+58
          1199.49930	         1.54760e+58
          1200.30560	         1.37776e+58
          1201.11190	         1.25151e+58
          1201.91820	         9.74802e+57
          1202.72450	         7.33532e+57
          1203.53080	         1.51245e+58
          1204.33710	         9.50804e+57
          1205.14340	         8.30127e+57
          1205.94970	         2.30770e+57
          1206.75600	         3.01042e+57
          1207.56230	         6.31846e+57
          1208.36860	         7.30088e+57
          1209.17490	         2.63399e+57
          1209.98120	         2.26406e+57
          1210.78750	         4.33460e+57
          1211.59380	         1.10752e+58
          1212.40010	         1.90173e+58
          1213.20640	         2.08046e+58
          1214.01270	         2.20833e+58
          1214.81900	         2.76249e+58
          1215.62530	         4.43421e+58
          1216.43160	         8.93901e+58
          1217.23790	         1.51282e+59
          1218.04420	         1.20440e+59
          1218.85050	         9.21771e+58
          1219.65680	         6.12652e+58
          1220.46310	         3.50602e+58
          1221.26940	         2.34233e+58
          1222.07570	         1.58329e+58
          1222.88200	         1.26677e+58
          1223.68830	         9.69517e+57
          1224.49460	         7.74247e+57
          1225.30090	         8.61045e+57
          1226.10720	         8.15289e+57
          1226.91350	         6.67172e+57
          1227.71980	         6.65684e+57
          1228.52610	         9.64554e+57
          1229.33240	         5.84433e+57
          1230.13870	         6.88574e+57
          1230.94500	         7.37644e+57
          1231.75130	         5.86690e+57
          1232.55760	         7.58452e+57
          1233.36390	         9.54735e+57
          1234.17020	         1.02950e+58
          1234.97650	         9.53111e+57
          1235.78280	         8.48587e+57
          1236.58910	         1.00185e+58
          1237.39540	         1.12031e+58
          1238.20170	         1.20954e+58
          1239.00800	         1.24814e+58
          1239.81430	         1.28528e+58
          1240.62060	         9.99945e+57
          1241.42690	         9.04144e+57
          1242.23320	         9.81771e+57
          1243.03950	         7.69090e+57
          1243.84580	         8.46546e+57
          1244.65210	         1.09349e+58
          1245.45840	         9.80650e+57
          1246.26470	         7.34189e+57
          1247.07100	         6.10704e+57
          1247.87730	         9.72517e+57
          1248.68360	         4.50412e+57
          1249.48990	         8.52633e+57
          1250.29620	         9.01101e+57
          1251.10250	         5.38669e+57
          1251.90880	         4.66669e+57
          1252.71510	         5.87896e+57
          1253.52140	         8.05271e+57
          1254.32770	         1.29845e+58
          1255.13400	         1.44741e+58
          1255.94030	         1.12875e+58
          1256.74660	         7.81628e+57
          1257.55290	         9.31861e+57
          1258.35920	         8.16107e+57
          1259.16550	         4.12370e+57
          1259.97180	         7.40580e+57
          1260.77810	         9.57512e+57
          1261.58440	         1.21123e+58
          1262.39070	         1.05427e+58
          1263.19700	         1.02065e+58
          1264.00330	         1.00844e+58
          1264.80960	         1.06067e+58
          1265.61590	         1.28974e+58
          1266.42220	         1.16628e+58
          1267.22850	         1.11603e+58
          1268.03480	         1.48879e+58
          1268.84110	         1.53722e+58
          1269.64740	         1.22246e+58
          1270.45370	         1.36839e+58
          1271.26000	         1.27779e+58
          1272.06630	         1.20988e+58
          1272.87260	         1.14232e+58
          1273.67890	         1.14445e+58
          1274.48520	         1.30031e+58
          1275.29150	         1.27564e+58
          1276.09780	         1.16568e+58
          1276.90410	         1.37664e+58
          1277.71040	         1.30645e+58
          1278.51670	         1.41208e+58
          1279.32300	         1.52888e+58
          1280.12930	         1.34312e+58
          1280.93560	         1.19908e+58
          1281.74190	         1.30662e+58
          1282.54820	         1.30314e+58
          1283.35450	         9.66835e+57
          1284.16080	         8.76051e+57
          1284.96710	         1.11965e+58
          1285.77340	         1.05207e+58
          1286.57970	         1.03411e+58
          1287.38600	         1.55168e+58
          1288.19230	         1.92183e+58
          1288.99860	         1.48710e+58
          1289.80490	         1.15241e+58
          1290.61120	         1.27593e+58
          1291.41750	         1.33947e+58
          1292.22380	         1.43120e+58
          1293.03010	         1.12693e+58
          1293.83640	         1.17111e+58
          1294.64270	         9.98581e+57
          1295.44900	         6.22309e+57
          1296.25530	         6.92050e+57
          1297.06160	         9.64741e+57
          1297.86790	         1.18440e+58
          1298.67420	         9.85134e+57
          1299.48050	         1.02862e+58
          1300.28680	         1.17781e+58
          1301.09310	         8.63820e+57
          1301.89940	         4.55124e+57
          1302.70570	         6.11401e+57
          1303.51200	         9.13389e+57
          1304.31830	         1.14775e+58
          1305.12460	         1.21563e+58
          1305.93090	         1.08239e+58
          1306.73720	         1.17610e+58
          1307.54350	         1.40909e+58
          1308.34980	         1.54712e+58
          1309.15610	         1.58393e+58
          1309.96240	         1.54836e+58
          1310.76870	         1.30441e+58
          1311.57500	         1.05534e+58
          1312.38130	         1.22469e+58
          1313.18760	         1.56772e+58
          1313.99390	         1.80123e+58
          1314.80020	         1.66815e+58
          1315.60650	         1.43165e+58
          1316.41280	         1.35781e+58
          1317.21910	         1.19639e+58
          1318.02540	         1.13119e+58
          1318.83170	         1.29588e+58
          1319.63800	         1.14527e+58
          1320.44430	         9.48768e+57
          1321.25060	         1.23528e+58
          1322.05690	         1.34308e+58
          1322.86320	         1.29336e+58
          1323.66950	         1.23671e+58
          1324.47580	         1.10100e+58
          1325.28210	         1.14330e+58
          1326.08840	         1.09187e+58
          1326.89470	         1.17476e+58
          1327.70100	         1.04296e+58
          1328.50730	         9.33229e+57
          1329.31360	         1.08225e+58
          1330.11990	         1.00661e+58
          1330.92620	         9.02416e+57
          1331.73250	         1.12738e+58
          1332.53880	         9.47832e+57
          1333.34510	         8.37366e+57
          1334.15140	         9.23440e+57
          1334.95770	         1.07390e+58
          1335.76400	         1.21113e+58
          1336.57030	         1.11256e+58
          1337.37660	         9.28216e+57
          1338.18290	         1.13750e+58
          1338.98920	         1.33387e+58
          1339.79550	         1.13740e+58
          1340.60180	         1.28198e+58
          1341.40810	         1.46659e+58
          1342.21440	         1.25946e+58
          1343.02070	         1.14747e+58
          1343.82700	         1.32159e+58
          1344.63330	         1.34753e+58
          1345.43960	         1.31340e+58
          1346.24590	         1.12396e+58
          1347.05220	         1.15151e+58
          1347.85850	         1.16219e+58
          1348.66480	         1.35595e+58
          1349.47110	         1.29456e+58
          1350.27740	         1.21099e+58
          1351.08370	         1.23524e+58
          1351.89000	         1.20922e+58
          1352.69630	         1.20833e+58
          1353.50260	         1.12857e+58
          1354.30890	         1.17348e+58
          1355.11520	         1.34199e+58
          1355.92150	         1.07974e+58
          1356.72780	         8.96933e+57
          1357.53410	         1.02789e+58
          1358.34040	         1.09603e+58
          1359.14670	         1.09829e+58
          1359.95300	         1.10559e+58
          1360.75930	         1.10132e+58
          1361.56560	         1.25537e+58
          1362.37190	         1.32243e+58
          1363.17820	         1.15482e+58
          1363.98450	         1.38241e+58
          1364.79080	         1.39686e+58
          1365.59710	         1.25920e+58
          1366.40340	         1.20841e+58
          1367.20970	         1.06731e+58
          1368.01600	         9.60020e+57
          1368.82230	         9.25400e+57
          1369.62860	         1.04176e+58
          1370.43490	         9.71495e+57
          1371.24120	         9.60098e+57
          1372.04750	         1.00584e+58
          1372.85380	         1.15952e+58
          1373.66010	         1.12221e+58
          1374.46640	         1.03785e+58
          1375.27270	         1.22442e+58
          1376.07900	         1.05489e+58
          1376.88530	         8.27127e+57
          1377.69160	         8.01661e+57
          1378.49790	         7.11044e+57
          1379.30420	         8.60596e+57
          1380.11050	         8.77201e+57
          1380.91680	         7.86947e+57
          1381.72310	         8.11336e+57
          1382.52940	         9.26938e+57
          1383.33570	         1.07567e+58
          1384.14200	         1.11758e+58
          1384.94830	         9.28022e+57
          1385.75460	         9.24578e+57
          1386.56090	         9.72577e+57
          1387.36720	         1.05291e+58
          1388.17350	         1.29578e+58
          1388.97980	         1.27847e+58
          1389.78610	         9.73850e+57
          1390.59240	         8.56134e+57
          1391.39870	         6.89163e+57
          1392.20500	         7.98742e+57
          1393.01130	         7.99098e+57
          1393.81760	         5.89256e+57
          1394.62390	         5.68728e+57
          1395.43020	         6.34998e+57
          1396.23650	         5.70293e+57
          1397.04280	         7.06836e+57
          1397.84910	         9.14237e+57
          1398.65540	         9.00917e+57
          1399.46170	         1.05518e+58
          1400.26800	         9.36913e+57
          1401.07430	         7.57522e+57
          1401.88060	         7.43044e+57
          1402.68690	         9.63677e+57
          1403.49320	         9.69749e+57
          1404.29950	         8.38246e+57
          1405.10580	         9.83878e+57
          1405.91210	         1.03499e+58
          1406.71840	         1.01949e+58
          1407.52470	         9.95413e+57
          1408.33100	         1.04862e+58
          1409.13730	         1.13653e+58
          1409.94360	         1.23327e+58
          1410.74990	         1.21902e+58
          1411.55620	         9.54198e+57
          1412.36250	         8.51719e+57
          1413.16880	         9.56127e+57
          1413.97510	         9.41007e+57
          1414.78140	         8.11923e+57
          1415.58770	         8.11466e+57
          1416.39400	         9.64282e+57
          1417.20030	         1.10335e+58
          1418.00660	         1.00305e+58
          1418.81290	         1.06177e+58
          1419.61920	         1.08390e+58
          1420.42550	         1.27976e+58
          1421.23180	         1.41762e+58
          1422.03810	         1.22894e+58
          1422.84440	         1.14177e+58
          1423.65070	         1.23683e+58
          1424.45700	         1.09814e+58
          1425.26330	         8.05654e+57
          1426.06960	         7.97816e+57
          1426.87590	         9.63004e+57
          1427.68220	         1.01865e+58
          1428.48850	         1.03087e+58
          1429.29480	         1.10326e+58
          1430.10110	         1.09143e+58
          1430.90740	         9.47008e+57
          1431.71370	         9.31281e+57
          1432.52000	         8.69827e+57
          1433.32630	         8.48854e+57
          1434.13260	         1.03719e+58
          1434.93890	         9.42810e+57
          1435.74520	         8.61604e+57
          1436.55150	         9.88705e+57
          1437.35780	         9.80990e+57
          1438.16410	         9.74448e+57
          1438.97040	         9.53976e+57
          1439.77670	         8.96709e+57
          1440.58300	         9.90586e+57
          1441.38930	         1.11196e+58
          1442.19560	         1.01888e+58
          1443.00190	         9.58421e+57
          1443.80820	         1.19829e+58
          1444.61450	         1.13945e+58
          1445.42080	         9.41143e+57
          1446.22710	         1.03419e+58
          1447.03340	         1.01874e+58
          1447.83970	         1.05188e+58
          1448.64600	         9.92949e+57
          1449.45230	         9.92617e+57
          1450.25860	         1.04683e+58
          1451.06490	         9.09848e+57
          1451.87120	         7.80043e+57
          1452.67750	         7.46411e+57
          1453.48380	         8.60974e+57
          1454.29010	         8.47108e+57
          1455.09640	         9.04091e+57
          1455.90270	         9.51401e+57
          1456.70900	         9.34245e+57
          1457.51530	         1.03511e+58
          1458.32160	         1.19346e+58
          1459.12790	         1.22268e+58
          1459.93420	         1.08371e+58
          1460.74050	         8.41746e+57
          1461.54680	         8.16859e+57
          1462.35310	         7.30425e+57
          1463.15940	         9.07305e+57
          1463.96570	         1.06429e+58
          1464.77200	         1.13666e+58
          1465.57830	         1.11682e+58
          1466.38460	         9.85410e+57
          1467.19090	         8.96455e+57
          1467.99720	         9.78867e+57
          1468.80350	         1.01459e+58
          1469.60980	         9.31468e+57
          1470.41610	         1.04615e+58
          1471.22240	         1.04561e+58
          1472.02870	         9.79914e+57
          1472.83500	         1.06764e+58
          1473.64130	         9.75312e+57
          1474.44760	         9.51203e+57
          1475.25390	         1.05568e+58
          1476.06020	         9.32005e+57
          1476.86650	         8.66911e+57
          1477.67280	         8.14398e+57
          1478.47910	         7.14475e+57
          1479.28540	         7.75689e+57
          1480.09170	         8.68756e+57
          1480.89800	         8.87917e+57
          1481.70430	         8.69947e+57
          1482.51060	         7.89764e+57
          1483.31690	         7.45468e+57
          1484.12320	         7.73006e+57
          1484.92950	         8.08467e+57
          1485.73580	         8.34361e+57
          1486.54210	         8.09723e+57
          1487.34840	         7.81298e+57
          1488.15470	         8.04698e+57
          1488.96100	         9.15123e+57
          1489.76730	         9.52059e+57
