#sample_326_stacked_spectrum_rest_UV-bands_median_H-alpha_noDC.txt
#median Lum: 1.70502e+42
#Rest-frame wavelength (A) | Luminosity (erg/s/A)
#
          1110.00000	         0.00000e+00
          1110.80630	        -1.07093e+59
          1111.61260	         1.14387e+59
          1112.41890	         1.91559e+59
          1113.22520	         9.52594e+58
          1114.03150	        -9.81265e+58
          1114.83780	        -1.24305e+59
          1115.64410	         4.04264e+58
          1116.45040	        -2.46066e+58
          1117.25670	         9.51824e+58
          1118.06300	         4.61317e+58
          1118.86930	        -9.03312e+57
          1119.67560	         2.57931e+58
          1120.48190	         4.97218e+57
          1121.28820	        -1.80310e+59
          1122.09450	         1.80765e+58
          1122.90080	         6.83813e+58
          1123.70710	         7.70351e+58
          1124.51340	         4.68257e+58
          1125.31970	         6.58415e+58
          1126.12600	         2.47928e+58
          1126.93230	        -5.36755e+58
          1127.73860	        -6.30476e+58
          1128.54490	         2.35811e+58
          1129.35120	         4.37817e+58
          1130.15750	        -2.46184e+58
          1130.96380	        -2.61023e+58
          1131.77010	         1.97097e+58
          1132.57640	         3.58776e+58
          1133.38270	         3.06441e+58
          1134.18900	         3.27818e+58
          1134.99530	         2.83151e+58
          1135.80160	         1.58636e+58
          1136.60790	         1.18189e+58
          1137.41420	        -2.34387e+57
          1138.22050	         2.00435e+58
          1139.02680	         2.39062e+58
          1139.83310	         3.51196e+58
          1140.63940	         1.71435e+58
          1141.44570	        -1.80337e+58
          1142.25200	        -8.42441e+57
          1143.05830	         1.04499e+58
          1143.86460	         2.35031e+58
          1144.67090	         4.60553e+58
          1145.47720	         2.28250e+58
          1146.28350	         1.88326e+58
          1147.08980	         1.78613e+58
          1147.89610	         2.80278e+58
          1148.70240	         2.25498e+58
          1149.50870	         2.39875e+58
          1150.31500	         1.81162e+58
          1151.12130	         1.44067e+57
          1151.92760	         3.65631e+57
          1152.73390	        -5.46878e+56
          1153.54020	        -1.19446e+58
          1154.34650	         1.50648e+58
          1155.15280	         1.61642e+58
          1155.95910	         1.99805e+58
          1156.76540	         1.01295e+58
          1157.57170	        -5.76007e+57
          1158.37800	         1.97551e+57
          1159.18430	        -7.17950e+56
          1159.99060	        -1.51137e+57
          1160.79690	         1.30656e+57
          1161.60320	         9.76330e+57
          1162.40950	         1.11380e+58
          1163.21580	         1.64287e+58
          1164.02210	         1.88787e+58
          1164.82840	         1.10597e+58
          1165.63470	         1.58737e+58
          1166.44100	         2.82141e+58
          1167.24730	         2.48057e+58
          1168.05360	         1.47800e+58
          1168.85990	         6.68621e+57
          1169.66620	         3.96640e+57
          1170.47250	         1.74037e+58
          1171.27880	         1.64809e+58
          1172.08510	         1.56821e+58
          1172.89140	         1.43489e+58
          1173.69770	         1.14126e+58
          1174.50400	         1.66129e+58
          1175.31030	         1.57545e+58
          1176.11660	         1.99852e+58
          1176.92290	         1.85580e+58
          1177.72920	         1.49093e+58
          1178.53550	         6.85963e+57
          1179.34180	         2.70328e+57
          1180.14810	         4.20867e+57
          1180.95440	         7.90728e+57
          1181.76070	         4.47764e+57
          1182.56700	         5.03884e+57
          1183.37330	         3.63362e+57
          1184.17960	         1.06579e+58
          1184.98590	         1.52938e+58
          1185.79220	         9.75527e+57
          1186.59850	         1.53400e+58
          1187.40480	         1.23650e+58
          1188.21110	         1.36021e+58
          1189.01740	         1.05918e+58
          1189.82370	         1.01222e+58
          1190.63000	         1.31058e+58
          1191.43630	         1.48496e+58
          1192.24260	         1.22861e+58
          1193.04890	         1.50940e+58
          1193.85520	         1.04176e+58
          1194.66150	         3.12074e+57
          1195.46780	         8.88111e+57
          1196.27410	         1.22235e+58
          1197.08040	         7.76623e+57
          1197.88670	         1.16278e+58
          1198.69300	         1.65180e+58
          1199.49930	         1.85848e+58
          1200.30560	         1.09138e+58
          1201.11190	         9.58835e+57
          1201.91820	         1.10866e+58
          1202.72450	         9.03736e+57
          1203.53080	         1.68116e+58
          1204.33710	         7.21098e+57
          1205.14340	         6.13746e+57
          1205.94970	         3.80898e+57
          1206.75600	         4.34244e+57
          1207.56230	         3.17123e+57
          1208.36860	         8.89018e+57
          1209.17490	         4.02940e+57
          1209.98120	         3.77713e+57
          1210.78750	         6.51776e+57
          1211.59380	         1.00890e+58
          1212.40010	         1.81291e+58
          1213.20640	         2.08968e+58
          1214.01270	         2.32577e+58
          1214.81900	         2.88933e+58
          1215.62530	         4.64378e+58
          1216.43160	         8.83257e+58
          1217.23790	         1.51735e+59
          1218.04420	         1.14542e+59
          1218.85050	         9.03415e+58
          1219.65680	         6.10052e+58
          1220.46310	         3.74828e+58
          1221.26940	         2.38752e+58
          1222.07570	         8.93831e+57
          1222.88200	         8.02147e+57
          1223.68830	         9.27841e+57
          1224.49460	         7.59409e+57
          1225.30090	         6.97384e+57
          1226.10720	         5.62976e+57
          1226.91350	         6.16217e+57
          1227.71980	         8.81274e+57
          1228.52610	         1.09094e+58
          1229.33240	         7.14715e+57
          1230.13870	         4.71358e+57
          1230.94500	         8.46739e+57
          1231.75130	         8.13253e+57
          1232.55760	         8.56094e+57
          1233.36390	         7.44161e+57
          1234.17020	         7.16641e+57
          1234.97650	         6.98851e+57
          1235.78280	         7.73966e+57
          1236.58910	         1.11486e+58
          1237.39540	         1.21252e+58
          1238.20170	         1.13435e+58
          1239.00800	         1.30194e+58
          1239.81430	         1.55698e+58
          1240.62060	         1.37832e+58
          1241.42690	         1.11532e+58
          1242.23320	         1.11236e+58
          1243.03950	         6.86437e+57
          1243.84580	         5.91722e+57
          1244.65210	         9.29784e+57
          1245.45840	         9.37126e+57
          1246.26470	         9.72498e+57
          1247.07100	         5.83999e+57
          1247.87730	         3.08201e+57
          1248.68360	         3.42590e+57
          1249.48990	         1.00479e+58
          1250.29620	         1.31623e+58
          1251.10250	         6.62998e+57
          1251.90880	         4.03865e+57
          1252.71510	         5.14050e+57
          1253.52140	         6.07059e+57
          1254.32770	         9.14444e+57
          1255.13400	         1.46125e+58
          1255.94030	         1.26998e+58
          1256.74660	         1.14545e+58
          1257.55290	         1.16548e+58
          1258.35920	         8.76437e+57
          1259.16550	         6.74976e+57
          1259.97180	         5.71875e+57
          1260.77810	         8.75531e+57
          1261.58440	         1.09113e+58
          1262.39070	         7.95836e+57
          1263.19700	         9.07429e+57
          1264.00330	         8.90986e+57
          1264.80960	         7.61978e+57
          1265.61590	         1.08259e+58
          1266.42220	         1.11522e+58
          1267.22850	         9.83334e+57
          1268.03480	         1.31892e+58
          1268.84110	         1.37467e+58
          1269.64740	         1.16164e+58
          1270.45370	         1.28249e+58
          1271.26000	         1.12184e+58
          1272.06630	         1.17137e+58
          1272.87260	         1.50065e+58
          1273.67890	         1.34848e+58
          1274.48520	         1.05942e+58
          1275.29150	         1.18347e+58
          1276.09780	         1.22301e+58
          1276.90410	         1.49040e+58
          1277.71040	         1.40474e+58
          1278.51670	         1.24550e+58
          1279.32300	         1.60481e+58
          1280.12930	         1.56008e+58
          1280.93560	         1.34566e+58
          1281.74190	         1.28843e+58
          1282.54820	         1.43100e+58
          1283.35450	         1.04904e+58
          1284.16080	         9.74896e+57
          1284.96710	         1.31326e+58
          1285.77340	         1.36352e+58
          1286.57970	         1.26483e+58
          1287.38600	         1.38053e+58
          1288.19230	         1.74191e+58
          1288.99860	         1.55339e+58
          1289.80490	         1.05443e+58
          1290.61120	         1.14515e+58
          1291.41750	         1.43163e+58
          1292.22380	         1.10271e+58
          1293.03010	         9.01074e+57
          1293.83640	         1.14647e+58
          1294.64270	         8.54700e+57
          1295.44900	         5.51202e+57
          1296.25530	         7.51558e+57
          1297.06160	         1.03164e+58
          1297.86790	         9.55910e+57
          1298.67420	         7.77067e+57
          1299.48050	         9.60585e+57
          1300.28680	         1.05282e+58
          1301.09310	         7.95886e+57
          1301.89940	         4.70784e+57
          1302.70570	         6.12383e+57
          1303.51200	         7.67003e+57
          1304.31830	         7.99228e+57
          1305.12460	         9.71644e+57
          1305.93090	         1.12464e+58
          1306.73720	         1.35297e+58
          1307.54350	         1.47420e+58
          1308.34980	         1.43647e+58
          1309.15610	         1.58339e+58
          1309.96240	         1.69420e+58
          1310.76870	         1.43512e+58
          1311.57500	         1.18117e+58
          1312.38130	         1.41637e+58
          1313.18760	         1.58295e+58
          1313.99390	         1.57121e+58
          1314.80020	         1.67525e+58
          1315.60650	         1.39323e+58
          1316.41280	         1.01773e+58
          1317.21910	         9.83329e+57
          1318.02540	         1.01655e+58
          1318.83170	         1.22039e+58
          1319.63800	         1.24466e+58
          1320.44430	         1.26170e+58
          1321.25060	         1.23269e+58
          1322.05690	         1.15893e+58
          1322.86320	         1.23995e+58
          1323.66950	         1.21710e+58
          1324.47580	         8.89009e+57
          1325.28210	         1.00084e+58
          1326.08840	         1.21897e+58
          1326.89470	         1.23724e+58
          1327.70100	         1.11491e+58
          1328.50730	         9.49916e+57
          1329.31360	         1.02995e+58
          1330.11990	         9.92511e+57
          1330.92620	         9.13713e+57
          1331.73250	         1.20096e+58
          1332.53880	         1.16225e+58
          1333.34510	         8.37014e+57
          1334.15140	         7.93262e+57
          1334.95770	         8.95986e+57
          1335.76400	         1.08489e+58
          1336.57030	         1.06608e+58
          1337.37660	         9.75646e+57
          1338.18290	         1.13469e+58
          1338.98920	         1.25328e+58
          1339.79550	         1.13688e+58
          1340.60180	         1.23396e+58
          1341.40810	         1.43142e+58
          1342.21440	         1.08075e+58
          1343.02070	         9.46727e+57
          1343.82700	         1.22199e+58
          1344.63330	         1.20749e+58
          1345.43960	         1.22223e+58
          1346.24590	         1.17007e+58
          1347.05220	         1.29394e+58
          1347.85850	         1.16907e+58
          1348.66480	         1.22064e+58
          1349.47110	         1.41155e+58
          1350.27740	         1.35537e+58
          1351.08370	         1.08729e+58
          1351.89000	         9.84770e+57
          1352.69630	         1.00720e+58
          1353.50260	         1.07535e+58
          1354.30890	         1.16098e+58
          1355.11520	         1.31063e+58
          1355.92150	         1.23633e+58
          1356.72780	         1.17991e+58
          1357.53410	         1.11833e+58
          1358.34040	         1.07659e+58
          1359.14670	         1.09313e+58
          1359.95300	         1.12973e+58
          1360.75930	         1.06358e+58
          1361.56560	         9.89698e+57
          1362.37190	         1.05317e+58
          1363.17820	         1.06977e+58
          1363.98450	         1.12503e+58
          1364.79080	         1.25930e+58
          1365.59710	         1.40355e+58
          1366.40340	         1.38093e+58
          1367.20970	         1.13042e+58
          1368.01600	         9.71711e+57
          1368.82230	         9.31906e+57
          1369.62860	         9.74790e+57
          1370.43490	         8.13436e+57
          1371.24120	         9.48923e+57
          1372.04750	         1.00829e+58
          1372.85380	         1.05909e+58
          1373.66010	         9.85395e+57
          1374.46640	         9.82266e+57
          1375.27270	         9.78640e+57
          1376.07900	         8.43220e+57
          1376.88530	         9.11194e+57
          1377.69160	         1.04372e+58
          1378.49790	         8.65895e+57
          1379.30420	         8.48623e+57
          1380.11050	         9.30405e+57
          1380.91680	         8.44742e+57
          1381.72310	         7.78516e+57
          1382.52940	         7.47499e+57
          1383.33570	         8.02661e+57
          1384.14200	         9.79015e+57
          1384.94830	         1.17605e+58
          1385.75460	         1.22768e+58
          1386.56090	         1.23172e+58
          1387.36720	         1.20190e+58
          1388.17350	         1.36282e+58
          1388.97980	         1.09529e+58
          1389.78610	         8.26117e+57
          1390.59240	         8.10308e+57
          1391.39870	         7.42625e+57
          1392.20500	         7.50185e+57
          1393.01130	         7.66800e+57
          1393.81760	         6.69135e+57
          1394.62390	         6.12650e+57
          1395.43020	         6.09591e+57
          1396.23650	         6.63975e+57
          1397.04280	         7.55502e+57
          1397.84910	         8.95939e+57
          1398.65540	         9.85293e+57
          1399.46170	         1.04832e+58
          1400.26800	         8.38505e+57
          1401.07430	         7.39594e+57
          1401.88060	         8.50722e+57
          1402.68690	         9.44192e+57
          1403.49320	         9.31563e+57
          1404.29950	         8.94866e+57
          1405.10580	         9.41757e+57
          1405.91210	         1.09138e+58
          1406.71840	         1.23251e+58
          1407.52470	         1.10674e+58
          1408.33100	         1.04946e+58
          1409.13730	         1.14604e+58
          1409.94360	         1.12620e+58
          1410.74990	         1.09165e+58
          1411.55620	         1.05711e+58
          1412.36250	         9.62374e+57
          1413.16880	         8.82262e+57
          1413.97510	         7.86846e+57
          1414.78140	         8.36678e+57
          1415.58770	         1.04868e+58
          1416.39400	         1.27032e+58
          1417.20030	         1.28457e+58
          1418.00660	         1.03208e+58
          1418.81290	         8.68797e+57
          1419.61920	         8.64770e+57
          1420.42550	         1.20819e+58
          1421.23180	         1.42829e+58
          1422.03810	         1.33008e+58
          1422.84440	         1.19652e+58
          1423.65070	         1.28473e+58
          1424.45700	         1.14476e+58
          1425.26330	         9.25321e+57
          1426.06960	         1.01477e+58
          1426.87590	         1.06513e+58
          1427.68220	         1.02190e+58
          1428.48850	         1.07688e+58
          1429.29480	         1.06387e+58
          1430.10110	         1.00931e+58
          1430.90740	         8.13032e+57
          1431.71370	         7.65264e+57
          1432.52000	         7.78455e+57
          1433.32630	         7.56946e+57
          1434.13260	         8.23076e+57
          1434.93890	         7.22661e+57
          1435.74520	         8.38132e+57
          1436.55150	         9.59143e+57
          1437.35780	         9.33312e+57
          1438.16410	         9.15460e+57
          1438.97040	         8.03200e+57
          1439.77670	         8.80589e+57
          1440.58300	         9.71699e+57
          1441.38930	         9.46813e+57
          1442.19560	         1.03400e+58
          1443.00190	         9.28879e+57
          1443.80820	         1.02481e+58
          1444.61450	         9.51659e+57
          1445.42080	         7.78395e+57
          1446.22710	         1.01684e+58
          1447.03340	         1.02878e+58
          1447.83970	         9.56567e+57
          1448.64600	         1.00126e+58
          1449.45230	         9.41098e+57
          1450.25860	         1.01242e+58
          1451.06490	         9.18713e+57
          1451.87120	         8.10900e+57
          1452.67750	         7.76049e+57
          1453.48380	         8.26552e+57
          1454.29010	         8.33420e+57
          1455.09640	         7.66455e+57
          1455.90270	         8.97548e+57
          1456.70900	         9.11772e+57
          1457.51530	         1.00594e+58
          1458.32160	         1.20235e+58
          1459.12790	         1.22792e+58
          1459.93420	         1.16504e+58
          1460.74050	         9.46369e+57
          1461.54680	         8.81226e+57
          1462.35310	         8.47061e+57
          1463.15940	         8.82377e+57
          1463.96570	         1.04704e+58
          1464.77200	         1.14930e+58
          1465.57830	         1.09996e+58
          1466.38460	         1.01233e+58
          1467.19090	         9.27499e+57
          1467.99720	         8.62009e+57
          1468.80350	         9.17525e+57
          1469.60980	         1.02241e+58
          1470.41610	         1.07988e+58
          1471.22240	         9.74812e+57
          1472.02870	         1.05987e+58
          1472.83500	         9.85980e+57
          1473.64130	         8.92792e+57
          1474.44760	         9.09881e+57
          1475.25390	         8.39085e+57
          1476.06020	         7.33311e+57
          1476.86650	         8.56876e+57
          1477.67280	         8.38467e+57
          1478.47910	         6.54830e+57
          1479.28540	         7.23527e+57
          1480.09170	         8.70508e+57
          1480.89800	         8.26727e+57
          1481.70430	         8.56636e+57
          1482.51060	         7.88187e+57
          1483.31690	         7.32123e+57
          1484.12320	         7.23956e+57
          1484.92950	         7.87561e+57
          1485.73580	         8.90344e+57
          1486.54210	         8.04903e+57
          1487.34840	         8.65894e+57
          1488.15470	         8.92311e+57
          1488.96100	         8.86046e+57
          1489.76730	         9.45064e+57
