#sample_152_stacked_spectrum_rest_UV-bands_median_H-alpha_noDC.txt
#median Lum: 1.66941e+42
#Rest-frame wavelength (A) | Luminosity (erg/s/A)
#
          1110.00000	         0.00000e+00
          1110.80630	        -1.61150e+59
          1111.61260	        -5.95256e+58
          1112.41890	         2.39598e+59
          1113.22520	         1.63955e+59
          1114.03150	        -2.99668e+58
          1114.83780	         1.67447e+59
          1115.64410	         5.26145e+58
          1116.45040	         1.97025e+59
          1117.25670	        -6.00753e+58
          1118.06300	         2.44025e+59
          1118.86930	        -7.83736e+58
          1119.67560	        -9.88866e+57
          1120.48190	        -8.95809e+58
          1121.28820	        -1.05572e+59
          1122.09450	        -2.64210e+58
          1122.90080	        -4.73834e+57
          1123.70710	         4.61782e+58
          1124.51340	         7.86771e+58
          1125.31970	         3.35067e+58
          1126.12600	        -1.92056e+58
          1126.93230	        -7.17608e+58
          1127.73860	        -7.45037e+58
          1128.54490	        -5.46467e+58
          1129.35120	         4.15197e+57
          1130.15750	         1.07510e+58
          1130.96380	         5.93640e+57
          1131.77010	         8.75693e+58
          1132.57640	         6.06590e+58
          1133.38270	         1.69685e+58
          1134.18900	         2.04680e+58
          1134.99530	         3.95155e+57
          1135.80160	         1.59353e+58
          1136.60790	         7.52382e+57
          1137.41420	         3.15356e+58
          1138.22050	         2.90468e+58
          1139.02680	         3.77312e+58
          1139.83310	         3.34052e+58
          1140.63940	         2.64002e+58
          1141.44570	         2.31877e+57
          1142.25200	        -6.54378e+57
          1143.05830	         2.92347e+58
          1143.86460	         2.65077e+58
          1144.67090	         2.45926e+58
          1145.47720	         6.07542e+57
          1146.28350	         2.15758e+57
          1147.08980	         1.02493e+58
          1147.89610	         1.05497e+58
          1148.70240	         2.29668e+58
          1149.50870	         1.76347e+58
          1150.31500	         1.21199e+58
          1151.12130	        -3.08624e+57
          1151.92760	         7.13705e+57
          1152.73390	         7.09605e+57
          1153.54020	        -7.27962e+57
          1154.34650	         2.08656e+58
          1155.15280	         2.30057e+58
          1155.95910	         1.00126e+58
          1156.76540	         7.02283e+57
          1157.57170	         4.76946e+57
          1158.37800	         3.80391e+57
          1159.18430	        -7.28774e+57
          1159.99060	         6.66045e+57
          1160.79690	         1.51005e+58
          1161.60320	         1.95103e+58
          1162.40950	         6.96913e+57
          1163.21580	         1.40661e+58
          1164.02210	         6.85999e+57
          1164.82840	         9.69081e+57
          1165.63470	         2.42423e+58
          1166.44100	         3.53941e+58
          1167.24730	         1.39390e+58
          1168.05360	         4.14245e+57
          1168.85990	         1.40806e+58
          1169.66620	         8.53153e+57
          1170.47250	         6.02399e+57
          1171.27880	         2.66289e+57
          1172.08510	         5.34528e+57
          1172.89140	         9.54234e+57
          1173.69770	         8.98138e+57
          1174.50400	         1.36345e+58
          1175.31030	         1.79840e+58
          1176.11660	         1.42915e+58
          1176.92290	         1.45141e+58
          1177.72920	         1.12068e+58
          1178.53550	         6.08062e+57
          1179.34180	         5.86415e+57
          1180.14810	         5.67870e+57
          1180.95440	         5.56961e+57
          1181.76070	         5.93429e+57
          1182.56700	         1.50684e+58
          1183.37330	         7.85666e+57
          1184.17960	         1.01804e+58
          1184.98590	         9.36833e+57
          1185.79220	         2.28439e+57
          1186.59850	         7.37551e+57
          1187.40480	         1.19860e+58
          1188.21110	         1.44003e+58
          1189.01740	         1.06371e+58
          1189.82370	         1.00123e+58
          1190.63000	         1.32546e+58
          1191.43630	         1.45569e+58
          1192.24260	         8.76032e+57
          1193.04890	         1.04274e+58
          1193.85520	         1.22496e+58
          1194.66150	         6.17571e+57
          1195.46780	         6.92262e+57
          1196.27410	         1.88989e+58
          1197.08040	         1.54113e+58
          1197.88670	         9.88296e+57
          1198.69300	         1.37098e+58
          1199.49930	         1.67125e+58
          1200.30560	         9.63214e+57
          1201.11190	         8.35668e+57
          1201.91820	         1.04547e+58
          1202.72450	         9.45943e+57
          1203.53080	         1.57803e+58
          1204.33710	         1.01812e+58
          1205.14340	         8.82761e+57
          1205.94970	         1.10383e+58
          1206.75600	         8.03168e+57
          1207.56230	         9.33708e+57
          1208.36860	         1.07027e+58
          1209.17490	         5.29155e+57
          1209.98120	         7.85119e+57
          1210.78750	         1.01668e+58
          1211.59380	         1.51058e+58
          1212.40010	         1.89886e+58
          1213.20640	         2.39531e+58
          1214.01270	         2.36960e+58
          1214.81900	         2.85460e+58
          1215.62530	         4.75485e+58
          1216.43160	         9.30899e+58
          1217.23790	         1.56151e+59
          1218.04420	         1.15362e+59
          1218.85050	         8.51060e+58
          1219.65680	         5.98165e+58
          1220.46310	         3.54496e+58
          1221.26940	         2.44108e+58
          1222.07570	         1.44160e+58
          1222.88200	         1.17627e+58
          1223.68830	         8.54912e+57
          1224.49460	         5.44527e+57
          1225.30090	         4.42741e+57
          1226.10720	         4.99635e+57
          1226.91350	         8.32310e+57
          1227.71980	         1.13927e+58
          1228.52610	         1.23021e+58
          1229.33240	         1.15897e+58
          1230.13870	         1.01646e+58
          1230.94500	         9.64531e+57
          1231.75130	         7.77426e+57
          1232.55760	         8.24377e+57
          1233.36390	         9.42907e+57
          1234.17020	         1.06546e+58
          1234.97650	         9.48525e+57
          1235.78280	         8.13205e+57
          1236.58910	         9.67114e+57
          1237.39540	         1.02485e+58
          1238.20170	         9.70144e+57
          1239.00800	         1.36220e+58
          1239.81430	         1.48398e+58
          1240.62060	         1.14513e+58
          1241.42690	         1.17894e+58
          1242.23320	         1.22077e+58
          1243.03950	         6.87193e+57
          1243.84580	         8.77446e+57
          1244.65210	         1.22602e+58
          1245.45840	         1.25961e+58
          1246.26470	         1.13123e+58
          1247.07100	         6.96030e+57
          1247.87730	         4.40277e+57
          1248.68360	         4.89096e+57
          1249.48990	         1.12074e+58
          1250.29620	         1.45009e+58
          1251.10250	         9.14770e+57
          1251.90880	         4.52981e+57
          1252.71510	         4.83724e+57
          1253.52140	         8.01431e+57
          1254.32770	         1.07945e+58
          1255.13400	         1.29804e+58
          1255.94030	         1.17000e+58
          1256.74660	         9.31110e+57
          1257.55290	         1.01603e+58
          1258.35920	         8.34489e+57
          1259.16550	         4.94703e+57
          1259.97180	         4.42829e+57
          1260.77810	         8.55378e+57
          1261.58440	         9.53589e+57
          1262.39070	         8.96248e+57
          1263.19700	         8.99744e+57
          1264.00330	         8.76359e+57
          1264.80960	         1.01923e+58
          1265.61590	         1.24902e+58
          1266.42220	         1.26341e+58
          1267.22850	         1.14157e+58
          1268.03480	         1.38072e+58
          1268.84110	         1.51139e+58
          1269.64740	         1.33188e+58
          1270.45370	         1.26434e+58
          1271.26000	         1.04626e+58
          1272.06630	         1.08859e+58
          1272.87260	         1.38024e+58
          1273.67890	         1.27970e+58
          1274.48520	         1.15922e+58
          1275.29150	         1.11395e+58
          1276.09780	         1.15908e+58
          1276.90410	         1.51876e+58
          1277.71040	         1.25478e+58
          1278.51670	         1.30516e+58
          1279.32300	         1.46417e+58
          1280.12930	         1.26752e+58
          1280.93560	         1.22701e+58
          1281.74190	         1.19876e+58
          1282.54820	         1.40469e+58
          1283.35450	         1.22352e+58
          1284.16080	         1.05230e+58
          1284.96710	         1.35618e+58
          1285.77340	         1.18884e+58
          1286.57970	         1.03275e+58
          1287.38600	         1.39673e+58
          1288.19230	         1.65742e+58
          1288.99860	         1.47566e+58
          1289.80490	         1.11844e+58
          1290.61120	         1.33501e+58
          1291.41750	         1.46742e+58
          1292.22380	         1.20613e+58
          1293.03010	         1.11497e+58
          1293.83640	         1.26695e+58
          1294.64270	         1.12631e+58
          1295.44900	         6.35969e+57
          1296.25530	         7.35927e+57
          1297.06160	         9.54013e+57
          1297.86790	         1.01877e+58
          1298.67420	         9.34943e+57
          1299.48050	         9.73808e+57
          1300.28680	         1.01332e+58
          1301.09310	         8.47938e+57
          1301.89940	         3.66176e+57
          1302.70570	         4.75941e+57
          1303.51200	         7.55781e+57
          1304.31830	         1.02345e+58
          1305.12460	         1.17392e+58
          1305.93090	         1.12650e+58
          1306.73720	         1.17261e+58
          1307.54350	         1.45034e+58
          1308.34980	         1.51457e+58
          1309.15610	         1.53799e+58
          1309.96240	         1.53889e+58
          1310.76870	         1.42588e+58
          1311.57500	         1.11848e+58
          1312.38130	         8.91560e+57
          1313.18760	         1.23967e+58
          1313.99390	         1.52088e+58
          1314.80020	         1.40546e+58
          1315.60650	         1.22156e+58
          1316.41280	         1.05067e+58
          1317.21910	         1.08985e+58
          1318.02540	         1.28274e+58
          1318.83170	         1.38059e+58
          1319.63800	         1.21792e+58
          1320.44430	         1.13359e+58
          1321.25060	         1.18008e+58
          1322.05690	         1.22184e+58
          1322.86320	         1.10009e+58
          1323.66950	         1.08184e+58
          1324.47580	         1.09268e+58
          1325.28210	         1.14162e+58
          1326.08840	         1.09967e+58
          1326.89470	         1.12956e+58
          1327.70100	         1.04742e+58
          1328.50730	         8.31815e+57
          1329.31360	         8.33659e+57
          1330.11990	         9.64039e+57
          1330.92620	         9.30843e+57
          1331.73250	         1.03238e+58
          1332.53880	         1.07132e+58
          1333.34510	         9.76782e+57
          1334.15140	         8.77589e+57
          1334.95770	         9.13859e+57
          1335.76400	         1.03217e+58
          1336.57030	         1.01250e+58
          1337.37660	         9.75388e+57
          1338.18290	         1.06767e+58
          1338.98920	         1.07621e+58
          1339.79550	         1.03957e+58
          1340.60180	         1.01977e+58
          1341.40810	         1.13834e+58
          1342.21440	         1.29668e+58
          1343.02070	         1.33299e+58
          1343.82700	         1.28154e+58
          1344.63330	         1.32015e+58
          1345.43960	         1.48837e+58
          1346.24590	         1.25415e+58
          1347.05220	         1.18220e+58
          1347.85850	         1.12186e+58
          1348.66480	         1.17257e+58
          1349.47110	         1.23674e+58
          1350.27740	         1.05143e+58
          1351.08370	         1.04907e+58
          1351.89000	         1.09191e+58
          1352.69630	         1.15986e+58
          1353.50260	         1.19055e+58
          1354.30890	         1.12710e+58
          1355.11520	         1.17679e+58
          1355.92150	         1.15309e+58
          1356.72780	         1.03066e+58
          1357.53410	         1.01641e+58
          1358.34040	         1.09684e+58
          1359.14670	         1.10079e+58
          1359.95300	         1.03702e+58
          1360.75930	         9.62997e+57
          1361.56560	         9.80253e+57
          1362.37190	         1.15923e+58
          1363.17820	         1.02140e+58
          1363.98450	         1.09466e+58
          1364.79080	         1.30868e+58
          1365.59710	         1.39640e+58
          1366.40340	         1.29450e+58
          1367.20970	         1.00887e+58
          1368.01600	         8.57387e+57
          1368.82230	         8.14736e+57
          1369.62860	         1.14224e+58
          1370.43490	         1.00375e+58
          1371.24120	         8.66768e+57
          1372.04750	         8.75526e+57
          1372.85380	         1.00627e+58
          1373.66010	         1.12190e+58
          1374.46640	         1.14145e+58
          1375.27270	         1.19963e+58
          1376.07900	         1.01283e+58
          1376.88530	         8.88382e+57
          1377.69160	         8.43865e+57
          1378.49790	         7.52070e+57
          1379.30420	         9.50819e+57
          1380.11050	         9.52970e+57
          1380.91680	         7.84799e+57
          1381.72310	         7.04553e+57
          1382.52940	         8.38246e+57
          1383.33570	         9.30688e+57
          1384.14200	         8.37033e+57
          1384.94830	         1.08368e+58
          1385.75460	         1.19237e+58
          1386.56090	         1.10485e+58
          1387.36720	         1.14507e+58
          1388.17350	         1.30794e+58
          1388.97980	         1.13406e+58
          1389.78610	         8.66534e+57
          1390.59240	         7.56452e+57
          1391.39870	         7.96042e+57
          1392.20500	         8.67334e+57
          1393.01130	         8.47965e+57
          1393.81760	         7.56174e+57
          1394.62390	         7.30483e+57
          1395.43020	         7.08254e+57
          1396.23650	         5.81073e+57
          1397.04280	         7.17156e+57
          1397.84910	         8.13931e+57
          1398.65540	         7.55739e+57
          1399.46170	         8.70942e+57
          1400.26800	         8.46639e+57
          1401.07430	         7.74503e+57
          1401.88060	         8.55980e+57
          1402.68690	         9.65178e+57
          1403.49320	         9.01214e+57
          1404.29950	         8.03630e+57
          1405.10580	         1.00508e+58
          1405.91210	         1.13997e+58
          1406.71840	         1.07079e+58
          1407.52470	         9.94196e+57
          1408.33100	         1.11069e+58
          1409.13730	         1.16819e+58
          1409.94360	         1.09127e+58
          1410.74990	         1.15743e+58
          1411.55620	         1.08724e+58
          1412.36250	         9.83086e+57
          1413.16880	         8.46570e+57
          1413.97510	         7.82871e+57
          1414.78140	         9.00503e+57
          1415.58770	         1.07006e+58
          1416.39400	         1.06241e+58
          1417.20030	         1.02898e+58
          1418.00660	         1.03713e+58
          1418.81290	         1.03177e+58
          1419.61920	         1.20179e+58
          1420.42550	         1.32891e+58
          1421.23180	         1.43605e+58
          1422.03810	         1.23330e+58
          1422.84440	         1.00145e+58
          1423.65070	         1.13181e+58
          1424.45700	         9.71391e+57
          1425.26330	         8.33637e+57
          1426.06960	         9.49262e+57
          1426.87590	         1.06192e+58
          1427.68220	         1.03740e+58
          1428.48850	         1.08016e+58
          1429.29480	         1.09284e+58
          1430.10110	         1.10310e+58
          1430.90740	         9.20602e+57
          1431.71370	         8.71506e+57
          1432.52000	         8.77032e+57
          1433.32630	         7.72746e+57
          1434.13260	         7.30830e+57
          1434.93890	         7.38816e+57
          1435.74520	         8.27516e+57
          1436.55150	         8.96100e+57
          1437.35780	         8.86388e+57
          1438.16410	         1.03285e+58
          1438.97040	         9.84560e+57
          1439.77670	         9.36981e+57
          1440.58300	         8.98209e+57
          1441.38930	         9.32190e+57
          1442.19560	         9.89249e+57
          1443.00190	         9.99618e+57
          1443.80820	         1.13508e+58
          1444.61450	         9.79283e+57
          1445.42080	         8.50888e+57
          1446.22710	         9.83660e+57
          1447.03340	         9.93278e+57
          1447.83970	         1.11459e+58
          1448.64600	         1.08754e+58
          1449.45230	         9.97558e+57
          1450.25860	         1.11546e+58
          1451.06490	         1.02339e+58
          1451.87120	         7.62522e+57
          1452.67750	         7.57680e+57
          1453.48380	         8.73089e+57
          1454.29010	         7.77124e+57
          1455.09640	         6.99280e+57
          1455.90270	         8.27863e+57
          1456.70900	         8.00049e+57
          1457.51530	         9.04775e+57
          1458.32160	         1.28500e+58
          1459.12790	         1.26571e+58
          1459.93420	         1.00416e+58
          1460.74050	         8.90574e+57
          1461.54680	         8.19831e+57
          1462.35310	         7.28744e+57
          1463.15940	         9.15208e+57
          1463.96570	         9.90835e+57
          1464.77200	         1.09434e+58
          1465.57830	         1.06792e+58
          1466.38460	         1.01427e+58
          1467.19090	         9.35132e+57
          1467.99720	         9.03973e+57
          1468.80350	         9.58867e+57
          1469.60980	         1.02239e+58
          1470.41610	         1.05092e+58
          1471.22240	         9.10355e+57
          1472.02870	         9.45043e+57
          1472.83500	         1.01568e+58
          1473.64130	         1.07094e+58
          1474.44760	         9.36266e+57
          1475.25390	         8.07890e+57
          1476.06020	         8.66094e+57
          1476.86650	         7.85015e+57
          1477.67280	         7.18194e+57
          1478.47910	         6.77956e+57
          1479.28540	         6.14115e+57
          1480.09170	         7.69108e+57
          1480.89800	         8.62542e+57
          1481.70430	         8.22207e+57
          1482.51060	         7.80356e+57
          1483.31690	         8.46853e+57
          1484.12320	         8.55717e+57
          1484.92950	         8.00782e+57
          1485.73580	         8.30389e+57
          1486.54210	         8.25847e+57
          1487.34840	         8.97812e+57
          1488.15470	         9.26306e+57
          1488.96100	         9.32633e+57
          1489.76730	         9.66226e+57
