#sample_330_stacked_spectrum_rest_UV-bands_median_H-alpha_noDC.txt
#median Lum: 1.69194e+42
#Rest-frame wavelength (A) | Luminosity (erg/s/A)
#
          1110.00000	         0.00000e+00
          1110.80630	         4.03986e+59
          1111.61260	         6.11274e+58
          1112.41890	         2.94415e+59
          1113.22520	        -2.14569e+58
          1114.03150	        -1.68334e+59
          1114.83780	         1.14061e+59
          1115.64410	         1.44860e+58
          1116.45040	         1.41127e+59
          1117.25670	        -6.84642e+58
          1118.06300	         3.38124e+58
          1118.86930	        -6.93458e+58
          1119.67560	         1.00424e+59
          1120.48190	        -2.06853e+58
          1121.28820	        -1.48148e+59
          1122.09450	        -6.65897e+58
          1122.90080	         3.63730e+58
          1123.70710	         5.92595e+58
          1124.51340	         1.23379e+59
          1125.31970	         3.25163e+57
          1126.12600	         9.84254e+57
          1126.93230	        -6.86626e+57
          1127.73860	        -5.31232e+58
          1128.54490	         9.21668e+57
          1129.35120	         3.57530e+58
          1130.15750	        -1.01072e+58
          1130.96380	         1.00871e+58
          1131.77010	         6.65191e+58
          1132.57640	         6.83841e+58
          1133.38270	         4.87269e+58
          1134.18900	         2.75595e+58
          1134.99530	         1.81207e+58
          1135.80160	         2.14206e+58
          1136.60790	         7.94963e+57
          1137.41420	        -8.18196e+57
          1138.22050	         2.32475e+58
          1139.02680	         4.31508e+58
          1139.83310	         3.07258e+58
          1140.63940	         1.97525e+58
          1141.44570	        -2.37678e+58
          1142.25200	        -2.99776e+58
          1143.05830	         1.07262e+58
          1143.86460	         1.80603e+58
          1144.67090	         3.49858e+58
          1145.47720	         1.49221e+58
          1146.28350	         2.39548e+58
          1147.08980	         1.16320e+58
          1147.89610	         9.90487e+57
          1148.70240	         2.38551e+58
          1149.50870	         1.45155e+58
          1150.31500	         4.31456e+57
          1151.12130	         1.11548e+58
          1151.92760	        -4.54840e+57
          1152.73390	         3.24990e+57
          1153.54020	        -1.49958e+57
          1154.34650	         2.71582e+58
          1155.15280	         2.39652e+58
          1155.95910	         9.21686e+57
          1156.76540	         1.98869e+57
          1157.57170	        -3.70852e+57
          1158.37800	         3.92403e+57
          1159.18430	        -1.04313e+58
          1159.99060	         3.92553e+57
          1160.79690	         9.22968e+57
          1161.60320	         1.88637e+58
          1162.40950	         1.40774e+58
          1163.21580	         1.92156e+58
          1164.02210	         1.46954e+58
          1164.82840	         9.30358e+57
          1165.63470	         1.41135e+58
          1166.44100	         2.52758e+58
          1167.24730	         2.57728e+58
          1168.05360	         1.12979e+58
          1168.85990	         4.46976e+57
          1169.66620	         4.88358e+57
          1170.47250	         1.54311e+58
          1171.27880	         1.27220e+58
          1172.08510	         1.93327e+58
          1172.89140	         1.27344e+58
          1173.69770	         2.25318e+57
          1174.50400	         6.73095e+57
          1175.31030	         8.50434e+57
          1176.11660	         1.27784e+58
          1176.92290	         1.62512e+58
          1177.72920	         1.44465e+58
          1178.53550	         8.16157e+57
          1179.34180	         2.51554e+57
          1180.14810	         8.76973e+57
          1180.95440	         9.17612e+57
          1181.76070	         6.35331e+57
          1182.56700	         1.07405e+58
          1183.37330	         1.10427e+58
          1184.17960	         1.06913e+58
          1184.98590	         1.36290e+58
          1185.79220	         1.35899e+58
          1186.59850	         1.07464e+58
          1187.40480	         9.70567e+57
          1188.21110	         1.98380e+58
          1189.01740	         9.13490e+57
          1189.82370	         1.01609e+58
          1190.63000	         6.00086e+57
          1191.43630	         1.16670e+58
          1192.24260	         1.13642e+58
          1193.04890	         1.31636e+58
          1193.85520	         9.94235e+57
          1194.66150	         6.86832e+57
          1195.46780	         1.37932e+58
          1196.27410	         2.03282e+58
          1197.08040	         1.26978e+58
          1197.88670	         1.16777e+58
          1198.69300	         1.27647e+58
          1199.49930	         1.43187e+58
          1200.30560	         1.16134e+58
          1201.11190	         8.21975e+57
          1201.91820	         6.54956e+57
          1202.72450	         5.77911e+57
          1203.53080	         1.45842e+58
          1204.33710	         8.39204e+57
          1205.14340	         6.20049e+57
          1205.94970	         3.76755e+57
          1206.75600	         6.85060e+57
          1207.56230	         5.97007e+57
          1208.36860	         7.09818e+57
          1209.17490	         5.85029e+57
          1209.98120	         6.40779e+57
          1210.78750	         8.87613e+57
          1211.59380	         1.46504e+58
          1212.40010	         2.09852e+58
          1213.20640	         2.12155e+58
          1214.01270	         2.06398e+58
          1214.81900	         3.01568e+58
          1215.62530	         4.87207e+58
          1216.43160	         9.56612e+58
          1217.23790	         1.50687e+59
          1218.04420	         1.12671e+59
          1218.85050	         8.40119e+58
          1219.65680	         5.37244e+58
          1220.46310	         3.18389e+58
          1221.26940	         2.53571e+58
          1222.07570	         1.49832e+58
          1222.88200	         8.60190e+57
          1223.68830	         7.08463e+57
          1224.49460	         8.27660e+57
          1225.30090	         7.81411e+57
          1226.10720	         7.00142e+57
          1226.91350	         8.24870e+57
          1227.71980	         1.24267e+58
          1228.52610	         1.21923e+58
          1229.33240	         9.01329e+57
          1230.13870	         7.99188e+57
          1230.94500	         6.51369e+57
          1231.75130	         4.74583e+57
          1232.55760	         6.41703e+57
          1233.36390	         9.64049e+57
          1234.17020	         9.99227e+57
          1234.97650	         7.76988e+57
          1235.78280	         7.18388e+57
          1236.58910	         7.27517e+57
          1237.39540	         1.05592e+58
          1238.20170	         1.08618e+58
          1239.00800	         1.20494e+58
          1239.81430	         1.40361e+58
          1240.62060	         1.14754e+58
          1241.42690	         1.11744e+58
          1242.23320	         1.04535e+58
          1243.03950	         6.76823e+57
          1243.84580	         7.35647e+57
          1244.65210	         1.14456e+58
          1245.45840	         1.13590e+58
          1246.26470	         9.52350e+57
          1247.07100	         8.67550e+57
          1247.87730	         8.18168e+57
          1248.68360	         4.91550e+57
          1249.48990	         7.31764e+57
          1250.29620	         1.01450e+58
          1251.10250	         8.12126e+57
          1251.90880	         4.49035e+57
          1252.71510	         3.76126e+57
          1253.52140	         7.58454e+57
          1254.32770	         1.03124e+58
          1255.13400	         1.41374e+58
          1255.94030	         1.31363e+58
          1256.74660	         1.00353e+58
          1257.55290	         1.13742e+58
          1258.35920	         1.02336e+58
          1259.16550	         6.92423e+57
          1259.97180	         3.91528e+57
          1260.77810	         6.59613e+57
          1261.58440	         1.20289e+58
          1262.39070	         1.16113e+58
          1263.19700	         8.56872e+57
          1264.00330	         9.24846e+57
          1264.80960	         1.03354e+58
          1265.61590	         1.28556e+58
          1266.42220	         1.05369e+58
          1267.22850	         1.06376e+58
          1268.03480	         1.50993e+58
          1268.84110	         1.46061e+58
          1269.64740	         1.38519e+58
          1270.45370	         1.32863e+58
          1271.26000	         1.10017e+58
          1272.06630	         1.28855e+58
          1272.87260	         1.03167e+58
          1273.67890	         1.27170e+58
          1274.48520	         1.17961e+58
          1275.29150	         1.04580e+58
          1276.09780	         1.20618e+58
          1276.90410	         1.56630e+58
          1277.71040	         1.29231e+58
          1278.51670	         1.06822e+58
          1279.32300	         1.32397e+58
          1280.12930	         1.32434e+58
          1280.93560	         1.13187e+58
          1281.74190	         1.19348e+58
          1282.54820	         1.19785e+58
          1283.35450	         8.32974e+57
          1284.16080	         8.51482e+57
          1284.96710	         1.20875e+58
          1285.77340	         1.08969e+58
          1286.57970	         1.01670e+58
          1287.38600	         1.44556e+58
          1288.19230	         1.46795e+58
          1288.99860	         1.37131e+58
          1289.80490	         1.15619e+58
          1290.61120	         1.15398e+58
          1291.41750	         1.39231e+58
          1292.22380	         1.28480e+58
          1293.03010	         1.17788e+58
          1293.83640	         1.19264e+58
          1294.64270	         1.16566e+58
          1295.44900	         7.42699e+57
          1296.25530	         7.99106e+57
          1297.06160	         1.14411e+58
          1297.86790	         1.07366e+58
          1298.67420	         7.85393e+57
          1299.48050	         8.28719e+57
          1300.28680	         1.06331e+58
          1301.09310	         9.62502e+57
          1301.89940	         4.75843e+57
          1302.70570	         6.83853e+57
          1303.51200	         8.87791e+57
          1304.31830	         9.37515e+57
          1305.12460	         1.09830e+58
          1305.93090	         1.17142e+58
          1306.73720	         1.36449e+58
          1307.54350	         1.41347e+58
          1308.34980	         1.46233e+58
          1309.15610	         1.61933e+58
          1309.96240	         1.70418e+58
          1310.76870	         1.41911e+58
          1311.57500	         1.04153e+58
          1312.38130	         1.19488e+58
          1313.18760	         1.28938e+58
          1313.99390	         1.50154e+58
          1314.80020	         1.67459e+58
          1315.60650	         1.33883e+58
          1316.41280	         1.07672e+58
          1317.21910	         9.81169e+57
          1318.02540	         1.02258e+58
          1318.83170	         1.02687e+58
          1319.63800	         1.06983e+58
          1320.44430	         1.19776e+58
          1321.25060	         1.26741e+58
          1322.05690	         1.20023e+58
          1322.86320	         1.24062e+58
          1323.66950	         1.13949e+58
          1324.47580	         9.79535e+57
          1325.28210	         9.56128e+57
          1326.08840	         1.15699e+58
          1326.89470	         1.40926e+58
          1327.70100	         1.12545e+58
          1328.50730	         7.69444e+57
          1329.31360	         7.25826e+57
          1330.11990	         8.02528e+57
          1330.92620	         8.60369e+57
          1331.73250	         1.08581e+58
          1332.53880	         1.09318e+58
          1333.34510	         8.35773e+57
          1334.15140	         9.69512e+57
          1334.95770	         1.03111e+58
          1335.76400	         1.07581e+58
          1336.57030	         1.00028e+58
          1337.37660	         8.71645e+57
          1338.18290	         9.85667e+57
          1338.98920	         1.15129e+58
          1339.79550	         1.15890e+58
          1340.60180	         1.06696e+58
          1341.40810	         1.19883e+58
          1342.21440	         1.19371e+58
          1343.02070	         1.32142e+58
          1343.82700	         1.44740e+58
          1344.63330	         1.21914e+58
          1345.43960	         1.12551e+58
          1346.24590	         1.14907e+58
          1347.05220	         1.17011e+58
          1347.85850	         9.42298e+57
          1348.66480	         1.01052e+58
          1349.47110	         1.20038e+58
          1350.27740	         1.14438e+58
          1351.08370	         1.20998e+58
          1351.89000	         1.31063e+58
          1352.69630	         1.28564e+58
          1353.50260	         1.12124e+58
          1354.30890	         1.06018e+58
          1355.11520	         1.15494e+58
          1355.92150	         1.08531e+58
          1356.72780	         9.70784e+57
          1357.53410	         9.78325e+57
          1358.34040	         1.05016e+58
          1359.14670	         1.07047e+58
          1359.95300	         1.23189e+58
          1360.75930	         1.34978e+58
          1361.56560	         1.09116e+58
          1362.37190	         1.03887e+58
          1363.17820	         1.07845e+58
          1363.98450	         1.41005e+58
          1364.79080	         1.52858e+58
          1365.59710	         1.25001e+58
          1366.40340	         1.15477e+58
          1367.20970	         1.07015e+58
          1368.01600	         9.58978e+57
          1368.82230	         9.54889e+57
          1369.62860	         1.06481e+58
          1370.43490	         9.82731e+57
          1371.24120	         9.97953e+57
          1372.04750	         1.04800e+58
          1372.85380	         1.16942e+58
          1373.66010	         1.08614e+58
          1374.46640	         9.93642e+57
          1375.27270	         1.08906e+58
          1376.07900	         1.01319e+58
          1376.88530	         9.69748e+57
          1377.69160	         8.03737e+57
          1378.49790	         7.34000e+57
          1379.30420	         8.55151e+57
          1380.11050	         9.57517e+57
          1380.91680	         8.67664e+57
          1381.72310	         6.46936e+57
          1382.52940	         6.29945e+57
          1383.33570	         7.79075e+57
          1384.14200	         9.26116e+57
          1384.94830	         1.06189e+58
          1385.75460	         9.89300e+57
          1386.56090	         1.08313e+58
          1387.36720	         1.03970e+58
          1388.17350	         1.20569e+58
          1388.97980	         1.14108e+58
          1389.78610	         8.31595e+57
          1390.59240	         7.64990e+57
          1391.39870	         7.73132e+57
          1392.20500	         9.05367e+57
          1393.01130	         7.74211e+57
          1393.81760	         7.49146e+57
          1394.62390	         7.53116e+57
          1395.43020	         5.11829e+57
          1396.23650	         5.65316e+57
          1397.04280	         6.42131e+57
          1397.84910	         7.35154e+57
          1398.65540	         8.82991e+57
          1399.46170	         1.01583e+58
          1400.26800	         8.88221e+57
          1401.07430	         8.28455e+57
          1401.88060	         8.98248e+57
          1402.68690	         1.00062e+58
          1403.49320	         1.07410e+58
          1404.29950	         1.06051e+58
          1405.10580	         1.10872e+58
          1405.91210	         1.16819e+58
          1406.71840	         1.15424e+58
          1407.52470	         1.04653e+58
          1408.33100	         1.02685e+58
          1409.13730	         1.12571e+58
          1409.94360	         1.09905e+58
          1410.74990	         1.04801e+58
          1411.55620	         1.02610e+58
          1412.36250	         9.19098e+57
          1413.16880	         8.61693e+57
          1413.97510	         7.80332e+57
          1414.78140	         7.80725e+57
          1415.58770	         9.58134e+57
          1416.39400	         9.98933e+57
          1417.20030	         1.04735e+58
          1418.00660	         1.01109e+58
          1418.81290	         1.02433e+58
          1419.61920	         1.17744e+58
          1420.42550	         1.30331e+58
          1421.23180	         1.45991e+58
          1422.03810	         1.09261e+58
          1422.84440	         8.97231e+57
          1423.65070	         1.26879e+58
          1424.45700	         1.15923e+58
          1425.26330	         7.99979e+57
          1426.06960	         8.62194e+57
          1426.87590	         1.02915e+58
          1427.68220	         9.60596e+57
          1428.48850	         9.21273e+57
          1429.29480	         9.77303e+57
          1430.10110	         1.10923e+58
          1430.90740	         1.02223e+58
          1431.71370	         8.53245e+57
          1432.52000	         8.16910e+57
          1433.32630	         8.48579e+57
          1434.13260	         7.80776e+57
          1434.93890	         8.07473e+57
          1435.74520	         9.52218e+57
          1436.55150	         9.78560e+57
          1437.35780	         8.45605e+57
          1438.16410	         8.65453e+57
          1438.97040	         9.40880e+57
          1439.77670	         9.57501e+57
          1440.58300	         9.83864e+57
          1441.38930	         9.50690e+57
          1442.19560	         9.16363e+57
          1443.00190	         1.02663e+58
          1443.80820	         1.23469e+58
          1444.61450	         1.05113e+58
          1445.42080	         7.73937e+57
          1446.22710	         9.89465e+57
          1447.03340	         1.05204e+58
          1447.83970	         1.00689e+58
          1448.64600	         1.07309e+58
          1449.45230	         1.04097e+58
          1450.25860	         1.03486e+58
          1451.06490	         9.67674e+57
          1451.87120	         7.02956e+57
          1452.67750	         6.43094e+57
          1453.48380	         8.36824e+57
          1454.29010	         8.35258e+57
          1455.09640	         7.59460e+57
          1455.90270	         8.95023e+57
          1456.70900	         8.51643e+57
          1457.51530	         8.55642e+57
          1458.32160	         1.11864e+58
          1459.12790	         1.15182e+58
          1459.93420	         9.85715e+57
          1460.74050	         8.11184e+57
          1461.54680	         7.84680e+57
          1462.35310	         7.34997e+57
          1463.15940	         8.60376e+57
          1463.96570	         1.14645e+58
          1464.77200	         1.35570e+58
          1465.57830	         1.14319e+58
          1466.38460	         8.78079e+57
          1467.19090	         8.24054e+57
          1467.99720	         8.37355e+57
          1468.80350	         9.17849e+57
          1469.60980	         1.00405e+58
          1470.41610	         1.05132e+58
          1471.22240	         1.02086e+58
          1472.02870	         9.77577e+57
          1472.83500	         8.94941e+57
          1473.64130	         9.70824e+57
          1474.44760	         1.04904e+58
          1475.25390	         9.19074e+57
          1476.06020	         8.10116e+57
          1476.86650	         7.19294e+57
          1477.67280	         7.65269e+57
          1478.47910	         6.49685e+57
          1479.28540	         6.64406e+57
          1480.09170	         1.02058e+58
          1480.89800	         1.00567e+58
          1481.70430	         8.78323e+57
          1482.51060	         9.04873e+57
          1483.31690	         8.65452e+57
          1484.12320	         8.24011e+57
          1484.92950	         8.21624e+57
          1485.73580	         8.39102e+57
          1486.54210	         7.64367e+57
          1487.34840	         8.56709e+57
          1488.15470	         9.37985e+57
          1488.96100	         9.09543e+57
          1489.76730	         9.18075e+57
