#sample_284_stacked_spectrum_rest_UV-bands_median_H-alpha_noDC.txt
#median Lum: 1.67318e+42
#Rest-frame wavelength (A) | Luminosity (erg/s/A)
#
          1110.00000	         0.00000e+00
          1110.80630	         1.39844e+59
          1111.61260	         1.41817e+59
          1112.41890	         1.73586e+59
          1113.22520	        -8.42007e+58
          1114.03150	        -3.72735e+59
          1114.83780	         6.82527e+58
          1115.64410	         1.50318e+59
          1116.45040	        -1.40965e+59
          1117.25670	         8.46929e+58
          1118.06300	         5.53763e+58
          1118.86930	         5.78223e+58
          1119.67560	         1.34578e+59
          1120.48190	         1.81123e+58
          1121.28820	        -1.34219e+59
          1122.09450	        -4.01037e+58
          1122.90080	        -1.32357e+57
          1123.70710	         1.10631e+59
          1124.51340	         3.35077e+58
          1125.31970	         3.45167e+58
          1126.12600	        -2.82273e+57
          1126.93230	        -5.30645e+58
          1127.73860	        -8.12922e+58
          1128.54490	        -1.71603e+58
          1129.35120	         3.44095e+58
          1130.15750	        -4.42450e+57
          1130.96380	        -2.63526e+58
          1131.77010	         3.96443e+58
          1132.57640	         4.00027e+58
          1133.38270	         1.05361e+58
          1134.18900	         2.95691e+58
          1134.99530	         2.18275e+58
          1135.80160	         1.99732e+58
          1136.60790	         1.56275e+58
          1137.41420	         4.57421e+57
          1138.22050	         5.05888e+58
          1139.02680	         2.77616e+58
          1139.83310	         1.21993e+58
          1140.63940	         1.40275e+58
          1141.44570	        -5.13151e+57
          1142.25200	         4.42125e+56
          1143.05830	         2.63575e+58
          1143.86460	         3.85729e+58
          1144.67090	         2.40985e+58
          1145.47720	         1.74451e+58
          1146.28350	         1.18540e+58
          1147.08980	         5.59572e+57
          1147.89610	         1.78596e+58
          1148.70240	         2.10185e+58
          1149.50870	         2.37976e+58
          1150.31500	         1.52139e+58
          1151.12130	         1.43564e+57
          1151.92760	         2.35319e+57
          1152.73390	        -2.89662e+56
          1153.54020	        -1.62084e+57
          1154.34650	         2.53266e+58
          1155.15280	         2.01884e+58
          1155.95910	         1.08519e+58
          1156.76540	         1.71991e+58
          1157.57170	        -1.47022e+56
          1158.37800	        -8.98369e+57
          1159.18430	        -4.71134e+56
          1159.99060	         1.01685e+58
          1160.79690	         2.68487e+57
          1161.60320	        -1.75952e+57
          1162.40950	         8.04712e+57
          1163.21580	         1.74323e+58
          1164.02210	         1.49549e+57
          1164.82840	         9.13546e+57
          1165.63470	         1.69597e+58
          1166.44100	         3.68433e+58
          1167.24730	         2.29711e+58
          1168.05360	         5.92325e+57
          1168.85990	         5.96576e+57
          1169.66620	         1.57053e+58
          1170.47250	         1.78000e+58
          1171.27880	         1.31560e+58
          1172.08510	         2.19814e+58
          1172.89140	         2.27307e+58
          1173.69770	         1.43686e+58
          1174.50400	         1.41256e+58
          1175.31030	         1.48195e+58
          1176.11660	         1.87042e+58
          1176.92290	         1.69452e+58
          1177.72920	         1.52217e+58
          1178.53550	         7.48192e+57
          1179.34180	         2.95703e+57
          1180.14810	         7.22022e+57
          1180.95440	         1.03254e+58
          1181.76070	         5.92121e+57
          1182.56700	         5.10873e+57
          1183.37330	         3.84690e+57
          1184.17960	         1.31426e+58
          1184.98590	         1.34196e+58
          1185.79220	         5.78435e+57
          1186.59850	         9.77680e+57
          1187.40480	         1.60702e+58
          1188.21110	         1.44356e+58
          1189.01740	         1.41189e+58
          1189.82370	         8.93444e+57
          1190.63000	         1.36738e+58
          1191.43630	         1.34749e+58
          1192.24260	         4.86611e+57
          1193.04890	         1.26260e+58
          1193.85520	         1.58190e+58
          1194.66150	         9.64464e+57
          1195.46780	         9.73653e+57
          1196.27410	         1.42508e+58
          1197.08040	         1.37692e+58
          1197.88670	         1.48000e+58
          1198.69300	         1.21090e+58
          1199.49930	         9.84103e+57
          1200.30560	         7.32758e+57
          1201.11190	         8.50808e+57
          1201.91820	         6.94545e+57
          1202.72450	         5.60648e+57
          1203.53080	         1.20067e+58
          1204.33710	         7.63695e+57
          1205.14340	         6.31988e+57
          1205.94970	         8.40685e+57
          1206.75600	         8.45622e+57
          1207.56230	         5.69745e+57
          1208.36860	         8.46347e+57
          1209.17490	         4.65893e+57
          1209.98120	         4.98544e+57
          1210.78750	         7.40223e+57
          1211.59380	         1.31992e+58
          1212.40010	         1.56446e+58
          1213.20640	         1.98218e+58
          1214.01270	         2.24036e+58
          1214.81900	         2.82465e+58
          1215.62530	         5.01416e+58
          1216.43160	         9.44998e+58
          1217.23790	         1.53944e+59
          1218.04420	         1.14533e+59
          1218.85050	         8.73242e+58
          1219.65680	         5.60157e+58
          1220.46310	         3.34433e+58
          1221.26940	         2.37101e+58
          1222.07570	         1.54966e+58
          1222.88200	         1.07298e+58
          1223.68830	         6.98445e+57
          1224.49460	         4.84352e+57
          1225.30090	         8.46094e+57
          1226.10720	         1.07892e+58
          1226.91350	         7.37453e+57
          1227.71980	         8.66847e+57
          1228.52610	         1.39535e+58
          1229.33240	         9.60739e+57
          1230.13870	         6.19931e+57
          1230.94500	         6.50909e+57
          1231.75130	         5.49837e+57
          1232.55760	         7.30983e+57
          1233.36390	         8.28051e+57
          1234.17020	         8.76134e+57
          1234.97650	         8.37951e+57
          1235.78280	         8.76647e+57
          1236.58910	         1.02239e+58
          1237.39540	         9.13326e+57
          1238.20170	         1.04270e+58
          1239.00800	         1.27177e+58
          1239.81430	         1.42814e+58
          1240.62060	         1.12288e+58
          1241.42690	         8.73054e+57
          1242.23320	         1.00177e+58
          1243.03950	         7.25150e+57
          1243.84580	         7.80161e+57
          1244.65210	         1.07723e+58
          1245.45840	         9.80197e+57
          1246.26470	         8.69856e+57
          1247.07100	         6.79872e+57
          1247.87730	         7.66536e+57
          1248.68360	         5.84847e+57
          1249.48990	         5.76469e+57
          1250.29620	         8.75882e+57
          1251.10250	         5.41874e+57
          1251.90880	         3.77352e+57
          1252.71510	         6.67811e+57
          1253.52140	         8.15810e+57
          1254.32770	         9.16544e+57
          1255.13400	         1.05774e+58
          1255.94030	         9.54015e+57
          1256.74660	         8.38805e+57
          1257.55290	         1.10023e+58
          1258.35920	         1.01760e+58
          1259.16550	         4.61666e+57
          1259.97180	         3.08007e+57
          1260.77810	         7.35065e+57
          1261.58440	         9.45307e+57
          1262.39070	         8.72204e+57
          1263.19700	         8.73857e+57
          1264.00330	         8.22066e+57
          1264.80960	         7.32692e+57
          1265.61590	         1.09318e+58
          1266.42220	         1.37737e+58
          1267.22850	         1.19301e+58
          1268.03480	         1.39215e+58
          1268.84110	         1.36951e+58
          1269.64740	         1.16078e+58
          1270.45370	         1.25474e+58
          1271.26000	         1.19426e+58
          1272.06630	         1.19535e+58
          1272.87260	         1.15446e+58
          1273.67890	         1.21305e+58
          1274.48520	         1.18188e+58
          1275.29150	         1.30109e+58
          1276.09780	         1.13837e+58
          1276.90410	         1.29598e+58
          1277.71040	         1.19822e+58
          1278.51670	         1.17309e+58
          1279.32300	         1.41657e+58
          1280.12930	         1.21409e+58
          1280.93560	         1.02669e+58
          1281.74190	         9.58190e+57
          1282.54820	         9.51796e+57
          1283.35450	         1.00186e+58
          1284.16080	         1.22711e+58
          1284.96710	         1.46188e+58
          1285.77340	         1.31984e+58
          1286.57970	         1.11027e+58
          1287.38600	         1.50724e+58
          1288.19230	         1.84970e+58
          1288.99860	         1.38839e+58
          1289.80490	         9.56561e+57
          1290.61120	         1.23747e+58
          1291.41750	         1.35443e+58
          1292.22380	         1.30963e+58
          1293.03010	         1.06516e+58
          1293.83640	         1.01298e+58
          1294.64270	         8.58059e+57
          1295.44900	         4.65696e+57
          1296.25530	         5.31329e+57
          1297.06160	         8.18797e+57
          1297.86790	         9.31945e+57
          1298.67420	         9.90472e+57
          1299.48050	         1.13960e+58
          1300.28680	         9.76616e+57
          1301.09310	         7.38200e+57
          1301.89940	         3.85043e+57
          1302.70570	         4.92427e+57
          1303.51200	         7.21064e+57
          1304.31830	         9.50559e+57
          1305.12460	         1.05682e+58
          1305.93090	         1.21804e+58
          1306.73720	         1.25112e+58
          1307.54350	         1.26445e+58
          1308.34980	         1.41913e+58
          1309.15610	         1.65755e+58
          1309.96240	         1.78028e+58
          1310.76870	         1.46780e+58
          1311.57500	         1.15980e+58
          1312.38130	         1.11584e+58
          1313.18760	         1.33110e+58
          1313.99390	         1.48833e+58
          1314.80020	         1.56517e+58
          1315.60650	         1.47805e+58
          1316.41280	         1.23626e+58
          1317.21910	         1.30973e+58
          1318.02540	         1.22200e+58
          1318.83170	         1.24645e+58
          1319.63800	         1.11641e+58
          1320.44430	         9.86165e+57
          1321.25060	         1.05340e+58
          1322.05690	         1.05914e+58
          1322.86320	         1.12024e+58
          1323.66950	         1.01764e+58
          1324.47580	         8.75466e+57
          1325.28210	         9.03470e+57
          1326.08840	         1.14929e+58
          1326.89470	         1.08778e+58
          1327.70100	         9.21532e+57
          1328.50730	         8.72952e+57
          1329.31360	         9.50461e+57
          1330.11990	         1.02045e+58
          1330.92620	         9.07413e+57
          1331.73250	         1.01763e+58
          1332.53880	         1.00996e+58
          1333.34510	         8.72384e+57
          1334.15140	         9.19511e+57
          1334.95770	         8.90625e+57
          1335.76400	         1.09465e+58
          1336.57030	         1.16840e+58
          1337.37660	         1.10361e+58
          1338.18290	         1.07224e+58
          1338.98920	         9.83713e+57
          1339.79550	         1.06993e+58
          1340.60180	         1.29085e+58
          1341.40810	         1.50273e+58
          1342.21440	         1.23279e+58
          1343.02070	         1.22305e+58
          1343.82700	         1.32592e+58
          1344.63330	         1.17672e+58
          1345.43960	         1.23130e+58
          1346.24590	         1.18929e+58
          1347.05220	         1.16279e+58
          1347.85850	         1.15525e+58
          1348.66480	         1.36943e+58
          1349.47110	         1.34364e+58
          1350.27740	         1.06781e+58
          1351.08370	         1.13755e+58
          1351.89000	         1.30457e+58
          1352.69630	         1.20906e+58
          1353.50260	         1.16719e+58
          1354.30890	         1.30428e+58
          1355.11520	         1.22461e+58
          1355.92150	         1.05415e+58
          1356.72780	         1.09608e+58
          1357.53410	         1.10631e+58
          1358.34040	         1.09374e+58
          1359.14670	         9.83093e+57
          1359.95300	         1.10986e+58
          1360.75930	         1.19752e+58
          1361.56560	         9.63499e+57
          1362.37190	         1.01807e+58
          1363.17820	         1.02895e+58
          1363.98450	         1.10172e+58
          1364.79080	         1.27656e+58
          1365.59710	         1.34644e+58
          1366.40340	         1.19535e+58
          1367.20970	         9.22437e+57
          1368.01600	         9.18521e+57
          1368.82230	         9.65265e+57
          1369.62860	         1.06916e+58
          1370.43490	         9.81334e+57
          1371.24120	         8.35097e+57
          1372.04750	         7.75823e+57
          1372.85380	         1.01561e+58
          1373.66010	         1.23115e+58
          1374.46640	         1.06602e+58
          1375.27270	         1.03394e+58
          1376.07900	         8.93893e+57
          1376.88530	         8.98877e+57
          1377.69160	         8.93724e+57
          1378.49790	         7.95329e+57
          1379.30420	         7.54030e+57
          1380.11050	         7.98091e+57
          1380.91680	         7.89652e+57
          1381.72310	         7.87265e+57
          1382.52940	         8.85078e+57
          1383.33570	         8.15077e+57
          1384.14200	         8.87127e+57
          1384.94830	         1.04914e+58
          1385.75460	         9.94191e+57
          1386.56090	         9.77595e+57
          1387.36720	         1.06589e+58
          1388.17350	         1.30143e+58
          1388.97980	         1.04971e+58
          1389.78610	         9.47653e+57
          1390.59240	         8.57604e+57
          1391.39870	         7.46928e+57
          1392.20500	         8.86270e+57
          1393.01130	         8.35658e+57
          1393.81760	         6.86383e+57
          1394.62390	         7.69013e+57
          1395.43020	         7.19695e+57
          1396.23650	         7.61637e+57
          1397.04280	         7.98609e+57
          1397.84910	         7.92210e+57
          1398.65540	         7.91198e+57
          1399.46170	         9.46885e+57
          1400.26800	         8.83809e+57
          1401.07430	         6.80880e+57
          1401.88060	         6.66097e+57
          1402.68690	         9.53055e+57
          1403.49320	         1.03387e+58
          1404.29950	         1.07625e+58
          1405.10580	         1.14016e+58
          1405.91210	         1.05368e+58
          1406.71840	         9.63475e+57
          1407.52470	         1.03759e+58
          1408.33100	         1.12591e+58
          1409.13730	         1.21507e+58
          1409.94360	         1.19189e+58
          1410.74990	         1.10576e+58
          1411.55620	         9.81944e+57
          1412.36250	         8.61419e+57
          1413.16880	         9.23591e+57
          1413.97510	         9.08366e+57
          1414.78140	         8.03231e+57
          1415.58770	         9.85455e+57
          1416.39400	         1.13716e+58
          1417.20030	         1.03093e+58
          1418.00660	         8.83564e+57
          1418.81290	         9.68201e+57
          1419.61920	         1.16165e+58
          1420.42550	         1.21631e+58
          1421.23180	         1.36755e+58
          1422.03810	         1.24769e+58
          1422.84440	         1.17330e+58
          1423.65070	         1.13639e+58
          1424.45700	         9.88219e+57
          1425.26330	         7.78621e+57
          1426.06960	         8.67803e+57
          1426.87590	         9.76756e+57
          1427.68220	         9.93621e+57
          1428.48850	         9.78097e+57
          1429.29480	         1.01041e+58
          1430.10110	         9.81287e+57
          1430.90740	         8.23108e+57
          1431.71370	         8.31918e+57
          1432.52000	         9.21277e+57
          1433.32630	         7.62181e+57
          1434.13260	         7.98155e+57
          1434.93890	         8.83075e+57
          1435.74520	         8.90862e+57
          1436.55150	         9.38498e+57
          1437.35780	         8.71828e+57
          1438.16410	         8.65016e+57
          1438.97040	         8.90067e+57
          1439.77670	         8.93362e+57
          1440.58300	         8.26774e+57
          1441.38930	         8.24276e+57
          1442.19560	         9.46975e+57
          1443.00190	         1.01056e+58
          1443.80820	         1.13434e+58
          1444.61450	         1.03637e+58
          1445.42080	         8.54343e+57
          1446.22710	         1.05708e+58
          1447.03340	         1.06284e+58
          1447.83970	         1.05432e+58
          1448.64600	         1.03183e+58
          1449.45230	         9.39943e+57
          1450.25860	         9.76309e+57
          1451.06490	         8.53594e+57
          1451.87120	         7.31380e+57
          1452.67750	         7.94719e+57
          1453.48380	         9.61354e+57
          1454.29010	         9.44190e+57
          1455.09640	         7.45660e+57
          1455.90270	         8.28498e+57
          1456.70900	         8.61400e+57
          1457.51530	         8.37086e+57
          1458.32160	         1.10720e+58
          1459.12790	         1.10802e+58
          1459.93420	         9.78750e+57
          1460.74050	         8.88579e+57
          1461.54680	         8.01880e+57
          1462.35310	         7.15409e+57
          1463.15940	         8.85967e+57
          1463.96570	         1.00557e+58
          1464.77200	         1.11099e+58
          1465.57830	         1.02776e+58
          1466.38460	         8.49353e+57
          1467.19090	         8.21083e+57
          1467.99720	         9.35748e+57
          1468.80350	         9.79719e+57
          1469.60980	         1.02266e+58
          1470.41610	         1.04143e+58
          1471.22240	         9.31539e+57
          1472.02870	         8.02959e+57
          1472.83500	         7.87418e+57
          1473.64130	         9.02101e+57
          1474.44760	         9.44842e+57
          1475.25390	         8.92841e+57
          1476.06020	         7.98931e+57
          1476.86650	         7.86870e+57
          1477.67280	         7.81775e+57
          1478.47910	         7.18989e+57
          1479.28540	         8.17092e+57
          1480.09170	         9.06167e+57
          1480.89800	         7.40802e+57
          1481.70430	         8.22183e+57
          1482.51060	         7.67141e+57
          1483.31690	         7.02651e+57
          1484.12320	         6.87994e+57
          1484.92950	         7.42676e+57
          1485.73580	         8.40170e+57
          1486.54210	         9.23739e+57
          1487.34840	         8.65005e+57
          1488.15470	         8.78739e+57
          1488.96100	         8.89675e+57
          1489.76730	         9.60780e+57
