#sample_14_stacked_spectrum_rest_UV-bands_median_H-alpha_noDC.txt
#median Lum: 1.68982e+42
#Rest-frame wavelength (A) | Luminosity (erg/s/A)
#
          1110.00000	         0.00000e+00
          1110.80630	        -6.24573e+59
          1111.61260	        -9.46467e+58
          1112.41890	         2.15972e+59
          1113.22520	         1.41489e+59
          1114.03150	        -2.39476e+59
          1114.83780	         1.00003e+58
          1115.64410	        -3.12965e+58
          1116.45040	         1.34992e+59
          1117.25670	        -1.03024e+59
          1118.06300	         9.03597e+58
          1118.86930	        -6.39225e+58
          1119.67560	         1.01429e+59
          1120.48190	        -3.27582e+58
          1121.28820	        -2.16717e+59
          1122.09450	         5.89686e+57
          1122.90080	         3.93019e+58
          1123.70710	         6.79500e+58
          1124.51340	         4.09137e+58
          1125.31970	        -1.99605e+57
          1126.12600	        -3.51471e+58
          1126.93230	        -3.62760e+58
          1127.73860	        -7.30834e+58
          1128.54490	        -2.18176e+58
          1129.35120	         4.76699e+57
          1130.15750	         2.31858e+58
          1130.96380	         4.88318e+58
          1131.77010	         8.53017e+58
          1132.57640	         3.80087e+58
          1133.38270	         2.36076e+58
          1134.18900	         2.64024e+58
          1134.99530	         3.95668e+57
          1135.80160	         8.65149e+57
          1136.60790	         7.60181e+57
          1137.41420	         2.01962e+58
          1138.22050	         5.54983e+58
          1139.02680	         2.71035e+58
          1139.83310	         4.83628e+57
          1140.63940	         7.96487e+57
          1141.44570	         3.17498e+57
          1142.25200	         3.03910e+57
          1143.05830	         2.72745e+58
          1143.86460	         3.18496e+58
          1144.67090	         3.54225e+58
          1145.47720	         2.64458e+58
          1146.28350	         2.30628e+58
          1147.08980	         1.85571e+58
          1147.89610	         1.42893e+58
          1148.70240	         1.44755e+58
          1149.50870	         2.53340e+58
          1150.31500	         1.28853e+58
          1151.12130	         1.76114e+58
          1151.92760	        -5.11371e+57
          1152.73390	        -5.22837e+57
          1153.54020	         7.02858e+57
          1154.34650	         2.33421e+58
          1155.15280	         2.48218e+58
          1155.95910	         7.96826e+57
          1156.76540	         2.16919e+58
          1157.57170	         1.09820e+58
          1158.37800	        -2.09890e+57
          1159.18430	        -7.65468e+57
          1159.99060	         5.95086e+57
          1160.79690	         1.61420e+57
          1161.60320	         1.44682e+58
          1162.40950	         1.00627e+58
          1163.21580	         2.80594e+58
          1164.02210	         1.00769e+58
          1164.82840	         9.62669e+57
          1165.63470	         1.23584e+58
          1166.44100	         2.31045e+58
          1167.24730	         1.55929e+58
          1168.05360	         8.90894e+57
          1168.85990	         1.50540e+58
          1169.66620	         7.08888e+57
          1170.47250	         1.22330e+58
          1171.27880	         1.31102e+58
          1172.08510	         2.03098e+58
          1172.89140	         1.71012e+58
          1173.69770	         9.88472e+56
          1174.50400	         1.30597e+58
          1175.31030	         2.00565e+58
          1176.11660	         1.80191e+58
          1176.92290	         1.48137e+58
          1177.72920	         1.20937e+58
          1178.53550	         5.72151e+57
          1179.34180	         4.60451e+57
          1180.14810	         6.02206e+57
          1180.95440	         9.47341e+57
          1181.76070	         8.20889e+57
          1182.56700	         8.82427e+57
          1183.37330	         7.81873e+57
          1184.17960	         1.26786e+58
          1184.98590	         1.02636e+58
          1185.79220	         6.57881e+57
          1186.59850	         9.56629e+57
          1187.40480	         5.90520e+57
          1188.21110	         1.55506e+58
          1189.01740	         6.86023e+57
          1189.82370	         1.03627e+58
          1190.63000	         1.33078e+58
          1191.43630	         1.27887e+58
          1192.24260	         8.52218e+57
          1193.04890	         1.16574e+58
          1193.85520	         1.44566e+58
          1194.66150	         8.85543e+57
          1195.46780	         9.86872e+57
          1196.27410	         1.20924e+58
          1197.08040	         8.68708e+57
          1197.88670	         1.08568e+58
          1198.69300	         1.60478e+58
          1199.49930	         1.98025e+58
          1200.30560	         1.13159e+58
          1201.11190	         1.12289e+58
          1201.91820	         1.39576e+58
          1202.72450	         1.10593e+58
          1203.53080	         1.30776e+58
          1204.33710	         9.97027e+57
          1205.14340	         3.99300e+57
          1205.94970	         8.35185e+57
          1206.75600	         9.31554e+57
          1207.56230	         3.74628e+57
          1208.36860	         1.04600e+58
          1209.17490	         8.53049e+57
          1209.98120	         7.72204e+57
          1210.78750	         8.84787e+57
          1211.59380	         1.18187e+58
          1212.40010	         1.78125e+58
          1213.20640	         1.89596e+58
          1214.01270	         1.95381e+58
          1214.81900	         2.44487e+58
          1215.62530	         4.42521e+58
          1216.43160	         8.95021e+58
          1217.23790	         1.49203e+59
          1218.04420	         1.16515e+59
          1218.85050	         9.03238e+58
          1219.65680	         6.10019e+58
          1220.46310	         3.75520e+58
          1221.26940	         2.32503e+58
          1222.07570	         9.38914e+57
          1222.88200	         8.15652e+57
          1223.68830	         8.82860e+57
          1224.49460	         9.44589e+57
          1225.30090	         8.21497e+57
          1226.10720	         6.94124e+57
          1226.91350	         7.25330e+57
          1227.71980	         1.10034e+58
          1228.52610	         1.33712e+58
          1229.33240	         7.87408e+57
          1230.13870	         7.03429e+57
          1230.94500	         8.07331e+57
          1231.75130	         9.29672e+57
          1232.55760	         1.11575e+58
          1233.36390	         8.14455e+57
          1234.17020	         9.09436e+57
          1234.97650	         8.39583e+57
          1235.78280	         6.48037e+57
          1236.58910	         8.57185e+57
          1237.39540	         1.33981e+58
          1238.20170	         1.38178e+58
          1239.00800	         1.27093e+58
          1239.81430	         1.23961e+58
          1240.62060	         9.10933e+57
          1241.42690	         8.92001e+57
          1242.23320	         9.81562e+57
          1243.03950	         6.42638e+57
          1243.84580	         7.04033e+57
          1244.65210	         1.07834e+58
          1245.45840	         1.09947e+58
          1246.26470	         7.60472e+57
          1247.07100	         8.13988e+57
          1247.87730	         8.55598e+57
          1248.68360	         7.31280e+57
          1249.48990	         9.43346e+57
          1250.29620	         8.96973e+57
          1251.10250	         6.41269e+57
          1251.90880	         4.41362e+57
          1252.71510	         5.25867e+57
          1253.52140	         7.25186e+57
          1254.32770	         1.08886e+58
          1255.13400	         1.49482e+58
          1255.94030	         1.35720e+58
          1256.74660	         1.13503e+58
          1257.55290	         1.11131e+58
          1258.35920	         7.40778e+57
          1259.16550	         4.58084e+57
          1259.97180	         3.83514e+57
          1260.77810	         9.06623e+57
          1261.58440	         1.33093e+58
          1262.39070	         7.28905e+57
          1263.19700	         7.59245e+57
          1264.00330	         1.09138e+58
          1264.80960	         1.00663e+58
          1265.61590	         1.16837e+58
          1266.42220	         1.34173e+58
          1267.22850	         1.26972e+58
          1268.03480	         1.41667e+58
          1268.84110	         1.34019e+58
          1269.64740	         1.19332e+58
          1270.45370	         1.33166e+58
          1271.26000	         1.22077e+58
          1272.06630	         1.14917e+58
          1272.87260	         1.27298e+58
          1273.67890	         1.17309e+58
          1274.48520	         1.24938e+58
          1275.29150	         1.22934e+58
          1276.09780	         1.15259e+58
          1276.90410	         1.31478e+58
          1277.71040	         1.27422e+58
          1278.51670	         1.10390e+58
          1279.32300	         1.27183e+58
          1280.12930	         1.18218e+58
          1280.93560	         1.19527e+58
          1281.74190	         1.18537e+58
          1282.54820	         1.30360e+58
          1283.35450	         1.13676e+58
          1284.16080	         1.21652e+58
          1284.96710	         1.54174e+58
          1285.77340	         1.12651e+58
          1286.57970	         9.81091e+57
          1287.38600	         1.40735e+58
          1288.19230	         1.79941e+58
          1288.99860	         1.46828e+58
          1289.80490	         9.36618e+57
          1290.61120	         1.33462e+58
          1291.41750	         1.30185e+58
          1292.22380	         1.14161e+58
          1293.03010	         1.03109e+58
          1293.83640	         1.15459e+58
          1294.64270	         9.69175e+57
          1295.44900	         5.48921e+57
          1296.25530	         5.55201e+57
          1297.06160	         8.13491e+57
          1297.86790	         8.23337e+57
          1298.67420	         7.95387e+57
          1299.48050	         1.06223e+58
          1300.28680	         1.02707e+58
          1301.09310	         8.93431e+57
          1301.89940	         4.61079e+57
          1302.70570	         7.03033e+57
          1303.51200	         9.09435e+57
          1304.31830	         1.15707e+58
          1305.12460	         1.27080e+58
          1305.93090	         1.13080e+58
          1306.73720	         1.30704e+58
          1307.54350	         1.58962e+58
          1308.34980	         1.48104e+58
          1309.15610	         1.61112e+58
          1309.96240	         1.61343e+58
          1310.76870	         1.42061e+58
          1311.57500	         1.39393e+58
          1312.38130	         1.33211e+58
          1313.18760	         1.37919e+58
          1313.99390	         1.57834e+58
          1314.80020	         1.68543e+58
          1315.60650	         1.55423e+58
          1316.41280	         1.19856e+58
          1317.21910	         9.70905e+57
          1318.02540	         1.30657e+58
          1318.83170	         1.52624e+58
          1319.63800	         1.39058e+58
          1320.44430	         1.10244e+58
          1321.25060	         1.20498e+58
          1322.05690	         1.15709e+58
          1322.86320	         1.08727e+58
          1323.66950	         9.44801e+57
          1324.47580	         8.53543e+57
          1325.28210	         1.10754e+58
          1326.08840	         1.12163e+58
          1326.89470	         1.26421e+58
          1327.70100	         1.14738e+58
          1328.50730	         7.71210e+57
          1329.31360	         8.68715e+57
          1330.11990	         1.08213e+58
          1330.92620	         1.07599e+58
          1331.73250	         9.70372e+57
          1332.53880	         9.14992e+57
          1333.34510	         9.54435e+57
          1334.15140	         1.00432e+58
          1334.95770	         8.46863e+57
          1335.76400	         8.27128e+57
          1336.57030	         9.97672e+57
          1337.37660	         9.90607e+57
          1338.18290	         9.68203e+57
          1338.98920	         1.29505e+58
          1339.79550	         1.25749e+58
          1340.60180	         1.16465e+58
          1341.40810	         1.24013e+58
          1342.21440	         1.18960e+58
          1343.02070	         1.29549e+58
          1343.82700	         1.38882e+58
          1344.63330	         1.32342e+58
          1345.43960	         1.30752e+58
          1346.24590	         1.17711e+58
          1347.05220	         1.12753e+58
          1347.85850	         1.01258e+58
          1348.66480	         1.22301e+58
          1349.47110	         1.23752e+58
          1350.27740	         1.13315e+58
          1351.08370	         1.34738e+58
          1351.89000	         1.35746e+58
          1352.69630	         1.26459e+58
          1353.50260	         1.19584e+58
          1354.30890	         1.20680e+58
          1355.11520	         1.11007e+58
          1355.92150	         1.01194e+58
          1356.72780	         9.51520e+57
          1357.53410	         1.07607e+58
          1358.34040	         1.17779e+58
          1359.14670	         1.13837e+58
          1359.95300	         1.06470e+58
          1360.75930	         1.13631e+58
          1361.56560	         1.06461e+58
          1362.37190	         8.53519e+57
          1363.17820	         9.17018e+57
          1363.98450	         1.13068e+58
          1364.79080	         1.30517e+58
          1365.59710	         1.44052e+58
          1366.40340	         1.15908e+58
          1367.20970	         8.82208e+57
          1368.01600	         8.73162e+57
          1368.82230	         9.83605e+57
          1369.62860	         1.05787e+58
          1370.43490	         8.57844e+57
          1371.24120	         8.03830e+57
          1372.04750	         8.72702e+57
          1372.85380	         1.17260e+58
          1373.66010	         1.12232e+58
          1374.46640	         1.01083e+58
          1375.27270	         1.00765e+58
          1376.07900	         8.64252e+57
          1376.88530	         9.43579e+57
          1377.69160	         9.85227e+57
          1378.49790	         7.56387e+57
          1379.30420	         7.53302e+57
          1380.11050	         8.63947e+57
          1380.91680	         9.24712e+57
          1381.72310	         1.03987e+58
          1382.52940	         1.02538e+58
          1383.33570	         8.90062e+57
          1384.14200	         9.37915e+57
          1384.94830	         1.06031e+58
          1385.75460	         1.15394e+58
          1386.56090	         1.25680e+58
          1387.36720	         9.88034e+57
          1388.17350	         1.16395e+58
          1388.97980	         1.21490e+58
          1389.78610	         8.93211e+57
          1390.59240	         7.56596e+57
          1391.39870	         6.09147e+57
          1392.20500	         7.32195e+57
          1393.01130	         7.74374e+57
          1393.81760	         7.29230e+57
          1394.62390	         7.80008e+57
          1395.43020	         5.78197e+57
          1396.23650	         5.47604e+57
          1397.04280	         6.58312e+57
          1397.84910	         7.50773e+57
          1398.65540	         8.20100e+57
          1399.46170	         1.03950e+58
          1400.26800	         9.63071e+57
          1401.07430	         8.48801e+57
          1401.88060	         8.06407e+57
          1402.68690	         8.60426e+57
          1403.49320	         9.45568e+57
          1404.29950	         8.86440e+57
          1405.10580	         9.93997e+57
          1405.91210	         1.12934e+58
          1406.71840	         1.08778e+58
          1407.52470	         1.07778e+58
          1408.33100	         1.07344e+58
          1409.13730	         1.21678e+58
          1409.94360	         1.13755e+58
          1410.74990	         1.18097e+58
          1411.55620	         1.02694e+58
          1412.36250	         8.29557e+57
          1413.16880	         8.85372e+57
          1413.97510	         7.25399e+57
          1414.78140	         9.16892e+57
          1415.58770	         1.19445e+58
          1416.39400	         1.10550e+58
          1417.20030	         1.15751e+58
          1418.00660	         1.06823e+58
          1418.81290	         9.50918e+57
          1419.61920	         7.76241e+57
          1420.42550	         1.00715e+58
          1421.23180	         1.25132e+58
          1422.03810	         1.09352e+58
          1422.84440	         9.91563e+57
          1423.65070	         1.20542e+58
          1424.45700	         1.02398e+58
          1425.26330	         8.15275e+57
          1426.06960	         9.46553e+57
          1426.87590	         1.11407e+58
          1427.68220	         1.22815e+58
          1428.48850	         1.13707e+58
          1429.29480	         1.15824e+58
          1430.10110	         1.05627e+58
          1430.90740	         8.37150e+57
          1431.71370	         9.41689e+57
          1432.52000	         9.95386e+57
          1433.32630	         8.59114e+57
          1434.13260	         8.10767e+57
          1434.93890	         7.56453e+57
          1435.74520	         8.21392e+57
          1436.55150	         8.76517e+57
          1437.35780	         9.33260e+57
          1438.16410	         9.20444e+57
          1438.97040	         8.86284e+57
          1439.77670	         9.65678e+57
          1440.58300	         9.37454e+57
          1441.38930	         8.95540e+57
          1442.19560	         1.00710e+58
          1443.00190	         1.04787e+58
          1443.80820	         1.14125e+58
          1444.61450	         1.05970e+58
          1445.42080	         9.97992e+57
          1446.22710	         1.13939e+58
          1447.03340	         1.11114e+58
          1447.83970	         1.15808e+58
          1448.64600	         1.00935e+58
          1449.45230	         1.01806e+58
          1450.25860	         1.04393e+58
          1451.06490	         9.46755e+57
          1451.87120	         7.45504e+57
          1452.67750	         8.35789e+57
          1453.48380	         9.58105e+57
          1454.29010	         9.09274e+57
          1455.09640	         8.59116e+57
          1455.90270	         9.06868e+57
          1456.70900	         9.01594e+57
          1457.51530	         9.05940e+57
          1458.32160	         1.16349e+58
          1459.12790	         1.17124e+58
          1459.93420	         1.01233e+58
          1460.74050	         8.45598e+57
          1461.54680	         7.94056e+57
          1462.35310	         8.87272e+57
          1463.15940	         1.06664e+58
          1463.96570	         1.16663e+58
          1464.77200	         1.16883e+58
          1465.57830	         1.16976e+58
          1466.38460	         1.00017e+58
          1467.19090	         9.21964e+57
          1467.99720	         9.23618e+57
          1468.80350	         9.61471e+57
          1469.60980	         1.01557e+58
          1470.41610	         1.12602e+58
          1471.22240	         1.00396e+58
          1472.02870	         1.06590e+58
          1472.83500	         1.14212e+58
          1473.64130	         1.02195e+58
          1474.44760	         9.79723e+57
          1475.25390	         8.84109e+57
          1476.06020	         8.05383e+57
          1476.86650	         9.64590e+57
          1477.67280	         8.51859e+57
          1478.47910	         6.51098e+57
          1479.28540	         5.64911e+57
          1480.09170	         7.62672e+57
          1480.89800	         7.77366e+57
          1481.70430	         8.44375e+57
          1482.51060	         9.00770e+57
          1483.31690	         8.33795e+57
          1484.12320	         8.54751e+57
          1484.92950	         8.42739e+57
          1485.73580	         9.39050e+57
          1486.54210	         9.11507e+57
          1487.34840	         8.74792e+57
          1488.15470	         8.44063e+57
          1488.96100	         8.77533e+57
          1489.76730	         9.93765e+57
