#sample_384_stacked_spectrum_rest_UV-bands_median_H-alpha_noDC.txt
#median Lum: 1.70558e+42
#Rest-frame wavelength (A) | Luminosity (erg/s/A)
#
          1110.00000	         0.00000e+00
          1110.80630	         2.90114e+58
          1111.61260	         1.54264e+58
          1112.41890	        -2.26580e+57
          1113.22520	         1.76626e+59
          1114.03150	         2.81972e+58
          1114.83780	         3.31118e+59
          1115.64410	         1.39545e+59
          1116.45040	         2.40615e+59
          1117.25670	        -3.21670e+58
          1118.06300	         1.23926e+59
          1118.86930	         1.32078e+58
          1119.67560	         1.38930e+59
          1120.48190	        -3.65446e+58
          1121.28820	        -1.53154e+59
          1122.09450	        -1.09934e+58
          1122.90080	        -2.14600e+58
          1123.70710	        -2.40929e+58
          1124.51340	         5.00777e+58
          1125.31970	         2.68176e+57
          1126.12600	        -6.85622e+57
          1126.93230	        -4.44073e+58
          1127.73860	        -2.76975e+58
          1128.54490	         3.34910e+58
          1129.35120	         2.97409e+58
          1130.15750	         9.32820e+57
          1130.96380	        -1.33111e+58
          1131.77010	         7.14143e+57
          1132.57640	         2.72749e+58
          1133.38270	         1.55584e+58
          1134.18900	         3.79591e+58
          1134.99530	         1.96840e+58
          1135.80160	         4.41500e+58
          1136.60790	         3.38501e+58
          1137.41420	         1.12346e+58
          1138.22050	         4.78907e+58
          1139.02680	         4.44118e+58
          1139.83310	         3.06280e+58
          1140.63940	         2.09875e+58
          1141.44570	        -2.06079e+58
          1142.25200	        -2.61997e+58
          1143.05830	         3.63839e+57
          1143.86460	         1.70275e+58
          1144.67090	         2.26257e+58
          1145.47720	         1.66493e+58
          1146.28350	         1.41705e+57
          1147.08980	         7.19061e+57
          1147.89610	         1.51341e+58
          1148.70240	         1.81821e+58
          1149.50870	         1.34676e+58
          1150.31500	         6.28314e+57
          1151.12130	         1.12199e+58
          1151.92760	         2.74221e+56
          1152.73390	         2.17365e+58
          1153.54020	         1.12780e+58
          1154.34650	         2.05803e+58
          1155.15280	         1.71486e+58
          1155.95910	         2.10889e+58
          1156.76540	         1.36402e+58
          1157.57170	        -4.02377e+57
          1158.37800	        -7.35352e+57
          1159.18430	        -9.82474e+57
          1159.99060	         4.61674e+57
          1160.79690	        -1.36262e+57
          1161.60320	         1.23985e+57
          1162.40950	         2.14166e+58
          1163.21580	         2.14990e+58
          1164.02210	         1.83461e+58
          1164.82840	         1.51746e+58
          1165.63470	         1.37706e+58
          1166.44100	         3.25001e+58
          1167.24730	         2.06798e+58
          1168.05360	         3.58490e+57
          1168.85990	         3.74296e+57
          1169.66620	         6.16817e+57
          1170.47250	         1.12749e+58
          1171.27880	        -1.91393e+57
          1172.08510	         1.62751e+57
          1172.89140	         6.20755e+57
          1173.69770	         1.00414e+58
          1174.50400	         1.82958e+58
          1175.31030	         1.95772e+58
          1176.11660	         1.43274e+58
          1176.92290	         9.72322e+57
          1177.72920	         7.20453e+57
          1178.53550	         1.31653e+58
          1179.34180	         4.92448e+57
          1180.14810	         4.05966e+57
          1180.95440	         6.03768e+57
          1181.76070	         6.50341e+57
          1182.56700	         2.90343e+57
          1183.37330	        -1.02574e+57
          1184.17960	         7.56667e+57
          1184.98590	         6.69596e+57
          1185.79220	         4.89344e+57
          1186.59850	         1.23191e+58
          1187.40480	         1.04371e+58
          1188.21110	         1.40032e+58
          1189.01740	         9.84493e+57
          1189.82370	         1.00388e+58
          1190.63000	         9.80776e+57
          1191.43630	         1.35844e+58
          1192.24260	         8.82211e+57
          1193.04890	         1.00361e+58
          1193.85520	         1.28798e+58
          1194.66150	         1.21786e+58
          1195.46780	         1.45730e+58
          1196.27410	         1.34014e+58
          1197.08040	         7.49034e+57
          1197.88670	         1.04250e+58
          1198.69300	         1.37951e+58
          1199.49930	         1.61526e+58
          1200.30560	         1.17905e+58
          1201.11190	         9.15774e+57
          1201.91820	         1.06555e+58
          1202.72450	         7.53231e+57
          1203.53080	         1.79397e+58
          1204.33710	         1.05454e+58
          1205.14340	         8.19300e+57
          1205.94970	         6.23285e+57
          1206.75600	         6.57468e+57
          1207.56230	         4.37766e+57
          1208.36860	         1.02632e+58
          1209.17490	         6.20675e+57
          1209.98120	         4.33088e+57
          1210.78750	         7.53079e+57
          1211.59380	         1.44596e+58
          1212.40010	         1.57054e+58
          1213.20640	         1.56504e+58
          1214.01270	         1.81407e+58
          1214.81900	         2.30527e+58
          1215.62530	         4.21142e+58
          1216.43160	         8.95205e+58
          1217.23790	         1.51188e+59
          1218.04420	         1.12828e+59
          1218.85050	         8.51146e+58
          1219.65680	         5.66070e+58
          1220.46310	         3.32852e+58
          1221.26940	         2.23668e+58
          1222.07570	         1.04125e+58
          1222.88200	         8.76992e+57
          1223.68830	         1.09128e+58
          1224.49460	         7.15637e+57
          1225.30090	         5.73218e+57
          1226.10720	         4.22136e+57
          1226.91350	         4.15826e+57
          1227.71980	         8.69480e+57
          1228.52610	         1.10976e+58
          1229.33240	         1.00670e+58
          1230.13870	         9.56949e+57
          1230.94500	         9.46368e+57
          1231.75130	         7.91740e+57
          1232.55760	         6.70495e+57
          1233.36390	         8.27667e+57
          1234.17020	         7.90015e+57
          1234.97650	         5.89305e+57
          1235.78280	         5.93933e+57
          1236.58910	         9.42878e+57
          1237.39540	         1.22017e+58
          1238.20170	         1.07857e+58
          1239.00800	         1.22038e+58
          1239.81430	         1.48151e+58
          1240.62060	         9.45247e+57
          1241.42690	         9.39677e+57
          1242.23320	         1.24365e+58
          1243.03950	         9.11412e+57
          1243.84580	         8.46345e+57
          1244.65210	         8.95671e+57
          1245.45840	         9.09354e+57
          1246.26470	         8.60959e+57
          1247.07100	         6.15442e+57
          1247.87730	         5.26481e+57
          1248.68360	         4.99817e+57
          1249.48990	         1.12102e+58
          1250.29620	         8.69980e+57
          1251.10250	         4.69617e+57
          1251.90880	         3.27567e+57
          1252.71510	         3.45415e+57
          1253.52140	         7.69883e+57
          1254.32770	         1.06409e+58
          1255.13400	         1.26116e+58
          1255.94030	         1.07836e+58
          1256.74660	         9.83925e+57
          1257.55290	         1.09827e+58
          1258.35920	         9.39279e+57
          1259.16550	         6.13049e+57
          1259.97180	         4.47621e+57
          1260.77810	         9.32576e+57
          1261.58440	         1.24009e+58
          1262.39070	         9.10070e+57
          1263.19700	         5.91770e+57
          1264.00330	         8.79625e+57
          1264.80960	         1.03161e+58
          1265.61590	         1.10418e+58
          1266.42220	         1.23686e+58
          1267.22850	         1.07134e+58
          1268.03480	         1.26181e+58
          1268.84110	         1.49102e+58
          1269.64740	         1.30257e+58
          1270.45370	         1.28840e+58
          1271.26000	         1.38862e+58
          1272.06630	         1.31463e+58
          1272.87260	         1.27962e+58
          1273.67890	         1.28254e+58
          1274.48520	         1.32966e+58
          1275.29150	         1.25926e+58
          1276.09780	         1.18406e+58
          1276.90410	         1.54146e+58
          1277.71040	         1.46590e+58
          1278.51670	         1.08272e+58
          1279.32300	         1.03926e+58
          1280.12930	         1.19660e+58
          1280.93560	         1.14746e+58
          1281.74190	         1.21441e+58
          1282.54820	         1.22553e+58
          1283.35450	         9.80031e+57
          1284.16080	         1.10496e+58
          1284.96710	         1.23362e+58
          1285.77340	         1.12966e+58
          1286.57970	         1.30310e+58
          1287.38600	         1.64939e+58
          1288.19230	         1.95713e+58
          1288.99860	         1.76526e+58
          1289.80490	         1.26280e+58
          1290.61120	         1.38977e+58
          1291.41750	         1.52526e+58
          1292.22380	         1.12443e+58
          1293.03010	         1.04471e+58
          1293.83640	         1.21786e+58
          1294.64270	         9.82519e+57
          1295.44900	         5.80155e+57
          1296.25530	         7.79315e+57
          1297.06160	         1.00379e+58
          1297.86790	         9.80190e+57
          1298.67420	         8.10878e+57
          1299.48050	         9.31460e+57
          1300.28680	         1.10299e+58
          1301.09310	         7.67197e+57
          1301.89940	         4.85193e+57
          1302.70570	         7.85691e+57
          1303.51200	         8.72971e+57
          1304.31830	         1.06143e+58
          1305.12460	         1.09818e+58
          1305.93090	         1.14446e+58
          1306.73720	         1.25498e+58
          1307.54350	         1.37941e+58
          1308.34980	         1.42357e+58
          1309.15610	         1.44656e+58
          1309.96240	         1.34317e+58
          1310.76870	         1.23394e+58
          1311.57500	         1.13904e+58
          1312.38130	         1.24093e+58
          1313.18760	         1.56678e+58
          1313.99390	         1.84090e+58
          1314.80020	         1.56108e+58
          1315.60650	         1.23922e+58
          1316.41280	         1.11282e+58
          1317.21910	         1.14011e+58
          1318.02540	         1.22614e+58
          1318.83170	         1.29880e+58
          1319.63800	         1.11744e+58
          1320.44430	         1.00587e+58
          1321.25060	         1.19576e+58
          1322.05690	         1.23603e+58
          1322.86320	         1.23092e+58
          1323.66950	         1.15914e+58
          1324.47580	         9.23366e+57
          1325.28210	         9.81401e+57
          1326.08840	         1.22479e+58
          1326.89470	         1.24996e+58
          1327.70100	         1.21289e+58
          1328.50730	         9.47361e+57
          1329.31360	         1.03110e+58
          1330.11990	         9.70590e+57
          1330.92620	         8.41799e+57
          1331.73250	         9.70973e+57
          1332.53880	         1.02644e+58
          1333.34510	         9.16880e+57
          1334.15140	         8.06668e+57
          1334.95770	         8.95442e+57
          1335.76400	         1.14749e+58
          1336.57030	         1.16106e+58
          1337.37660	         1.04751e+58
          1338.18290	         1.03662e+58
          1338.98920	         1.18939e+58
          1339.79550	         1.14364e+58
          1340.60180	         1.24411e+58
          1341.40810	         1.43907e+58
          1342.21440	         1.21783e+58
          1343.02070	         1.25348e+58
          1343.82700	         1.40327e+58
          1344.63330	         1.23000e+58
          1345.43960	         1.33553e+58
          1346.24590	         1.18126e+58
          1347.05220	         1.09940e+58
          1347.85850	         9.14400e+57
          1348.66480	         9.75102e+57
          1349.47110	         1.17378e+58
          1350.27740	         1.09398e+58
          1351.08370	         1.06521e+58
          1351.89000	         1.13262e+58
          1352.69630	         1.15807e+58
          1353.50260	         1.20099e+58
          1354.30890	         1.18923e+58
          1355.11520	         1.09619e+58
          1355.92150	         9.02436e+57
          1356.72780	         8.83977e+57
          1357.53410	         1.07962e+58
          1358.34040	         1.09876e+58
          1359.14670	         1.09376e+58
          1359.95300	         1.12690e+58
          1360.75930	         1.13123e+58
          1361.56560	         1.07325e+58
          1362.37190	         1.04042e+58
          1363.17820	         1.14983e+58
          1363.98450	         1.28311e+58
          1364.79080	         1.25738e+58
          1365.59710	         1.17410e+58
          1366.40340	         1.09375e+58
          1367.20970	         1.00534e+58
          1368.01600	         1.10343e+58
          1368.82230	         1.01148e+58
          1369.62860	         1.03157e+58
          1370.43490	         8.76681e+57
          1371.24120	         8.37902e+57
          1372.04750	         8.18395e+57
          1372.85380	         1.04873e+58
          1373.66010	         1.06172e+58
          1374.46640	         9.23520e+57
          1375.27270	         1.00305e+58
          1376.07900	         9.28113e+57
          1376.88530	         8.50881e+57
          1377.69160	         8.01034e+57
          1378.49790	         6.72100e+57
          1379.30420	         7.00942e+57
          1380.11050	         8.64772e+57
          1380.91680	         9.19128e+57
          1381.72310	         8.18418e+57
          1382.52940	         7.78636e+57
          1383.33570	         8.23904e+57
          1384.14200	         9.18738e+57
          1384.94830	         1.00180e+58
          1385.75460	         9.78262e+57
          1386.56090	         1.19259e+58
          1387.36720	         1.09173e+58
          1388.17350	         1.13772e+58
          1388.97980	         1.17957e+58
          1389.78610	         9.12269e+57
          1390.59240	         6.48492e+57
          1391.39870	         7.05181e+57
          1392.20500	         7.58612e+57
          1393.01130	         6.00028e+57
          1393.81760	         7.08084e+57
          1394.62390	         7.39627e+57
          1395.43020	         5.48036e+57
          1396.23650	         5.73812e+57
          1397.04280	         7.27571e+57
          1397.84910	         8.70122e+57
          1398.65540	         8.90682e+57
          1399.46170	         1.02864e+58
          1400.26800	         9.53400e+57
          1401.07430	         8.46806e+57
          1401.88060	         8.80120e+57
          1402.68690	         9.93584e+57
          1403.49320	         9.38921e+57
          1404.29950	         8.18741e+57
          1405.10580	         9.53217e+57
          1405.91210	         1.02365e+58
          1406.71840	         9.10822e+57
          1407.52470	         9.52805e+57
          1408.33100	         1.08407e+58
          1409.13730	         1.27082e+58
          1409.94360	         1.31081e+58
          1410.74990	         1.15235e+58
          1411.55620	         9.50095e+57
          1412.36250	         8.33886e+57
          1413.16880	         8.39393e+57
          1413.97510	         8.09853e+57
          1414.78140	         8.68918e+57
          1415.58770	         9.37657e+57
          1416.39400	         1.05973e+58
          1417.20030	         1.21813e+58
          1418.00660	         1.02787e+58
          1418.81290	         9.21148e+57
          1419.61920	         9.23139e+57
          1420.42550	         1.19185e+58
          1421.23180	         1.38161e+58
          1422.03810	         1.20515e+58
          1422.84440	         1.13846e+58
          1423.65070	         1.22802e+58
          1424.45700	         1.13542e+58
          1425.26330	         9.16076e+57
          1426.06960	         7.86080e+57
          1426.87590	         9.55868e+57
          1427.68220	         1.04047e+58
          1428.48850	         1.09693e+58
          1429.29480	         1.08306e+58
          1430.10110	         1.03946e+58
          1430.90740	         8.81544e+57
          1431.71370	         8.06864e+57
          1432.52000	         8.43712e+57
          1433.32630	         7.76904e+57
          1434.13260	         7.66474e+57
          1434.93890	         8.52442e+57
          1435.74520	         8.43984e+57
          1436.55150	         9.30457e+57
          1437.35780	         8.95624e+57
          1438.16410	         8.92268e+57
          1438.97040	         9.60039e+57
          1439.77670	         9.14930e+57
          1440.58300	         9.44645e+57
          1441.38930	         1.04204e+58
          1442.19560	         1.03404e+58
          1443.00190	         1.00542e+58
          1443.80820	         1.07206e+58
          1444.61450	         9.16140e+57
          1445.42080	         7.96144e+57
          1446.22710	         9.30910e+57
          1447.03340	         1.01226e+58
          1447.83970	         1.00925e+58
          1448.64600	         1.01309e+58
          1449.45230	         1.00234e+58
          1450.25860	         9.87125e+57
          1451.06490	         9.56959e+57
          1451.87120	         7.81931e+57
          1452.67750	         7.43351e+57
          1453.48380	         9.09243e+57
          1454.29010	         8.10988e+57
          1455.09640	         7.13900e+57
          1455.90270	         8.33681e+57
          1456.70900	         8.84006e+57
          1457.51530	         9.62135e+57
          1458.32160	         1.21562e+58
          1459.12790	         1.20422e+58
          1459.93420	         9.91600e+57
          1460.74050	         8.18471e+57
          1461.54680	         8.46243e+57
          1462.35310	         8.08001e+57
          1463.15940	         9.03791e+57
          1463.96570	         1.01194e+58
          1464.77200	         1.09835e+58
          1465.57830	         1.02175e+58
          1466.38460	         9.77529e+57
          1467.19090	         9.18292e+57
          1467.99720	         9.22883e+57
          1468.80350	         8.69779e+57
          1469.60980	         9.35489e+57
          1470.41610	         1.07393e+58
          1471.22240	         9.56333e+57
          1472.02870	         8.90516e+57
          1472.83500	         9.91448e+57
          1473.64130	         1.00871e+58
          1474.44760	         9.41565e+57
          1475.25390	         9.00095e+57
          1476.06020	         8.79064e+57
          1476.86650	         8.33950e+57
          1477.67280	         7.61107e+57
          1478.47910	         7.31252e+57
          1479.28540	         7.64735e+57
          1480.09170	         9.19839e+57
          1480.89800	         9.82969e+57
          1481.70430	         9.39801e+57
          1482.51060	         8.37615e+57
          1483.31690	         7.70325e+57
          1484.12320	         8.14955e+57
          1484.92950	         7.96034e+57
          1485.73580	         7.86709e+57
          1486.54210	         8.99838e+57
          1487.34840	         8.65791e+57
          1488.15470	         7.57220e+57
          1488.96100	         9.27267e+57
          1489.76730	         1.02212e+58
