#sample_30_stacked_spectrum_rest_UV-bands_median_H-alpha_noDC.txt
#median Lum: 1.70657e+42
#Rest-frame wavelength (A) | Luminosity (erg/s/A)
#
          1110.00000	         0.00000e+00
          1110.80630	        -1.45018e+59
          1111.61260	         1.28466e+58
          1112.41890	        -1.02173e+59
          1113.22520	         1.80985e+59
          1114.03150	        -1.21963e+59
          1114.83780	         5.86663e+58
          1115.64410	         1.11981e+59
          1116.45040	         2.52386e+59
          1117.25670	        -6.93939e+58
          1118.06300	         1.52412e+59
          1118.86930	         2.49579e+58
          1119.67560	         6.12862e+58
          1120.48190	        -4.60793e+58
          1121.28820	        -1.29189e+59
          1122.09450	        -7.53552e+57
          1122.90080	        -4.70491e+58
          1123.70710	         5.59628e+58
          1124.51340	         6.82536e+58
          1125.31970	         3.78760e+58
          1126.12600	         3.98812e+57
          1126.93230	        -1.70540e+58
          1127.73860	        -5.66826e+58
          1128.54490	         1.59222e+58
          1129.35120	         1.72286e+56
          1130.15750	        -2.46719e+57
          1130.96380	        -2.69970e+58
          1131.77010	         2.16904e+58
          1132.57640	         3.90052e+58
          1133.38270	         1.00244e+58
          1134.18900	         2.70336e+58
          1134.99530	        -1.56631e+58
          1135.80160	         8.67120e+57
          1136.60790	        -9.96247e+57
          1137.41420	        -1.07615e+58
          1138.22050	         3.08370e+58
          1139.02680	         2.17012e+58
          1139.83310	         1.41320e+58
          1140.63940	         9.68538e+57
          1141.44570	        -2.01252e+58
          1142.25200	         5.01496e+57
          1143.05830	         3.78916e+58
          1143.86460	         3.21716e+58
          1144.67090	         2.30580e+58
          1145.47720	         1.48378e+58
          1146.28350	         1.16277e+58
          1147.08980	         1.45459e+58
          1147.89610	         4.50959e+57
          1148.70240	         9.76103e+57
          1149.50870	         2.50119e+58
          1150.31500	         1.42775e+58
          1151.12130	         2.29739e+58
          1151.92760	         2.42393e+57
          1152.73390	         5.66423e+57
          1153.54020	        -5.12322e+55
          1154.34650	         2.30840e+58
          1155.15280	         2.75847e+58
          1155.95910	         1.16466e+58
          1156.76540	         1.69200e+58
          1157.57170	        -2.19644e+57
          1158.37800	         4.13417e+57
          1159.18430	         5.11141e+57
          1159.99060	         7.96445e+57
          1160.79690	         4.20423e+57
          1161.60320	         1.32200e+58
          1162.40950	         1.70491e+58
          1163.21580	         1.45963e+58
          1164.02210	         1.58331e+58
          1164.82840	         7.77438e+57
          1165.63470	         1.81766e+58
          1166.44100	         2.98953e+58
          1167.24730	         1.90411e+58
          1168.05360	         4.38366e+57
          1168.85990	         8.49944e+57
          1169.66620	         5.70443e+57
          1170.47250	         4.17448e+57
          1171.27880	         6.04998e+57
          1172.08510	         8.79423e+57
          1172.89140	         1.01293e+58
          1173.69770	         5.83323e+57
          1174.50400	         1.64667e+58
          1175.31030	         1.98849e+58
          1176.11660	         1.77358e+58
          1176.92290	         1.75304e+58
          1177.72920	         1.62947e+58
          1178.53550	         1.50981e+58
          1179.34180	         6.45932e+57
          1180.14810	         6.46676e+57
          1180.95440	         1.31562e+58
          1181.76070	         1.22042e+58
          1182.56700	         1.08578e+58
          1183.37330	         7.13285e+57
          1184.17960	         9.45758e+57
          1184.98590	         7.60260e+57
          1185.79220	         9.95949e+57
          1186.59850	         1.50751e+58
          1187.40480	         1.33385e+58
          1188.21110	         2.02336e+58
          1189.01740	         1.05581e+58
          1189.82370	         7.97081e+57
          1190.63000	         1.30923e+58
          1191.43630	         1.19464e+58
          1192.24260	         7.09463e+57
          1193.04890	         1.19668e+58
          1193.85520	         1.07694e+58
          1194.66150	         6.28177e+57
          1195.46780	         1.14429e+58
          1196.27410	         1.41864e+58
          1197.08040	         9.69174e+57
          1197.88670	         1.34375e+58
          1198.69300	         1.24440e+58
          1199.49930	         1.18065e+58
          1200.30560	         9.40208e+57
          1201.11190	         1.37063e+58
          1201.91820	         1.24708e+58
          1202.72450	         6.63636e+57
          1203.53080	         1.35722e+58
          1204.33710	         4.12208e+57
          1205.14340	         9.43414e+57
          1205.94970	         7.99547e+57
          1206.75600	         7.18841e+57
          1207.56230	         6.37608e+57
          1208.36860	         1.21259e+58
          1209.17490	         7.46255e+57
          1209.98120	         6.04349e+57
          1210.78750	         8.46428e+57
          1211.59380	         9.81993e+57
          1212.40010	         1.82548e+58
          1213.20640	         2.11962e+58
          1214.01270	         2.13646e+58
          1214.81900	         2.55365e+58
          1215.62530	         4.17448e+58
          1216.43160	         8.80662e+58
          1217.23790	         1.49367e+59
          1218.04420	         1.09879e+59
          1218.85050	         8.30242e+58
          1219.65680	         5.44504e+58
          1220.46310	         3.33305e+58
          1221.26940	         2.34564e+58
          1222.07570	         1.13751e+58
          1222.88200	         1.28796e+58
          1223.68830	         1.12228e+58
          1224.49460	         7.98447e+57
          1225.30090	         7.31926e+57
          1226.10720	         8.50823e+57
          1226.91350	         8.98392e+57
          1227.71980	         7.70179e+57
          1228.52610	         1.17339e+58
          1229.33240	         1.21159e+58
          1230.13870	         7.64848e+57
          1230.94500	         6.48327e+57
          1231.75130	         6.31480e+57
          1232.55760	         6.04002e+57
          1233.36390	         9.19861e+57
          1234.17020	         9.08049e+57
          1234.97650	         7.44839e+57
          1235.78280	         9.66185e+57
          1236.58910	         9.06044e+57
          1237.39540	         1.01893e+58
          1238.20170	         1.29966e+58
          1239.00800	         1.24036e+58
          1239.81430	         1.40562e+58
          1240.62060	         1.31190e+58
          1241.42690	         1.10527e+58
          1242.23320	         1.01255e+58
          1243.03950	         6.92214e+57
          1243.84580	         8.44108e+57
          1244.65210	         1.01485e+58
          1245.45840	         9.46667e+57
          1246.26470	         9.42340e+57
          1247.07100	         8.27968e+57
          1247.87730	         6.34795e+57
          1248.68360	         5.58818e+57
          1249.48990	         9.74292e+57
          1250.29620	         8.61359e+57
          1251.10250	         5.19785e+57
          1251.90880	         5.08464e+57
          1252.71510	         4.97351e+57
          1253.52140	         7.19650e+57
          1254.32770	         1.18611e+58
          1255.13400	         1.35611e+58
          1255.94030	         1.20840e+58
          1256.74660	         1.19802e+58
          1257.55290	         1.29359e+58
          1258.35920	         8.81756e+57
          1259.16550	         5.17385e+57
          1259.97180	         6.61122e+57
          1260.77810	         7.58539e+57
          1261.58440	         1.04335e+58
          1262.39070	         1.04575e+58
          1263.19700	         8.20960e+57
          1264.00330	         8.55097e+57
          1264.80960	         1.06583e+58
          1265.61590	         1.28765e+58
          1266.42220	         1.08813e+58
          1267.22850	         9.94173e+57
          1268.03480	         1.41396e+58
          1268.84110	         1.50594e+58
          1269.64740	         1.25293e+58
          1270.45370	         1.33715e+58
          1271.26000	         1.18557e+58
          1272.06630	         1.22336e+58
          1272.87260	         1.38721e+58
          1273.67890	         1.43424e+58
          1274.48520	         1.34361e+58
          1275.29150	         1.22651e+58
          1276.09780	         1.13109e+58
          1276.90410	         1.48272e+58
          1277.71040	         1.36053e+58
          1278.51670	         1.15922e+58
          1279.32300	         1.24559e+58
          1280.12930	         1.23474e+58
          1280.93560	         1.01311e+58
          1281.74190	         1.23336e+58
          1282.54820	         1.31948e+58
          1283.35450	         1.04713e+58
          1284.16080	         1.18201e+58
          1284.96710	         1.40033e+58
          1285.77340	         1.11761e+58
          1286.57970	         9.04863e+57
          1287.38600	         1.31755e+58
          1288.19230	         1.64301e+58
          1288.99860	         1.31723e+58
          1289.80490	         1.06543e+58
          1290.61120	         1.18710e+58
          1291.41750	         1.31419e+58
          1292.22380	         1.06803e+58
          1293.03010	         1.16347e+58
          1293.83640	         1.34985e+58
          1294.64270	         1.18336e+58
          1295.44900	         8.20997e+57
          1296.25530	         8.05378e+57
          1297.06160	         1.04247e+58
          1297.86790	         9.44422e+57
          1298.67420	         1.00782e+58
          1299.48050	         1.01217e+58
          1300.28680	         9.10412e+57
          1301.09310	         7.10998e+57
          1301.89940	         4.59656e+57
          1302.70570	         7.10191e+57
          1303.51200	         7.27576e+57
          1304.31830	         8.88538e+57
          1305.12460	         1.03582e+58
          1305.93090	         1.12361e+58
          1306.73720	         1.15721e+58
          1307.54350	         1.25285e+58
          1308.34980	         1.32249e+58
          1309.15610	         1.47864e+58
          1309.96240	         1.59020e+58
          1310.76870	         1.35967e+58
          1311.57500	         1.21397e+58
          1312.38130	         1.28884e+58
          1313.18760	         1.62830e+58
          1313.99390	         1.54461e+58
          1314.80020	         1.48215e+58
          1315.60650	         1.53146e+58
          1316.41280	         1.30783e+58
          1317.21910	         1.05914e+58
          1318.02540	         1.28165e+58
          1318.83170	         1.43361e+58
          1319.63800	         1.11150e+58
          1320.44430	         1.15581e+58
          1321.25060	         1.36413e+58
          1322.05690	         1.28291e+58
          1322.86320	         1.12439e+58
          1323.66950	         1.10658e+58
          1324.47580	         8.03927e+57
          1325.28210	         8.59944e+57
          1326.08840	         1.22770e+58
          1326.89470	         1.34029e+58
          1327.70100	         1.04643e+58
          1328.50730	         8.20835e+57
          1329.31360	         9.24946e+57
          1330.11990	         1.00069e+58
          1330.92620	         8.75171e+57
          1331.73250	         1.06052e+58
          1332.53880	         1.14203e+58
          1333.34510	         1.02757e+58
          1334.15140	         9.11120e+57
          1334.95770	         9.39573e+57
          1335.76400	         1.14221e+58
          1336.57030	         1.11978e+58
          1337.37660	         9.66694e+57
          1338.18290	         9.87246e+57
          1338.98920	         1.08603e+58
          1339.79550	         1.16299e+58
          1340.60180	         1.22607e+58
          1341.40810	         1.37095e+58
          1342.21440	         1.40693e+58
          1343.02070	         1.27557e+58
          1343.82700	         1.24124e+58
          1344.63330	         1.40269e+58
          1345.43960	         1.38413e+58
          1346.24590	         1.15138e+58
          1347.05220	         1.22094e+58
          1347.85850	         1.03697e+58
          1348.66480	         1.26892e+58
          1349.47110	         1.41819e+58
          1350.27740	         1.14536e+58
          1351.08370	         1.00101e+58
          1351.89000	         1.08710e+58
          1352.69630	         1.11532e+58
          1353.50260	         1.10078e+58
          1354.30890	         1.16514e+58
          1355.11520	         1.23227e+58
          1355.92150	         1.17192e+58
          1356.72780	         1.03698e+58
          1357.53410	         9.51549e+57
          1358.34040	         1.01451e+58
          1359.14670	         1.07720e+58
          1359.95300	         1.12178e+58
          1360.75930	         1.11893e+58
          1361.56560	         1.09706e+58
          1362.37190	         1.15097e+58
          1363.17820	         1.14991e+58
          1363.98450	         1.02437e+58
          1364.79080	         1.07668e+58
          1365.59710	         1.20857e+58
          1366.40340	         1.13976e+58
          1367.20970	         1.00516e+58
          1368.01600	         9.69842e+57
          1368.82230	         8.77480e+57
          1369.62860	         9.21159e+57
          1370.43490	         8.38358e+57
          1371.24120	         9.03594e+57
          1372.04750	         7.86442e+57
          1372.85380	         9.00630e+57
          1373.66010	         1.00336e+58
          1374.46640	         1.05506e+58
          1375.27270	         1.10770e+58
          1376.07900	         1.03838e+58
          1376.88530	         8.98479e+57
          1377.69160	         8.78407e+57
          1378.49790	         8.09929e+57
          1379.30420	         8.31580e+57
          1380.11050	         9.40751e+57
          1380.91680	         9.48245e+57
          1381.72310	         8.00633e+57
          1382.52940	         7.24315e+57
          1383.33570	         8.52730e+57
          1384.14200	         1.07927e+58
          1384.94830	         1.01820e+58
          1385.75460	         1.09964e+58
          1386.56090	         1.09157e+58
          1387.36720	         1.00437e+58
          1388.17350	         1.19540e+58
          1388.97980	         1.16471e+58
          1389.78610	         8.99880e+57
          1390.59240	         7.37048e+57
          1391.39870	         8.08586e+57
          1392.20500	         9.26962e+57
          1393.01130	         9.04610e+57
          1393.81760	         7.47038e+57
          1394.62390	         7.79638e+57
          1395.43020	         6.92986e+57
          1396.23650	         7.33088e+57
          1397.04280	         7.90486e+57
          1397.84910	         8.34239e+57
          1398.65540	         9.49280e+57
          1399.46170	         9.71184e+57
          1400.26800	         7.59490e+57
          1401.07430	         7.79312e+57
          1401.88060	         8.64315e+57
          1402.68690	         9.85150e+57
          1403.49320	         1.07298e+58
          1404.29950	         9.94393e+57
          1405.10580	         1.06639e+58
          1405.91210	         1.15145e+58
          1406.71840	         1.02447e+58
          1407.52470	         1.06790e+58
          1408.33100	         1.05986e+58
          1409.13730	         1.09532e+58
          1409.94360	         1.19089e+58
          1410.74990	         1.24602e+58
          1411.55620	         1.07316e+58
          1412.36250	         8.41611e+57
          1413.16880	         8.66379e+57
          1413.97510	         7.87683e+57
          1414.78140	         8.28130e+57
          1415.58770	         9.83298e+57
          1416.39400	         1.11574e+58
          1417.20030	         1.17468e+58
          1418.00660	         8.57017e+57
          1418.81290	         9.14513e+57
          1419.61920	         1.04522e+58
          1420.42550	         1.18400e+58
          1421.23180	         1.31455e+58
          1422.03810	         1.17811e+58
          1422.84440	         1.06625e+58
          1423.65070	         1.32886e+58
          1424.45700	         1.15878e+58
          1425.26330	         9.00791e+57
          1426.06960	         9.68696e+57
          1426.87590	         1.02263e+58
          1427.68220	         8.96134e+57
          1428.48850	         1.01090e+58
          1429.29480	         1.01620e+58
          1430.10110	         1.03351e+58
          1430.90740	         9.80491e+57
          1431.71370	         9.41687e+57
          1432.52000	         9.40384e+57
          1433.32630	         8.25244e+57
          1434.13260	         8.12444e+57
          1434.93890	         9.66096e+57
          1435.74520	         1.01101e+58
          1436.55150	         9.18014e+57
          1437.35780	         7.40544e+57
          1438.16410	         8.33382e+57
          1438.97040	         9.34351e+57
          1439.77670	         8.79705e+57
          1440.58300	         8.51092e+57
          1441.38930	         8.81594e+57
          1442.19560	         9.51961e+57
          1443.00190	         9.29564e+57
          1443.80820	         1.05840e+58
          1444.61450	         1.00937e+58
          1445.42080	         7.76706e+57
          1446.22710	         9.97537e+57
          1447.03340	         1.06843e+58
          1447.83970	         1.12215e+58
          1448.64600	         1.13585e+58
          1449.45230	         1.02204e+58
          1450.25860	         9.08750e+57
          1451.06490	         7.86967e+57
          1451.87120	         7.25074e+57
          1452.67750	         7.30582e+57
          1453.48380	         8.48273e+57
          1454.29010	         7.83533e+57
          1455.09640	         7.67341e+57
          1455.90270	         8.73913e+57
          1456.70900	         8.13234e+57
          1457.51530	         9.18948e+57
          1458.32160	         1.16731e+58
          1459.12790	         1.18780e+58
          1459.93420	         1.04082e+58
          1460.74050	         8.60168e+57
          1461.54680	         8.52087e+57
          1462.35310	         8.51168e+57
          1463.15940	         9.22994e+57
          1463.96570	         1.07029e+58
          1464.77200	         1.15824e+58
          1465.57830	         1.08766e+58
          1466.38460	         9.98433e+57
          1467.19090	         8.22087e+57
          1467.99720	         8.39655e+57
          1468.80350	         8.99781e+57
          1469.60980	         9.25718e+57
          1470.41610	         1.03235e+58
          1471.22240	         9.38395e+57
          1472.02870	         9.20250e+57
          1472.83500	         9.98868e+57
          1473.64130	         1.03391e+58
          1474.44760	         1.00966e+58
          1475.25390	         9.70434e+57
          1476.06020	         9.37357e+57
          1476.86650	         7.31958e+57
          1477.67280	         7.57974e+57
          1478.47910	         8.52548e+57
          1479.28540	         7.70052e+57
          1480.09170	         8.14357e+57
          1480.89800	         9.46475e+57
          1481.70430	         9.62198e+57
          1482.51060	         8.72915e+57
          1483.31690	         7.68346e+57
          1484.12320	         8.21172e+57
          1484.92950	         8.63896e+57
          1485.73580	         8.39840e+57
          1486.54210	         8.37038e+57
          1487.34840	         9.21478e+57
          1488.15470	         8.05167e+57
          1488.96100	         8.78132e+57
          1489.76730	         9.37402e+57
