#sample_420_stacked_spectrum_rest_UV-bands_median_H-alpha_noDC.txt
#median Lum: 1.68984e+42
#Rest-frame wavelength (A) | Luminosity (erg/s/A)
#
          1110.00000	         0.00000e+00
          1110.80630	         6.76990e+59
          1111.61260	         2.01269e+59
          1112.41890	         2.44766e+59
          1113.22520	         1.34656e+59
          1114.03150	        -1.82284e+59
          1114.83780	         4.57011e+58
          1115.64410	         1.99612e+59
          1116.45040	         2.74321e+59
          1117.25670	         2.21413e+59
          1118.06300	         1.36350e+59
          1118.86930	        -2.94542e+58
          1119.67560	         1.81123e+59
          1120.48190	         1.14624e+59
          1121.28820	        -1.00926e+59
          1122.09450	         2.45467e+57
          1122.90080	         3.92421e+58
          1123.70710	         6.40857e+58
          1124.51340	         6.45598e+58
          1125.31970	         1.19724e+58
          1126.12600	         1.60039e+58
          1126.93230	        -1.45253e+58
          1127.73860	        -3.38540e+58
          1128.54490	        -2.22525e+58
          1129.35120	         2.18362e+58
          1130.15750	        -1.28021e+58
          1130.96380	        -1.57954e+57
          1131.77010	         5.82052e+58
          1132.57640	         3.67424e+58
          1133.38270	         1.80241e+58
          1134.18900	         2.62666e+58
          1134.99530	        -5.54784e+57
          1135.80160	         3.79502e+58
          1136.60790	         4.30601e+58
          1137.41420	         1.33490e+57
          1138.22050	         2.45505e+58
          1139.02680	         1.56406e+58
          1139.83310	         1.81200e+58
          1140.63940	         1.68812e+58
          1141.44570	        -2.32417e+58
          1142.25200	        -1.91169e+57
          1143.05830	         1.90071e+58
          1143.86460	         1.12164e+58
          1144.67090	         1.50025e+57
          1145.47720	         2.13251e+58
          1146.28350	         2.34736e+58
          1147.08980	         1.61855e+58
          1147.89610	         1.56200e+58
          1148.70240	         2.12084e+58
          1149.50870	         2.79166e+58
          1150.31500	         2.45895e+58
          1151.12130	         2.01671e+58
          1151.92760	        -3.99304e+56
          1152.73390	         3.36037e+57
          1153.54020	         1.29629e+58
          1154.34650	         2.95744e+58
          1155.15280	         2.08901e+58
          1155.95910	        -1.53770e+57
          1156.76540	         7.49631e+57
          1157.57170	         8.30251e+56
          1158.37800	        -3.75939e+57
          1159.18430	        -3.37184e+57
          1159.99060	         2.45383e+57
          1160.79690	         1.92365e+57
          1161.60320	         4.88645e+57
          1162.40950	         1.53125e+58
          1163.21580	         1.39573e+58
          1164.02210	         1.31823e+58
          1164.82840	         1.49905e+57
          1165.63470	         2.34095e+58
          1166.44100	         3.59696e+58
          1167.24730	         2.31668e+58
          1168.05360	         1.00019e+58
          1168.85990	         7.66794e+57
          1169.66620	         1.23617e+58
          1170.47250	         1.42613e+58
          1171.27880	         1.09492e+58
          1172.08510	         1.93272e+58
          1172.89140	         1.99718e+58
          1173.69770	         7.21507e+57
          1174.50400	         5.57268e+57
          1175.31030	         1.45308e+58
          1176.11660	         1.49961e+58
          1176.92290	         1.59564e+58
          1177.72920	         1.06613e+58
          1178.53550	         2.49857e+57
          1179.34180	        -3.75854e+56
          1180.14810	         3.81996e+57
          1180.95440	         1.50346e+58
          1181.76070	         1.42327e+58
          1182.56700	         7.25748e+57
          1183.37330	         4.88093e+57
          1184.17960	         1.06255e+58
          1184.98590	         9.99022e+57
          1185.79220	         5.02041e+57
          1186.59850	         9.10469e+57
          1187.40480	         1.26944e+58
          1188.21110	         1.34623e+58
          1189.01740	         9.18222e+57
          1189.82370	         1.43483e+58
          1190.63000	         1.58535e+58
          1191.43630	         1.27514e+58
          1192.24260	         1.00180e+58
          1193.04890	         1.30665e+58
          1193.85520	         1.05331e+58
          1194.66150	        -1.32344e+57
          1195.46780	         1.05531e+58
          1196.27410	         1.62237e+58
          1197.08040	         9.69289e+57
          1197.88670	         1.30110e+58
          1198.69300	         1.47448e+58
          1199.49930	         1.25982e+58
          1200.30560	         8.73236e+57
          1201.11190	         1.03574e+58
          1201.91820	         1.16395e+58
          1202.72450	         8.49681e+57
          1203.53080	         1.38382e+58
          1204.33710	         9.21672e+57
          1205.14340	         8.27907e+57
          1205.94970	         6.49772e+57
          1206.75600	         7.14304e+57
          1207.56230	         5.27145e+57
          1208.36860	         7.89003e+57
          1209.17490	         7.02589e+57
          1209.98120	         6.17812e+57
          1210.78750	         5.70567e+57
          1211.59380	         8.87558e+57
          1212.40010	         1.31640e+58
          1213.20640	         2.09393e+58
          1214.01270	         2.23362e+58
          1214.81900	         2.79080e+58
          1215.62530	         4.69022e+58
          1216.43160	         8.91907e+58
          1217.23790	         1.53571e+59
          1218.04420	         1.17445e+59
          1218.85050	         8.75706e+58
          1219.65680	         5.90933e+58
          1220.46310	         3.87886e+58
          1221.26940	         2.73213e+58
          1222.07570	         1.78182e+58
          1222.88200	         1.35419e+58
          1223.68830	         1.02995e+58
          1224.49460	         8.17772e+57
          1225.30090	         5.73277e+57
          1226.10720	         5.93083e+57
          1226.91350	         6.63896e+57
          1227.71980	         7.51264e+57
          1228.52610	         1.18539e+58
          1229.33240	         1.36711e+58
          1230.13870	         1.12505e+58
          1230.94500	         8.57179e+57
          1231.75130	         4.47839e+57
          1232.55760	         9.30157e+57
          1233.36390	         1.02607e+58
          1234.17020	         7.87093e+57
          1234.97650	         8.34525e+57
          1235.78280	         1.07220e+58
          1236.58910	         9.52261e+57
          1237.39540	         1.09159e+58
          1238.20170	         1.19623e+58
          1239.00800	         1.24217e+58
          1239.81430	         1.37238e+58
          1240.62060	         1.12379e+58
          1241.42690	         1.32181e+58
          1242.23320	         1.38612e+58
          1243.03950	         6.38342e+57
          1243.84580	         4.70907e+57
          1244.65210	         9.29117e+57
          1245.45840	         1.05532e+58
          1246.26470	         7.02237e+57
          1247.07100	         5.64024e+57
          1247.87730	         4.19061e+57
          1248.68360	         3.38718e+57
          1249.48990	         6.56279e+57
          1250.29620	         1.08361e+58
          1251.10250	         8.46240e+57
          1251.90880	         6.60771e+57
          1252.71510	         6.62229e+57
          1253.52140	         8.22013e+57
          1254.32770	         1.07074e+58
          1255.13400	         1.27056e+58
          1255.94030	         1.31364e+58
          1256.74660	         8.47994e+57
          1257.55290	         8.37917e+57
          1258.35920	         9.58183e+57
          1259.16550	         7.52107e+57
          1259.97180	         5.58387e+57
          1260.77810	         9.16455e+57
          1261.58440	         1.21820e+58
          1262.39070	         8.72916e+57
          1263.19700	         7.42708e+57
          1264.00330	         1.00974e+58
          1264.80960	         9.88783e+57
          1265.61590	         1.44101e+58
          1266.42220	         1.37265e+58
          1267.22850	         9.50750e+57
          1268.03480	         1.23996e+58
          1268.84110	         1.44674e+58
          1269.64740	         1.31473e+58
          1270.45370	         1.43038e+58
          1271.26000	         1.25359e+58
          1272.06630	         1.15928e+58
          1272.87260	         1.23572e+58
          1273.67890	         1.15799e+58
          1274.48520	         1.21343e+58
          1275.29150	         1.26072e+58
          1276.09780	         1.09643e+58
          1276.90410	         1.58890e+58
          1277.71040	         1.49319e+58
          1278.51670	         1.21235e+58
          1279.32300	         1.48457e+58
          1280.12930	         1.38311e+58
          1280.93560	         1.27593e+58
          1281.74190	         1.30857e+58
          1282.54820	         1.13613e+58
          1283.35450	         9.59027e+57
          1284.16080	         1.11668e+58
          1284.96710	         1.22453e+58
          1285.77340	         1.28618e+58
          1286.57970	         1.44865e+58
          1287.38600	         1.68628e+58
          1288.19230	         1.70293e+58
          1288.99860	         1.45608e+58
          1289.80490	         1.04558e+58
          1290.61120	         1.29020e+58
          1291.41750	         1.39242e+58
          1292.22380	         1.19750e+58
          1293.03010	         9.41339e+57
          1293.83640	         1.20248e+58
          1294.64270	         1.17753e+58
          1295.44900	         7.27223e+57
          1296.25530	         7.71983e+57
          1297.06160	         9.33278e+57
          1297.86790	         1.02373e+58
          1298.67420	         8.36652e+57
          1299.48050	         8.90627e+57
          1300.28680	         1.11293e+58
          1301.09310	         8.92114e+57
          1301.89940	         3.74528e+57
          1302.70570	         5.21946e+57
          1303.51200	         8.05375e+57
          1304.31830	         1.03306e+58
          1305.12460	         9.82633e+57
          1305.93090	         1.08405e+58
          1306.73720	         1.29516e+58
          1307.54350	         1.42172e+58
          1308.34980	         1.58613e+58
          1309.15610	         1.61217e+58
          1309.96240	         1.60883e+58
          1310.76870	         1.36703e+58
          1311.57500	         1.45891e+58
          1312.38130	         1.27309e+58
          1313.18760	         1.31485e+58
          1313.99390	         1.54204e+58
          1314.80020	         1.48677e+58
          1315.60650	         1.46970e+58
          1316.41280	         1.32864e+58
          1317.21910	         1.19833e+58
          1318.02540	         1.33390e+58
          1318.83170	         1.31040e+58
          1319.63800	         1.12883e+58
          1320.44430	         1.08775e+58
          1321.25060	         1.22874e+58
          1322.05690	         1.30591e+58
          1322.86320	         1.22247e+58
          1323.66950	         1.15676e+58
          1324.47580	         1.05761e+58
          1325.28210	         1.07161e+58
          1326.08840	         1.25001e+58
          1326.89470	         1.28822e+58
          1327.70100	         1.07003e+58
          1328.50730	         7.53045e+57
          1329.31360	         9.48023e+57
          1330.11990	         1.10913e+58
          1330.92620	         9.77505e+57
          1331.73250	         1.15221e+58
          1332.53880	         1.20976e+58
          1333.34510	         1.01289e+58
          1334.15140	         9.42223e+57
          1334.95770	         9.31275e+57
          1335.76400	         1.06867e+58
          1336.57030	         1.18802e+58
          1337.37660	         1.15656e+58
          1338.18290	         1.18998e+58
          1338.98920	         1.20003e+58
          1339.79550	         1.27915e+58
          1340.60180	         1.23191e+58
          1341.40810	         1.22670e+58
          1342.21440	         1.20363e+58
          1343.02070	         1.23317e+58
          1343.82700	         1.11037e+58
          1344.63330	         1.17790e+58
          1345.43960	         1.39769e+58
          1346.24590	         1.15270e+58
          1347.05220	         1.16547e+58
          1347.85850	         9.77727e+57
          1348.66480	         8.70179e+57
          1349.47110	         1.22577e+58
          1350.27740	         1.20039e+58
          1351.08370	         1.22961e+58
          1351.89000	         1.11142e+58
          1352.69630	         1.24385e+58
          1353.50260	         1.21150e+58
          1354.30890	         1.15524e+58
          1355.11520	         1.21347e+58
          1355.92150	         1.14793e+58
          1356.72780	         1.04527e+58
          1357.53410	         1.08438e+58
          1358.34040	         1.11149e+58
          1359.14670	         1.00921e+58
          1359.95300	         1.07577e+58
          1360.75930	         1.20139e+58
          1361.56560	         1.11661e+58
          1362.37190	         1.08410e+58
          1363.17820	         1.12246e+58
          1363.98450	         1.12621e+58
          1364.79080	         1.13208e+58
          1365.59710	         1.29450e+58
          1366.40340	         1.27061e+58
          1367.20970	         1.08287e+58
          1368.01600	         9.64738e+57
          1368.82230	         9.59805e+57
          1369.62860	         9.08385e+57
          1370.43490	         9.39564e+57
          1371.24120	         1.02714e+58
          1372.04750	         9.90730e+57
          1372.85380	         1.05467e+58
          1373.66010	         1.00179e+58
          1374.46640	         1.08869e+58
          1375.27270	         1.22841e+58
          1376.07900	         1.01772e+58
          1376.88530	         8.26159e+57
          1377.69160	         8.75761e+57
          1378.49790	         7.47788e+57
          1379.30420	         8.24639e+57
          1380.11050	         9.67574e+57
          1380.91680	         8.50416e+57
          1381.72310	         7.65363e+57
          1382.52940	         7.96429e+57
          1383.33570	         9.82134e+57
          1384.14200	         1.05793e+58
          1384.94830	         9.88861e+57
          1385.75460	         1.02614e+58
          1386.56090	         1.18923e+58
          1387.36720	         1.14542e+58
          1388.17350	         1.24226e+58
          1388.97980	         1.19300e+58
          1389.78610	         8.88603e+57
          1390.59240	         7.31067e+57
          1391.39870	         8.05261e+57
          1392.20500	         8.95986e+57
          1393.01130	         8.07509e+57
          1393.81760	         7.42723e+57
          1394.62390	         7.97137e+57
          1395.43020	         6.82489e+57
          1396.23650	         6.16546e+57
          1397.04280	         7.86330e+57
          1397.84910	         9.91082e+57
          1398.65540	         9.75395e+57
          1399.46170	         9.66145e+57
          1400.26800	         7.96378e+57
          1401.07430	         6.40844e+57
          1401.88060	         8.15568e+57
          1402.68690	         9.43519e+57
          1403.49320	         8.92178e+57
          1404.29950	         7.77101e+57
          1405.10580	         1.04411e+58
          1405.91210	         1.13591e+58
          1406.71840	         1.09512e+58
          1407.52470	         1.04701e+58
          1408.33100	         9.88891e+57
          1409.13730	         1.21777e+58
          1409.94360	         1.16091e+58
          1410.74990	         1.17674e+58
          1411.55620	         1.15232e+58
          1412.36250	         9.75013e+57
          1413.16880	         8.82023e+57
          1413.97510	         7.56970e+57
          1414.78140	         8.28204e+57
          1415.58770	         1.17793e+58
          1416.39400	         1.17976e+58
          1417.20030	         1.15653e+58
          1418.00660	         9.39325e+57
          1418.81290	         7.28704e+57
          1419.61920	         9.27390e+57
          1420.42550	         1.36827e+58
          1421.23180	         1.41236e+58
          1422.03810	         1.36023e+58
          1422.84440	         1.25449e+58
          1423.65070	         1.27349e+58
          1424.45700	         1.11907e+58
          1425.26330	         8.49201e+57
          1426.06960	         8.46099e+57
          1426.87590	         9.95096e+57
          1427.68220	         1.04302e+58
          1428.48850	         1.13693e+58
          1429.29480	         1.13562e+58
          1430.10110	         1.14359e+58
          1430.90740	         9.26274e+57
          1431.71370	         8.34854e+57
          1432.52000	         8.47942e+57
          1433.32630	         8.24899e+57
          1434.13260	         8.30238e+57
          1434.93890	         8.60662e+57
          1435.74520	         9.22281e+57
          1436.55150	         9.27003e+57
          1437.35780	         9.47152e+57
          1438.16410	         9.84255e+57
          1438.97040	         9.17360e+57
          1439.77670	         8.13803e+57
          1440.58300	         9.84182e+57
          1441.38930	         1.04272e+58
          1442.19560	         1.02959e+58
          1443.00190	         1.00769e+58
          1443.80820	         1.06863e+58
          1444.61450	         9.67535e+57
          1445.42080	         8.53576e+57
          1446.22710	         9.12636e+57
          1447.03340	         9.90359e+57
          1447.83970	         1.05927e+58
          1448.64600	         1.05019e+58
          1449.45230	         8.74681e+57
          1450.25860	         9.52578e+57
          1451.06490	         1.12320e+58
          1451.87120	         8.59043e+57
          1452.67750	         6.60434e+57
          1453.48380	         7.85299e+57
          1454.29010	         8.01779e+57
          1455.09640	         7.08398e+57
          1455.90270	         8.37956e+57
          1456.70900	         9.27403e+57
          1457.51530	         9.88172e+57
          1458.32160	         1.31034e+58
          1459.12790	         1.26070e+58
          1459.93420	         9.86577e+57
          1460.74050	         7.59037e+57
          1461.54680	         8.47864e+57
          1462.35310	         9.35370e+57
          1463.15940	         9.64084e+57
          1463.96570	         1.11823e+58
          1464.77200	         1.21841e+58
          1465.57830	         1.15744e+58
          1466.38460	         9.80078e+57
          1467.19090	         9.16009e+57
          1467.99720	         9.78828e+57
          1468.80350	         9.81536e+57
          1469.60980	         1.07196e+58
          1470.41610	         1.13470e+58
          1471.22240	         9.73892e+57
          1472.02870	         9.81445e+57
          1472.83500	         9.35622e+57
          1473.64130	         1.00078e+58
          1474.44760	         9.98542e+57
          1475.25390	         7.96193e+57
          1476.06020	         8.75477e+57
          1476.86650	         8.51407e+57
          1477.67280	         7.50529e+57
          1478.47910	         8.00006e+57
          1479.28540	         7.88810e+57
          1480.09170	         8.13734e+57
          1480.89800	         7.32100e+57
          1481.70430	         8.34117e+57
          1482.51060	         9.70254e+57
          1483.31690	         9.41710e+57
          1484.12320	         7.86243e+57
          1484.92950	         8.09009e+57
          1485.73580	         8.68015e+57
          1486.54210	         8.26788e+57
          1487.34840	         8.54504e+57
          1488.15470	         8.09687e+57
          1488.96100	         8.23671e+57
          1489.76730	         9.24064e+57
