#sample_111_stacked_spectrum_rest_UV-bands_median_H-alpha_noDC.txt
#median Lum: 1.68569e+42
#Rest-frame wavelength (A) | Luminosity (erg/s/A)
#
          1110.00000	         0.00000e+00
          1110.80630	         4.89023e+59
          1111.61260	         2.66155e+59
          1112.41890	         3.80447e+58
          1113.22520	        -2.89014e+58
          1114.03150	        -1.71130e+59
          1114.83780	         1.89696e+59
          1115.64410	         2.08236e+59
          1116.45040	         1.42341e+59
          1117.25670	         4.31017e+57
          1118.06300	         1.67299e+59
          1118.86930	        -1.74441e+57
          1119.67560	         8.47600e+58
          1120.48190	         2.47790e+58
          1121.28820	        -7.04934e+58
          1122.09450	         2.41029e+58
          1122.90080	         4.25134e+58
          1123.70710	         5.40279e+58
          1124.51340	         7.26868e+58
          1125.31970	        -1.65391e+58
          1126.12600	         3.71342e+58
          1126.93230	        -1.09684e+58
          1127.73860	        -5.76834e+58
          1128.54490	         1.88172e+58
          1129.35120	         3.28338e+58
          1130.15750	         7.51924e+56
          1130.96380	        -1.21701e+58
          1131.77010	         8.47362e+58
          1132.57640	         2.62265e+58
          1133.38270	         3.69439e+58
          1134.18900	         2.41811e+58
          1134.99530	         3.76434e+58
          1135.80160	         4.24858e+58
          1136.60790	         6.87089e+57
          1137.41420	         1.56272e+57
          1138.22050	         4.21095e+58
          1139.02680	         5.05899e+58
          1139.83310	         3.89043e+58
          1140.63940	         2.59388e+58
          1141.44570	        -3.23214e+58
          1142.25200	         5.26487e+56
          1143.05830	         2.09100e+58
          1143.86460	         1.12518e+58
          1144.67090	         3.10018e+58
          1145.47720	         2.61561e+58
          1146.28350	         1.40649e+58
          1147.08980	         2.19540e+58
          1147.89610	         2.58228e+58
          1148.70240	         2.14034e+58
          1149.50870	         2.01636e+58
          1150.31500	         2.31992e+58
          1151.12130	         5.83285e+57
          1151.92760	         1.07575e+58
          1152.73390	         1.01782e+58
          1153.54020	         5.04535e+57
          1154.34650	         2.37197e+58
          1155.15280	         2.55708e+58
          1155.95910	         1.62685e+58
          1156.76540	         7.14301e+57
          1157.57170	        -1.49766e+57
          1158.37800	        -7.63944e+57
          1159.18430	        -5.75295e+56
          1159.99060	         7.97173e+57
          1160.79690	         1.34176e+58
          1161.60320	         1.94163e+58
          1162.40950	         2.48057e+58
          1163.21580	         2.10505e+58
          1164.02210	         1.64554e+58
          1164.82840	         1.01662e+58
          1165.63470	         1.43023e+58
          1166.44100	         2.58404e+58
          1167.24730	         1.99552e+58
          1168.05360	         9.74091e+57
          1168.85990	         1.26198e+58
          1169.66620	         7.60078e+57
          1170.47250	         9.66881e+57
          1171.27880	         1.48785e+58
          1172.08510	         1.56794e+58
          1172.89140	         2.30891e+57
          1173.69770	         4.31431e+57
          1174.50400	         8.79854e+57
          1175.31030	         1.74468e+58
          1176.11660	         1.60513e+58
          1176.92290	         1.58368e+58
          1177.72920	         1.59762e+58
          1178.53550	         9.66899e+57
          1179.34180	         4.18733e+57
          1180.14810	         6.99338e+57
          1180.95440	         1.06394e+58
          1181.76070	         5.55397e+57
          1182.56700	         7.42198e+57
          1183.37330	         1.13816e+58
          1184.17960	         1.38462e+58
          1184.98590	         1.03146e+58
          1185.79220	         5.21886e+57
          1186.59850	         6.25073e+57
          1187.40480	         6.12775e+57
          1188.21110	         7.98105e+57
          1189.01740	         1.06456e+58
          1189.82370	         1.24730e+58
          1190.63000	         1.23600e+58
          1191.43630	         1.09386e+58
          1192.24260	         6.79075e+57
          1193.04890	         1.08721e+58
          1193.85520	         8.31481e+57
          1194.66150	         6.13630e+57
          1195.46780	         1.30997e+58
          1196.27410	         1.65982e+58
          1197.08040	         1.06093e+58
          1197.88670	         1.29289e+58
          1198.69300	         1.21336e+58
          1199.49930	         1.11250e+58
          1200.30560	         8.65261e+57
          1201.11190	         1.24550e+58
          1201.91820	         1.01760e+58
          1202.72450	         8.10712e+57
          1203.53080	         1.41128e+58
          1204.33710	         7.66710e+57
          1205.14340	         8.24583e+57
          1205.94970	         9.20640e+57
          1206.75600	         5.94623e+57
          1207.56230	         5.52982e+57
          1208.36860	         1.07960e+58
          1209.17490	         6.27593e+57
          1209.98120	         5.12238e+57
          1210.78750	         5.78773e+57
          1211.59380	         1.36745e+58
          1212.40010	         1.64847e+58
          1213.20640	         2.21735e+58
          1214.01270	         2.22300e+58
          1214.81900	         2.66166e+58
          1215.62530	         4.81469e+58
          1216.43160	         9.33734e+58
          1217.23790	         1.50915e+59
          1218.04420	         1.08964e+59
          1218.85050	         8.32786e+58
          1219.65680	         5.90462e+58
          1220.46310	         3.74762e+58
          1221.26940	         2.54536e+58
          1222.07570	         1.33622e+58
          1222.88200	         1.14020e+58
          1223.68830	         9.06801e+57
          1224.49460	         6.07741e+57
          1225.30090	         8.36211e+57
          1226.10720	         7.35371e+57
          1226.91350	         6.51164e+57
          1227.71980	         1.14467e+58
          1228.52610	         1.29984e+58
          1229.33240	         1.04015e+58
          1230.13870	         1.17978e+58
          1230.94500	         1.46778e+58
          1231.75130	         8.91625e+57
          1232.55760	         7.68335e+57
          1233.36390	         8.48651e+57
          1234.17020	         9.41764e+57
          1234.97650	         9.60116e+57
          1235.78280	         9.24102e+57
          1236.58910	         9.21097e+57
          1237.39540	         1.11153e+58
          1238.20170	         9.99466e+57
          1239.00800	         1.05853e+58
          1239.81430	         1.26880e+58
          1240.62060	         1.18568e+58
          1241.42690	         1.08492e+58
          1242.23320	         1.22666e+58
          1243.03950	         8.96841e+57
          1243.84580	         7.60280e+57
          1244.65210	         1.13887e+58
          1245.45840	         1.20582e+58
          1246.26470	         9.79617e+57
          1247.07100	         6.31557e+57
          1247.87730	         6.41926e+57
          1248.68360	         2.98276e+57
          1249.48990	         5.73163e+57
          1250.29620	         1.01275e+58
          1251.10250	         8.43961e+57
          1251.90880	         5.46170e+57
          1252.71510	         7.26615e+57
          1253.52140	         8.00443e+57
          1254.32770	         9.94117e+57
          1255.13400	         1.42606e+58
          1255.94030	         1.21937e+58
          1256.74660	         8.67390e+57
          1257.55290	         7.83918e+57
          1258.35920	         6.03862e+57
          1259.16550	         5.48719e+57
          1259.97180	         4.34495e+57
          1260.77810	         5.46311e+57
          1261.58440	         9.62250e+57
          1262.39070	         7.11921e+57
          1263.19700	         8.54706e+57
          1264.00330	         1.02395e+58
          1264.80960	         1.08829e+58
          1265.61590	         1.32937e+58
          1266.42220	         1.31479e+58
          1267.22850	         1.10785e+58
          1268.03480	         1.49631e+58
          1268.84110	         1.53635e+58
          1269.64740	         1.28194e+58
          1270.45370	         1.47107e+58
          1271.26000	         1.37462e+58
          1272.06630	         1.39079e+58
          1272.87260	         1.24163e+58
          1273.67890	         9.08363e+57
          1274.48520	         9.60763e+57
          1275.29150	         1.01896e+58
          1276.09780	         9.73241e+57
          1276.90410	         1.32448e+58
          1277.71040	         1.53744e+58
          1278.51670	         1.59815e+58
          1279.32300	         1.44726e+58
          1280.12930	         1.22608e+58
          1280.93560	         1.01172e+58
          1281.74190	         1.05536e+58
          1282.54820	         1.32424e+58
          1283.35450	         1.13807e+58
          1284.16080	         1.27286e+58
          1284.96710	         1.24766e+58
          1285.77340	         8.86072e+57
          1286.57970	         9.90899e+57
          1287.38600	         1.53926e+58
          1288.19230	         1.84123e+58
          1288.99860	         1.46652e+58
          1289.80490	         1.01527e+58
          1290.61120	         1.18622e+58
          1291.41750	         1.36341e+58
          1292.22380	         1.16733e+58
          1293.03010	         9.78912e+57
          1293.83640	         1.15122e+58
          1294.64270	         1.14838e+58
          1295.44900	         7.02214e+57
          1296.25530	         8.17256e+57
          1297.06160	         1.07336e+58
          1297.86790	         1.08523e+58
          1298.67420	         1.06580e+58
          1299.48050	         1.01818e+58
          1300.28680	         9.39536e+57
          1301.09310	         7.53666e+57
          1301.89940	         4.10614e+57
          1302.70570	         5.89077e+57
          1303.51200	         8.48543e+57
          1304.31830	         9.89777e+57
          1305.12460	         1.05804e+58
          1305.93090	         1.18318e+58
          1306.73720	         1.18740e+58
          1307.54350	         1.29073e+58
          1308.34980	         1.31658e+58
          1309.15610	         1.38284e+58
          1309.96240	         1.50066e+58
          1310.76870	         1.34273e+58
          1311.57500	         1.24291e+58
          1312.38130	         1.33326e+58
          1313.18760	         1.39742e+58
          1313.99390	         1.46415e+58
          1314.80020	         1.50520e+58
          1315.60650	         1.34284e+58
          1316.41280	         1.22693e+58
          1317.21910	         1.04000e+58
          1318.02540	         1.07693e+58
          1318.83170	         1.32850e+58
          1319.63800	         1.25732e+58
          1320.44430	         1.11597e+58
          1321.25060	         1.22939e+58
          1322.05690	         1.23637e+58
          1322.86320	         1.36428e+58
          1323.66950	         1.17287e+58
          1324.47580	         9.17277e+57
          1325.28210	         1.05092e+58
          1326.08840	         1.11848e+58
          1326.89470	         1.25450e+58
          1327.70100	         1.20134e+58
          1328.50730	         9.24989e+57
          1329.31360	         1.00975e+58
          1330.11990	         9.84932e+57
          1330.92620	         9.93276e+57
          1331.73250	         1.13876e+58
          1332.53880	         9.70800e+57
          1333.34510	         6.97654e+57
          1334.15140	         7.90174e+57
          1334.95770	         9.39399e+57
          1335.76400	         1.07175e+58
          1336.57030	         1.10860e+58
          1337.37660	         1.01620e+58
          1338.18290	         1.03576e+58
          1338.98920	         1.18050e+58
          1339.79550	         1.08729e+58
          1340.60180	         1.03693e+58
          1341.40810	         1.24517e+58
          1342.21440	         9.42418e+57
          1343.02070	         1.12565e+58
          1343.82700	         1.25987e+58
          1344.63330	         1.01266e+58
          1345.43960	         1.19047e+58
          1346.24590	         1.11772e+58
          1347.05220	         1.11148e+58
          1347.85850	         9.84558e+57
          1348.66480	         1.25009e+58
          1349.47110	         1.22656e+58
          1350.27740	         1.15365e+58
          1351.08370	         1.25545e+58
          1351.89000	         1.11828e+58
          1352.69630	         1.04406e+58
          1353.50260	         1.05259e+58
          1354.30890	         1.18164e+58
          1355.11520	         1.14219e+58
          1355.92150	         1.13210e+58
          1356.72780	         1.10357e+58
          1357.53410	         1.03085e+58
          1358.34040	         1.02514e+58
          1359.14670	         1.10509e+58
          1359.95300	         1.19055e+58
          1360.75930	         1.12841e+58
          1361.56560	         1.00019e+58
          1362.37190	         1.10525e+58
          1363.17820	         1.05679e+58
          1363.98450	         1.10256e+58
          1364.79080	         1.17734e+58
          1365.59710	         1.16451e+58
          1366.40340	         1.10108e+58
          1367.20970	         9.45110e+57
          1368.01600	         9.41660e+57
          1368.82230	         1.08615e+58
          1369.62860	         1.09569e+58
          1370.43490	         8.65606e+57
          1371.24120	         8.63399e+57
          1372.04750	         9.25725e+57
          1372.85380	         9.61621e+57
          1373.66010	         9.80928e+57
          1374.46640	         1.00257e+58
          1375.27270	         9.68449e+57
          1376.07900	         8.81223e+57
          1376.88530	         1.02262e+58
          1377.69160	         9.55673e+57
          1378.49790	         7.44406e+57
          1379.30420	         7.26574e+57
          1380.11050	         8.73284e+57
          1380.91680	         9.31631e+57
          1381.72310	         9.37273e+57
          1382.52940	         8.65059e+57
          1383.33570	         7.61408e+57
          1384.14200	         7.49463e+57
          1384.94830	         8.97122e+57
          1385.75460	         9.10052e+57
          1386.56090	         1.12824e+58
          1387.36720	         9.79397e+57
          1388.17350	         1.07062e+58
          1388.97980	         1.02676e+58
          1389.78610	         9.47495e+57
          1390.59240	         7.95262e+57
          1391.39870	         7.18587e+57
          1392.20500	         8.68611e+57
          1393.01130	         8.58409e+57
          1393.81760	         8.13871e+57
          1394.62390	         8.01417e+57
          1395.43020	         7.97026e+57
          1396.23650	         8.09757e+57
          1397.04280	         6.34118e+57
          1397.84910	         6.62937e+57
          1398.65540	         8.03602e+57
          1399.46170	         8.87358e+57
          1400.26800	         7.54524e+57
          1401.07430	         6.90416e+57
          1401.88060	         7.15453e+57
          1402.68690	         8.85317e+57
          1403.49320	         8.95989e+57
          1404.29950	         8.33270e+57
          1405.10580	         1.01712e+58
          1405.91210	         1.08960e+58
          1406.71840	         1.08151e+58
          1407.52470	         1.05850e+58
          1408.33100	         1.00831e+58
          1409.13730	         1.19000e+58
          1409.94360	         1.17996e+58
          1410.74990	         1.02240e+58
          1411.55620	         8.58231e+57
          1412.36250	         8.75616e+57
          1413.16880	         9.07942e+57
          1413.97510	         8.66766e+57
          1414.78140	         7.99408e+57
          1415.58770	         9.00003e+57
          1416.39400	         1.01069e+58
          1417.20030	         1.01104e+58
          1418.00660	         1.01383e+58
          1418.81290	         1.14817e+58
          1419.61920	         1.14133e+58
          1420.42550	         1.18411e+58
          1421.23180	         1.20882e+58
          1422.03810	         1.10464e+58
          1422.84440	         1.08547e+58
          1423.65070	         1.20006e+58
          1424.45700	         1.18403e+58
          1425.26330	         8.80199e+57
          1426.06960	         8.22380e+57
          1426.87590	         9.99405e+57
          1427.68220	         1.01857e+58
          1428.48850	         1.08911e+58
          1429.29480	         1.06746e+58
          1430.10110	         8.72578e+57
          1430.90740	         8.44233e+57
          1431.71370	         8.90209e+57
          1432.52000	         8.70068e+57
          1433.32630	         8.33358e+57
          1434.13260	         8.91563e+57
          1434.93890	         8.74406e+57
          1435.74520	         9.17846e+57
          1436.55150	         9.24238e+57
          1437.35780	         9.51097e+57
          1438.16410	         8.62346e+57
          1438.97040	         8.08880e+57
          1439.77670	         7.78351e+57
          1440.58300	         8.19339e+57
          1441.38930	         1.01123e+58
          1442.19560	         9.66969e+57
          1443.00190	         9.19971e+57
          1443.80820	         1.05084e+58
          1444.61450	         9.93808e+57
          1445.42080	         7.94662e+57
          1446.22710	         9.58213e+57
          1447.03340	         9.83684e+57
          1447.83970	         9.20581e+57
          1448.64600	         9.90929e+57
          1449.45230	         1.03576e+58
          1450.25860	         1.04370e+58
          1451.06490	         8.28592e+57
          1451.87120	         7.56306e+57
          1452.67750	         6.43908e+57
          1453.48380	         8.50878e+57
          1454.29010	         8.24325e+57
          1455.09640	         7.21571e+57
          1455.90270	         7.88036e+57
          1456.70900	         7.46042e+57
          1457.51530	         9.44343e+57
          1458.32160	         1.17217e+58
          1459.12790	         1.12776e+58
          1459.93420	         9.86058e+57
          1460.74050	         8.39218e+57
          1461.54680	         8.58054e+57
          1462.35310	         8.32419e+57
          1463.15940	         1.01329e+58
          1463.96570	         1.14040e+58
          1464.77200	         1.19063e+58
          1465.57830	         1.06413e+58
          1466.38460	         8.18902e+57
          1467.19090	         8.20283e+57
          1467.99720	         9.03763e+57
          1468.80350	         8.83423e+57
          1469.60980	         8.78021e+57
          1470.41610	         9.82083e+57
          1471.22240	         8.32788e+57
          1472.02870	         9.32942e+57
          1472.83500	         1.11993e+58
          1473.64130	         1.06791e+58
          1474.44760	         1.02549e+58
          1475.25390	         9.37955e+57
          1476.06020	         8.97411e+57
          1476.86650	         8.74931e+57
          1477.67280	         7.98087e+57
          1478.47910	         7.35634e+57
          1479.28540	         6.46180e+57
          1480.09170	         8.60859e+57
          1480.89800	         8.90585e+57
          1481.70430	         8.33432e+57
          1482.51060	         8.21579e+57
          1483.31690	         8.23612e+57
          1484.12320	         7.81254e+57
          1484.92950	         7.64113e+57
          1485.73580	         9.13002e+57
          1486.54210	         8.65168e+57
          1487.34840	         8.30295e+57
          1488.15470	         7.99161e+57
          1488.96100	         8.04277e+57
          1489.76730	         9.08285e+57
