#sample_85_stacked_spectrum_rest_UV-bands_median_H-alpha_noDC.txt
#median Lum: 1.71230e+42
#Rest-frame wavelength (A) | Luminosity (erg/s/A)
#
          1110.00000	         0.00000e+00
          1110.80630	        -3.22881e+59
          1111.61260	        -6.65420e+58
          1112.41890	         2.19364e+59
          1113.22520	         2.03053e+58
          1114.03150	         5.32287e+58
          1114.83780	        -1.85892e+57
          1115.64410	         7.74359e+58
          1116.45040	         5.30710e+58
          1117.25670	        -8.20701e+57
          1118.06300	         1.50274e+59
          1118.86930	        -1.67115e+58
          1119.67560	         1.25244e+59
          1120.48190	        -1.25650e+58
          1121.28820	        -7.62059e+58
          1122.09450	         3.92024e+58
          1122.90080	         9.92532e+57
          1123.70710	         3.78290e+58
          1124.51340	         3.93718e+58
          1125.31970	         3.57746e+58
          1126.12600	         2.16883e+58
          1126.93230	        -4.67200e+58
          1127.73860	        -4.54570e+58
          1128.54490	         7.26743e+57
          1129.35120	         1.28747e+58
          1130.15750	        -3.16045e+58
          1130.96380	         2.64248e+58
          1131.77010	         5.42657e+58
          1132.57640	         1.96054e+58
          1133.38270	         1.97227e+58
          1134.18900	         1.95839e+57
          1134.99530	         1.06973e+58
          1135.80160	         5.68663e+57
          1136.60790	         1.61070e+57
          1137.41420	        -1.73782e+58
          1138.22050	         3.04340e+58
          1139.02680	         4.68193e+58
          1139.83310	         2.16235e+58
          1140.63940	         1.01020e+58
          1141.44570	        -3.57351e+57
          1142.25200	        -7.60106e+57
          1143.05830	         6.63796e+57
          1143.86460	         2.93145e+57
          1144.67090	         2.08682e+58
          1145.47720	         1.76864e+58
          1146.28350	         1.67469e+58
          1147.08980	         6.94237e+57
          1147.89610	         3.08781e+57
          1148.70240	         1.26243e+58
          1149.50870	         1.36971e+58
          1150.31500	         9.39771e+57
          1151.12130	         3.55694e+56
          1151.92760	         8.02048e+57
          1152.73390	         7.11760e+57
          1153.54020	         1.00253e+58
          1154.34650	         2.47159e+58
          1155.15280	         3.06915e+58
          1155.95910	         1.37428e+58
          1156.76540	         9.19952e+57
          1157.57170	        -3.47600e+57
          1158.37800	         1.55571e+56
          1159.18430	         2.17743e+57
          1159.99060	         1.53339e+58
          1160.79690	         4.91160e+57
          1161.60320	         1.27796e+58
          1162.40950	         1.81989e+58
          1163.21580	         1.89956e+58
          1164.02210	         1.34890e+58
          1164.82840	         1.22831e+58
          1165.63470	         1.43892e+58
          1166.44100	         2.78428e+58
          1167.24730	         1.53685e+58
          1168.05360	         2.23319e+57
          1168.85990	         8.17833e+57
          1169.66620	         8.52522e+57
          1170.47250	         1.40059e+58
          1171.27880	         1.45258e+58
          1172.08510	         8.26721e+57
          1172.89140	         7.82533e+57
          1173.69770	         6.17472e+57
          1174.50400	         8.29664e+57
          1175.31030	         1.46085e+58
          1176.11660	         1.01493e+58
          1176.92290	         1.22764e+58
          1177.72920	         1.22694e+58
          1178.53550	         9.68260e+57
          1179.34180	         2.35531e+57
          1180.14810	         8.67969e+57
          1180.95440	         1.77257e+58
          1181.76070	         1.15095e+58
          1182.56700	         8.47772e+57
          1183.37330	         6.16840e+57
          1184.17960	         1.01216e+58
          1184.98590	         1.20039e+58
          1185.79220	         8.89546e+57
          1186.59850	         1.14050e+58
          1187.40480	         7.80272e+57
          1188.21110	         1.53673e+58
          1189.01740	         9.21631e+57
          1189.82370	         8.46635e+57
          1190.63000	         9.63127e+57
          1191.43630	         8.32399e+57
          1192.24260	         1.13131e+58
          1193.04890	         1.30410e+58
          1193.85520	         1.46069e+58
          1194.66150	         2.61979e+57
          1195.46780	         9.40297e+57
          1196.27410	         1.72359e+58
          1197.08040	         9.23522e+57
          1197.88670	         1.19010e+58
          1198.69300	         1.25270e+58
          1199.49930	         1.51148e+58
          1200.30560	         1.07072e+58
          1201.11190	         1.07933e+58
          1201.91820	         9.74135e+57
          1202.72450	         5.32059e+57
          1203.53080	         1.17130e+58
          1204.33710	         1.08072e+58
          1205.14340	         8.78468e+57
          1205.94970	         6.87091e+57
          1206.75600	         6.63569e+57
          1207.56230	         7.87216e+57
          1208.36860	         1.04110e+58
          1209.17490	         4.83527e+57
          1209.98120	         7.72399e+57
          1210.78750	         8.38224e+57
          1211.59380	         1.34236e+58
          1212.40010	         2.00355e+58
          1213.20640	         2.20993e+58
          1214.01270	         2.04230e+58
          1214.81900	         2.56467e+58
          1215.62530	         4.58357e+58
          1216.43160	         8.93642e+58
          1217.23790	         1.49783e+59
          1218.04420	         1.15339e+59
          1218.85050	         8.46603e+58
          1219.65680	         5.52932e+58
          1220.46310	         3.08821e+58
          1221.26940	         2.05580e+58
          1222.07570	         1.14390e+58
          1222.88200	         1.25427e+58
          1223.68830	         8.47168e+57
          1224.49460	         5.19174e+57
          1225.30090	         7.56517e+57
          1226.10720	         6.98038e+57
          1226.91350	         4.31430e+57
          1227.71980	         7.48085e+57
          1228.52610	         1.19525e+58
          1229.33240	         7.49917e+57
          1230.13870	         8.02408e+57
          1230.94500	         9.30382e+57
          1231.75130	         7.40976e+57
          1232.55760	         7.75305e+57
          1233.36390	         6.68436e+57
          1234.17020	         7.84558e+57
          1234.97650	         1.02571e+58
          1235.78280	         9.06297e+57
          1236.58910	         9.39292e+57
          1237.39540	         1.19790e+58
          1238.20170	         1.06075e+58
          1239.00800	         1.24190e+58
          1239.81430	         1.45228e+58
          1240.62060	         1.07386e+58
          1241.42690	         1.19958e+58
          1242.23320	         1.32179e+58
          1243.03950	         8.78770e+57
          1243.84580	         7.39923e+57
          1244.65210	         1.03154e+58
          1245.45840	         1.13790e+58
          1246.26470	         8.21510e+57
          1247.07100	         9.50997e+57
          1247.87730	         4.12950e+57
          1248.68360	         2.35688e+57
          1249.48990	         7.75671e+57
          1250.29620	         9.58126e+57
          1251.10250	         7.20729e+57
          1251.90880	         7.19839e+57
          1252.71510	         6.88666e+57
          1253.52140	         9.24042e+57
          1254.32770	         1.11789e+58
          1255.13400	         1.30319e+58
          1255.94030	         1.08973e+58
          1256.74660	         9.94472e+57
          1257.55290	         9.54845e+57
          1258.35920	         6.79056e+57
          1259.16550	         3.75397e+57
          1259.97180	         4.16535e+57
          1260.77810	         7.31487e+57
          1261.58440	         1.15434e+58
          1262.39070	         8.95514e+57
          1263.19700	         7.93951e+57
          1264.00330	         9.36997e+57
          1264.80960	         1.06845e+58
          1265.61590	         1.36996e+58
          1266.42220	         1.43528e+58
          1267.22850	         1.16838e+58
          1268.03480	         1.30817e+58
          1268.84110	         1.32287e+58
          1269.64740	         1.34462e+58
          1270.45370	         1.22522e+58
          1271.26000	         8.60882e+57
          1272.06630	         1.19013e+58
          1272.87260	         1.54363e+58
          1273.67890	         1.19934e+58
          1274.48520	         1.15327e+58
          1275.29150	         1.30247e+58
          1276.09780	         1.03434e+58
          1276.90410	         1.38982e+58
          1277.71040	         1.29076e+58
          1278.51670	         1.08224e+58
          1279.32300	         1.41062e+58
          1280.12930	         1.39387e+58
          1280.93560	         1.17730e+58
          1281.74190	         1.41265e+58
          1282.54820	         1.46717e+58
          1283.35450	         1.25408e+58
          1284.16080	         1.22065e+58
          1284.96710	         1.29221e+58
          1285.77340	         1.08416e+58
          1286.57970	         1.04160e+58
          1287.38600	         1.53287e+58
          1288.19230	         1.65732e+58
          1288.99860	         1.53073e+58
          1289.80490	         1.18225e+58
          1290.61120	         1.34280e+58
          1291.41750	         1.32081e+58
          1292.22380	         1.13094e+58
          1293.03010	         1.08028e+58
          1293.83640	         1.24104e+58
          1294.64270	         1.10140e+58
          1295.44900	         8.00669e+57
          1296.25530	         7.56782e+57
          1297.06160	         8.05805e+57
          1297.86790	         9.89968e+57
          1298.67420	         1.06927e+58
          1299.48050	         9.23569e+57
          1300.28680	         1.07882e+58
          1301.09310	         1.01051e+58
          1301.89940	         5.22588e+57
          1302.70570	         6.28041e+57
          1303.51200	         8.47969e+57
          1304.31830	         1.02100e+58
          1305.12460	         1.04904e+58
          1305.93090	         1.19333e+58
          1306.73720	         1.29001e+58
          1307.54350	         1.39592e+58
          1308.34980	         1.48071e+58
          1309.15610	         1.62952e+58
          1309.96240	         1.60197e+58
          1310.76870	         1.28195e+58
          1311.57500	         1.13053e+58
          1312.38130	         1.32976e+58
          1313.18760	         1.68678e+58
          1313.99390	         1.71423e+58
          1314.80020	         1.52711e+58
          1315.60650	         1.60112e+58
          1316.41280	         1.42638e+58
          1317.21910	         1.34055e+58
          1318.02540	         1.31859e+58
          1318.83170	         1.38345e+58
          1319.63800	         1.38424e+58
          1320.44430	         1.27460e+58
          1321.25060	         1.27011e+58
          1322.05690	         1.22607e+58
          1322.86320	         1.15981e+58
          1323.66950	         1.15818e+58
          1324.47580	         9.50977e+57
          1325.28210	         1.00112e+58
          1326.08840	         1.25215e+58
          1326.89470	         1.23306e+58
          1327.70100	         1.13059e+58
          1328.50730	         9.17312e+57
          1329.31360	         1.11604e+58
          1330.11990	         1.08074e+58
          1330.92620	         1.04648e+58
          1331.73250	         1.07985e+58
          1332.53880	         9.88193e+57
          1333.34510	         9.28118e+57
          1334.15140	         8.56164e+57
          1334.95770	         8.99001e+57
          1335.76400	         1.11649e+58
          1336.57030	         1.14577e+58
          1337.37660	         1.18101e+58
          1338.18290	         1.11015e+58
          1338.98920	         1.20965e+58
          1339.79550	         1.31932e+58
          1340.60180	         1.22333e+58
          1341.40810	         1.38199e+58
          1342.21440	         1.36693e+58
          1343.02070	         1.29205e+58
          1343.82700	         1.39333e+58
          1344.63330	         1.12357e+58
          1345.43960	         1.06876e+58
          1346.24590	         1.25771e+58
          1347.05220	         1.30041e+58
          1347.85850	         1.18275e+58
          1348.66480	         1.30557e+58
          1349.47110	         1.41672e+58
          1350.27740	         1.21690e+58
          1351.08370	         1.23585e+58
          1351.89000	         1.29883e+58
          1352.69630	         1.17860e+58
          1353.50260	         1.12531e+58
          1354.30890	         1.20985e+58
          1355.11520	         1.26482e+58
          1355.92150	         1.21809e+58
          1356.72780	         1.10386e+58
          1357.53410	         1.10653e+58
          1358.34040	         1.00916e+58
          1359.14670	         9.97317e+57
          1359.95300	         1.17908e+58
          1360.75930	         1.26111e+58
          1361.56560	         1.11613e+58
          1362.37190	         1.15834e+58
          1363.17820	         1.20129e+58
          1363.98450	         1.24994e+58
          1364.79080	         1.20653e+58
          1365.59710	         1.25797e+58
          1366.40340	         1.20405e+58
          1367.20970	         1.04272e+58
          1368.01600	         9.49344e+57
          1368.82230	         9.29711e+57
          1369.62860	         9.55519e+57
          1370.43490	         7.89682e+57
          1371.24120	         9.51431e+57
          1372.04750	         9.66778e+57
          1372.85380	         1.05847e+58
          1373.66010	         1.20132e+58
          1374.46640	         1.26194e+58
          1375.27270	         1.07809e+58
          1376.07900	         8.22475e+57
          1376.88530	         7.17076e+57
          1377.69160	         8.36405e+57
          1378.49790	         8.80406e+57
          1379.30420	         9.59664e+57
          1380.11050	         1.04931e+58
          1380.91680	         7.95460e+57
          1381.72310	         8.64327e+57
          1382.52940	         9.78177e+57
          1383.33570	         8.81875e+57
          1384.14200	         9.11463e+57
          1384.94830	         1.05211e+58
          1385.75460	         1.04927e+58
          1386.56090	         1.08231e+58
          1387.36720	         9.08551e+57
          1388.17350	         1.12569e+58
          1388.97980	         1.07039e+58
          1389.78610	         8.11468e+57
          1390.59240	         6.69470e+57
          1391.39870	         7.38783e+57
          1392.20500	         8.57118e+57
          1393.01130	         8.19959e+57
          1393.81760	         8.11053e+57
          1394.62390	         7.92070e+57
          1395.43020	         6.23460e+57
          1396.23650	         5.82433e+57
          1397.04280	         6.70861e+57
          1397.84910	         8.53216e+57
          1398.65540	         8.77229e+57
          1399.46170	         9.53316e+57
          1400.26800	         7.78729e+57
          1401.07430	         7.16707e+57
          1401.88060	         7.93418e+57
          1402.68690	         9.46742e+57
          1403.49320	         9.83745e+57
          1404.29950	         9.90775e+57
          1405.10580	         1.02949e+58
          1405.91210	         1.06833e+58
          1406.71840	         1.06274e+58
          1407.52470	         1.15867e+58
          1408.33100	         1.09745e+58
          1409.13730	         1.15625e+58
          1409.94360	         1.18404e+58
          1410.74990	         1.18517e+58
          1411.55620	         1.07070e+58
          1412.36250	         9.85052e+57
          1413.16880	         9.48860e+57
          1413.97510	         9.30788e+57
          1414.78140	         9.05166e+57
          1415.58770	         1.03411e+58
          1416.39400	         1.12349e+58
          1417.20030	         1.07068e+58
          1418.00660	         8.19093e+57
          1418.81290	         9.89612e+57
          1419.61920	         1.16992e+58
          1420.42550	         1.29762e+58
          1421.23180	         1.33710e+58
          1422.03810	         1.21076e+58
          1422.84440	         1.09753e+58
          1423.65070	         1.20865e+58
          1424.45700	         1.10474e+58
          1425.26330	         8.83985e+57
          1426.06960	         9.31415e+57
          1426.87590	         1.09068e+58
          1427.68220	         1.08233e+58
          1428.48850	         1.09674e+58
          1429.29480	         1.10385e+58
          1430.10110	         9.82459e+57
          1430.90740	         8.87762e+57
          1431.71370	         9.06426e+57
          1432.52000	         9.18194e+57
          1433.32630	         8.48709e+57
          1434.13260	         8.39822e+57
          1434.93890	         9.27508e+57
          1435.74520	         9.39017e+57
          1436.55150	         9.51283e+57
          1437.35780	         8.80171e+57
          1438.16410	         9.22234e+57
          1438.97040	         9.12266e+57
          1439.77670	         9.17283e+57
          1440.58300	         8.85101e+57
          1441.38930	         8.96337e+57
          1442.19560	         9.26590e+57
          1443.00190	         9.23457e+57
          1443.80820	         1.13560e+58
          1444.61450	         1.11129e+58
          1445.42080	         9.05865e+57
          1446.22710	         9.65814e+57
          1447.03340	         9.22143e+57
          1447.83970	         1.01455e+58
          1448.64600	         1.13379e+58
          1449.45230	         1.02358e+58
          1450.25860	         9.64983e+57
          1451.06490	         8.33222e+57
          1451.87120	         7.71062e+57
          1452.67750	         7.69673e+57
          1453.48380	         8.68354e+57
          1454.29010	         8.25659e+57
          1455.09640	         7.91612e+57
          1455.90270	         8.37376e+57
          1456.70900	         8.04230e+57
          1457.51530	         1.00820e+58
          1458.32160	         1.27236e+58
          1459.12790	         1.26637e+58
          1459.93420	         1.11173e+58
          1460.74050	         9.03386e+57
          1461.54680	         7.81107e+57
          1462.35310	         6.81753e+57
          1463.15940	         9.74539e+57
          1463.96570	         1.22217e+58
          1464.77200	         1.15301e+58
          1465.57830	         1.07853e+58
          1466.38460	         1.03940e+58
          1467.19090	         9.84685e+57
          1467.99720	         1.00247e+58
          1468.80350	         9.91061e+57
          1469.60980	         9.37970e+57
          1470.41610	         9.98730e+57
          1471.22240	         9.74519e+57
          1472.02870	         1.02335e+58
          1472.83500	         1.03222e+58
          1473.64130	         1.05381e+58
          1474.44760	         9.97555e+57
          1475.25390	         8.44888e+57
          1476.06020	         7.97473e+57
          1476.86650	         8.87562e+57
          1477.67280	         8.52058e+57
          1478.47910	         6.95758e+57
          1479.28540	         7.22606e+57
          1480.09170	         8.31142e+57
          1480.89800	         8.40879e+57
          1481.70430	         9.19414e+57
          1482.51060	         9.28856e+57
          1483.31690	         7.92404e+57
          1484.12320	         7.33266e+57
          1484.92950	         7.62302e+57
          1485.73580	         9.03372e+57
          1486.54210	         1.01770e+58
          1487.34840	         9.98084e+57
          1488.15470	         8.72350e+57
          1488.96100	         9.07924e+57
          1489.76730	         9.59302e+57
