#sample_294_stacked_spectrum_rest_UV-bands_median_H-alpha_noDC.txt
#median Lum: 1.70401e+42
#Rest-frame wavelength (A) | Luminosity (erg/s/A)
#
          1110.00000	         0.00000e+00
          1110.80630	        -1.76650e+59
          1111.61260	         1.57923e+59
          1112.41890	        -1.71553e+58
          1113.22520	         1.09029e+59
          1114.03150	         1.07057e+58
          1114.83780	         1.68529e+59
          1115.64410	         8.29048e+58
          1116.45040	         7.63936e+58
          1117.25670	         1.59287e+59
          1118.06300	        -6.69434e+57
          1118.86930	        -1.03140e+59
          1119.67560	         1.68471e+59
          1120.48190	         1.21427e+58
          1121.28820	        -1.18140e+59
          1122.09450	         1.48939e+58
          1122.90080	        -4.44099e+57
          1123.70710	         3.39492e+58
          1124.51340	         1.09019e+59
          1125.31970	         2.57197e+58
          1126.12600	        -4.77627e+57
          1126.93230	        -7.18376e+58
          1127.73860	        -7.58196e+58
          1128.54490	        -2.12219e+58
          1129.35120	        -1.05101e+58
          1130.15750	        -6.89555e+58
          1130.96380	        -1.04592e+58
          1131.77010	         4.59502e+58
          1132.57640	         3.05234e+58
          1133.38270	         4.09995e+58
          1134.18900	         3.03192e+58
          1134.99530	         1.34043e+58
          1135.80160	         1.40426e+58
          1136.60790	         1.22990e+58
          1137.41420	         4.66236e+57
          1138.22050	         5.06580e+58
          1139.02680	         2.98317e+58
          1139.83310	         2.88218e+58
          1140.63940	         3.01993e+58
          1141.44570	         5.98006e+55
          1142.25200	        -3.15112e+57
          1143.05830	         3.88899e+57
          1143.86460	         7.76716e+57
          1144.67090	         1.55686e+58
          1145.47720	         1.14572e+58
          1146.28350	         1.26138e+58
          1147.08980	         2.06656e+58
          1147.89610	         2.66061e+58
          1148.70240	         2.74413e+58
          1149.50870	         3.29734e+58
          1150.31500	         1.69316e+58
          1151.12130	         7.21547e+57
          1151.92760	         1.38479e+58
          1152.73390	         1.75067e+58
          1153.54020	         2.45397e+56
          1154.34650	         1.85759e+58
          1155.15280	         1.54707e+58
          1155.95910	         9.93285e+57
          1156.76540	         1.58218e+58
          1157.57170	        -1.12620e+57
          1158.37800	         9.20146e+57
          1159.18430	         6.31325e+57
          1159.99060	         1.46897e+58
          1160.79690	         6.50532e+57
          1161.60320	         1.90103e+58
          1162.40950	         2.07596e+58
          1163.21580	         2.14793e+58
          1164.02210	         1.79717e+58
          1164.82840	         1.95116e+58
          1165.63470	         2.22385e+58
          1166.44100	         2.98259e+58
          1167.24730	         1.81649e+58
          1168.05360	         9.79005e+57
          1168.85990	         1.19244e+58
          1169.66620	         5.46829e+57
          1170.47250	         8.84173e+57
          1171.27880	         8.76993e+57
          1172.08510	         1.56415e+58
          1172.89140	         1.46225e+58
          1173.69770	         8.55197e+57
          1174.50400	         1.40265e+58
          1175.31030	         1.87772e+58
          1176.11660	         1.50888e+58
          1176.92290	         1.01952e+58
          1177.72920	         8.05218e+57
          1178.53550	         3.29457e+57
          1179.34180	         4.39037e+57
          1180.14810	         6.63301e+57
          1180.95440	         7.03189e+57
          1181.76070	         5.75223e+57
          1182.56700	         6.05138e+57
          1183.37330	         6.26683e+57
          1184.17960	         1.11097e+58
          1184.98590	         1.41773e+58
          1185.79220	         9.52047e+57
          1186.59850	         8.84357e+57
          1187.40480	         8.18451e+57
          1188.21110	         1.19075e+58
          1189.01740	         1.04015e+58
          1189.82370	         6.04925e+57
          1190.63000	         8.45152e+57
          1191.43630	         1.10888e+58
          1192.24260	         5.37076e+57
          1193.04890	         1.53804e+58
          1193.85520	         1.35970e+58
          1194.66150	         5.00561e+57
          1195.46780	         1.01783e+58
          1196.27410	         1.47870e+58
          1197.08040	         6.46060e+57
          1197.88670	         1.04085e+58
          1198.69300	         1.35059e+58
          1199.49930	         1.10804e+58
          1200.30560	         9.06827e+57
          1201.11190	         8.97602e+57
          1201.91820	         7.74273e+57
          1202.72450	         8.16193e+57
          1203.53080	         1.45384e+58
          1204.33710	         9.60640e+57
          1205.14340	         8.59596e+57
          1205.94970	         8.73217e+57
          1206.75600	         7.39791e+57
          1207.56230	         4.78943e+57
          1208.36860	         8.46314e+57
          1209.17490	         4.39016e+57
          1209.98120	         4.12436e+57
          1210.78750	         5.26502e+57
          1211.59380	         8.47309e+57
          1212.40010	         1.60232e+58
          1213.20640	         1.82759e+58
          1214.01270	         1.76699e+58
          1214.81900	         2.43828e+58
          1215.62530	         4.56314e+58
          1216.43160	         9.19376e+58
          1217.23790	         1.53054e+59
          1218.04420	         1.15625e+59
          1218.85050	         8.90156e+58
          1219.65680	         5.95550e+58
          1220.46310	         3.55614e+58
          1221.26940	         2.46671e+58
          1222.07570	         1.71283e+58
          1222.88200	         1.25403e+58
          1223.68830	         9.44175e+57
          1224.49460	         9.08385e+57
          1225.30090	         7.49567e+57
          1226.10720	         8.04818e+57
          1226.91350	         8.12597e+57
          1227.71980	         8.47838e+57
          1228.52610	         1.19320e+58
          1229.33240	         9.06907e+57
          1230.13870	         6.59288e+57
          1230.94500	         1.00543e+58
          1231.75130	         6.33553e+57
          1232.55760	         8.14958e+57
          1233.36390	         8.99568e+57
          1234.17020	         8.51328e+57
          1234.97650	         1.00690e+58
          1235.78280	         1.05151e+58
          1236.58910	         9.62048e+57
          1237.39540	         9.40166e+57
          1238.20170	         7.93102e+57
          1239.00800	         1.07526e+58
          1239.81430	         1.52909e+58
          1240.62060	         1.22425e+58
          1241.42690	         1.06252e+58
          1242.23320	         1.16805e+58
          1243.03950	         8.61000e+57
          1243.84580	         8.50360e+57
          1244.65210	         1.04703e+58
          1245.45840	         1.32295e+58
          1246.26470	         1.20115e+58
          1247.07100	         7.51783e+57
          1247.87730	         5.54011e+57
          1248.68360	         3.74032e+57
          1249.48990	         6.79182e+57
          1250.29620	         1.04040e+58
          1251.10250	         1.06001e+58
          1251.90880	         9.90927e+57
          1252.71510	         7.94951e+57
          1253.52140	         8.43482e+57
          1254.32770	         1.03473e+58
          1255.13400	         1.25520e+58
          1255.94030	         9.75943e+57
          1256.74660	         9.26210e+57
          1257.55290	         1.03405e+58
          1258.35920	         7.83231e+57
          1259.16550	         5.22950e+57
          1259.97180	         3.90156e+57
          1260.77810	         9.04719e+57
          1261.58440	         1.13094e+58
          1262.39070	         6.95274e+57
          1263.19700	         8.12284e+57
          1264.00330	         1.03539e+58
          1264.80960	         9.83065e+57
          1265.61590	         1.08236e+58
          1266.42220	         1.21384e+58
          1267.22850	         1.11241e+58
          1268.03480	         1.35943e+58
          1268.84110	         1.47324e+58
          1269.64740	         1.38784e+58
          1270.45370	         1.24285e+58
          1271.26000	         1.25289e+58
          1272.06630	         1.55289e+58
          1272.87260	         1.43859e+58
          1273.67890	         1.30323e+58
          1274.48520	         1.36992e+58
          1275.29150	         1.45399e+58
          1276.09780	         1.19292e+58
          1276.90410	         1.37579e+58
          1277.71040	         1.36236e+58
          1278.51670	         1.28044e+58
          1279.32300	         1.47425e+58
          1280.12930	         1.25789e+58
          1280.93560	         9.62121e+57
          1281.74190	         1.09103e+58
          1282.54820	         1.20129e+58
          1283.35450	         9.38969e+57
          1284.16080	         1.01000e+58
          1284.96710	         1.20467e+58
          1285.77340	         1.20603e+58
          1286.57970	         1.22802e+58
          1287.38600	         1.63353e+58
          1288.19230	         1.60991e+58
          1288.99860	         1.39651e+58
          1289.80490	         1.22128e+58
          1290.61120	         1.18792e+58
          1291.41750	         1.27384e+58
          1292.22380	         1.22887e+58
          1293.03010	         1.07709e+58
          1293.83640	         1.15905e+58
          1294.64270	         1.07407e+58
          1295.44900	         6.49498e+57
          1296.25530	         7.57101e+57
          1297.06160	         1.03670e+58
          1297.86790	         9.53535e+57
          1298.67420	         8.67648e+57
          1299.48050	         9.01670e+57
          1300.28680	         7.71036e+57
          1301.09310	         8.36725e+57
          1301.89940	         6.68404e+57
          1302.70570	         5.72883e+57
          1303.51200	         7.46460e+57
          1304.31830	         9.94871e+57
          1305.12460	         1.17640e+58
          1305.93090	         1.08749e+58
          1306.73720	         1.05051e+58
          1307.54350	         1.31065e+58
          1308.34980	         1.31215e+58
          1309.15610	         1.50014e+58
          1309.96240	         1.43048e+58
          1310.76870	         1.15776e+58
          1311.57500	         1.08612e+58
          1312.38130	         1.14281e+58
          1313.18760	         1.41908e+58
          1313.99390	         1.54741e+58
          1314.80020	         1.47341e+58
          1315.60650	         1.51610e+58
          1316.41280	         1.50361e+58
          1317.21910	         1.07380e+58
          1318.02540	         1.18750e+58
          1318.83170	         1.35680e+58
          1319.63800	         1.30117e+58
          1320.44430	         1.18597e+58
          1321.25060	         1.30253e+58
          1322.05690	         1.31852e+58
          1322.86320	         1.24784e+58
          1323.66950	         1.16398e+58
          1324.47580	         8.71807e+57
          1325.28210	         9.02471e+57
          1326.08840	         1.15342e+58
          1326.89470	         1.43617e+58
          1327.70100	         1.27263e+58
          1328.50730	         8.40815e+57
          1329.31360	         7.93916e+57
          1330.11990	         9.31466e+57
          1330.92620	         7.92385e+57
          1331.73250	         9.20954e+57
          1332.53880	         9.53843e+57
          1333.34510	         9.97123e+57
          1334.15140	         9.89771e+57
          1334.95770	         9.51784e+57
          1335.76400	         1.11979e+58
          1336.57030	         1.29223e+58
          1337.37660	         1.12590e+58
          1338.18290	         1.04016e+58
          1338.98920	         1.06350e+58
          1339.79550	         9.96192e+57
          1340.60180	         1.07149e+58
          1341.40810	         1.32585e+58
          1342.21440	         1.36656e+58
          1343.02070	         1.24988e+58
          1343.82700	         1.34652e+58
          1344.63330	         1.21614e+58
          1345.43960	         1.18406e+58
          1346.24590	         1.06503e+58
          1347.05220	         1.17569e+58
          1347.85850	         1.13086e+58
          1348.66480	         1.28244e+58
          1349.47110	         1.23537e+58
          1350.27740	         1.22544e+58
          1351.08370	         1.24033e+58
          1351.89000	         1.17316e+58
          1352.69630	         1.19652e+58
          1353.50260	         1.21570e+58
          1354.30890	         1.19296e+58
          1355.11520	         1.16419e+58
          1355.92150	         1.11072e+58
          1356.72780	         1.06287e+58
          1357.53410	         1.05636e+58
          1358.34040	         1.13080e+58
          1359.14670	         1.03355e+58
          1359.95300	         1.14940e+58
          1360.75930	         1.23940e+58
          1361.56560	         1.19904e+58
          1362.37190	         1.20787e+58
          1363.17820	         1.22904e+58
          1363.98450	         1.25474e+58
          1364.79080	         1.15177e+58
          1365.59710	         1.26080e+58
          1366.40340	         1.21320e+58
          1367.20970	         9.94123e+57
          1368.01600	         9.17110e+57
          1368.82230	         9.68568e+57
          1369.62860	         1.05450e+58
          1370.43490	         8.50834e+57
          1371.24120	         8.95053e+57
          1372.04750	         9.35736e+57
          1372.85380	         1.08570e+58
          1373.66010	         1.10045e+58
          1374.46640	         1.01525e+58
          1375.27270	         1.15489e+58
          1376.07900	         8.95814e+57
          1376.88530	         7.19678e+57
          1377.69160	         7.72080e+57
          1378.49790	         6.31492e+57
          1379.30420	         6.48015e+57
          1380.11050	         9.32769e+57
          1380.91680	         9.32426e+57
          1381.72310	         8.41146e+57
          1382.52940	         7.79127e+57
          1383.33570	         8.26110e+57
          1384.14200	         9.49561e+57
          1384.94830	         9.79805e+57
          1385.75460	         1.08277e+58
          1386.56090	         1.20667e+58
          1387.36720	         1.12194e+58
          1388.17350	         1.38981e+58
          1388.97980	         1.27820e+58
          1389.78610	         9.12284e+57
          1390.59240	         9.16624e+57
          1391.39870	         8.45289e+57
          1392.20500	         8.29751e+57
          1393.01130	         8.10868e+57
          1393.81760	         8.56727e+57
          1394.62390	         7.57072e+57
          1395.43020	         6.61424e+57
          1396.23650	         7.00810e+57
          1397.04280	         7.39178e+57
          1397.84910	         8.69449e+57
          1398.65540	         8.10222e+57
          1399.46170	         8.80220e+57
          1400.26800	         8.09157e+57
          1401.07430	         8.03979e+57
          1401.88060	         8.56897e+57
          1402.68690	         9.55687e+57
          1403.49320	         9.20150e+57
          1404.29950	         9.07066e+57
          1405.10580	         1.05713e+58
          1405.91210	         1.05628e+58
          1406.71840	         1.04835e+58
          1407.52470	         1.01634e+58
          1408.33100	         1.08308e+58
          1409.13730	         1.26827e+58
          1409.94360	         1.26333e+58
          1410.74990	         1.22440e+58
          1411.55620	         1.14106e+58
          1412.36250	         9.76478e+57
          1413.16880	         8.35416e+57
          1413.97510	         8.45205e+57
          1414.78140	         1.00052e+58
          1415.58770	         9.40928e+57
          1416.39400	         1.02110e+58
          1417.20030	         1.22792e+58
          1418.00660	         1.04651e+58
          1418.81290	         1.13666e+58
          1419.61920	         1.12554e+58
          1420.42550	         1.23626e+58
          1421.23180	         1.35440e+58
          1422.03810	         1.31083e+58
          1422.84440	         1.18872e+58
          1423.65070	         1.33048e+58
          1424.45700	         1.35092e+58
          1425.26330	         1.03850e+58
          1426.06960	         8.24852e+57
          1426.87590	         9.74463e+57
          1427.68220	         1.15966e+58
          1428.48850	         1.30867e+58
          1429.29480	         1.11101e+58
          1430.10110	         1.04143e+58
          1430.90740	         9.15213e+57
          1431.71370	         8.82401e+57
          1432.52000	         8.77398e+57
          1433.32630	         7.60232e+57
          1434.13260	         7.86129e+57
          1434.93890	         8.49318e+57
          1435.74520	         9.05886e+57
          1436.55150	         9.63278e+57
          1437.35780	         8.54650e+57
          1438.16410	         8.49266e+57
          1438.97040	         9.33584e+57
          1439.77670	         9.17593e+57
          1440.58300	         9.73152e+57
          1441.38930	         1.04780e+58
          1442.19560	         1.00561e+58
          1443.00190	         9.70210e+57
          1443.80820	         1.14605e+58
          1444.61450	         9.76488e+57
          1445.42080	         8.06224e+57
          1446.22710	         9.66410e+57
          1447.03340	         1.02864e+58
          1447.83970	         1.04890e+58
          1448.64600	         1.14429e+58
          1449.45230	         1.13173e+58
          1450.25860	         1.03461e+58
          1451.06490	         8.76885e+57
          1451.87120	         7.13403e+57
          1452.67750	         7.22809e+57
          1453.48380	         9.39378e+57
          1454.29010	         9.16840e+57
          1455.09640	         8.39391e+57
          1455.90270	         1.01085e+58
          1456.70900	         9.08828e+57
          1457.51530	         9.86324e+57
          1458.32160	         1.30754e+58
          1459.12790	         1.23126e+58
          1459.93420	         1.08143e+58
          1460.74050	         8.49049e+57
          1461.54680	         7.43278e+57
          1462.35310	         7.50501e+57
          1463.15940	         9.07617e+57
          1463.96570	         1.07384e+58
          1464.77200	         1.16419e+58
          1465.57830	         1.07927e+58
          1466.38460	         9.43496e+57
          1467.19090	         8.22600e+57
          1467.99720	         8.78294e+57
          1468.80350	         9.66120e+57
          1469.60980	         1.02344e+58
          1470.41610	         1.20147e+58
          1471.22240	         1.08696e+58
          1472.02870	         9.91677e+57
          1472.83500	         1.00806e+58
          1473.64130	         1.01692e+58
          1474.44760	         9.53564e+57
          1475.25390	         9.80404e+57
          1476.06020	         9.28355e+57
          1476.86650	         9.63071e+57
          1477.67280	         9.02042e+57
          1478.47910	         6.88879e+57
          1479.28540	         6.93079e+57
          1480.09170	         8.06343e+57
          1480.89800	         8.71328e+57
          1481.70430	         9.11674e+57
          1482.51060	         8.71239e+57
          1483.31690	         7.25074e+57
          1484.12320	         7.13852e+57
          1484.92950	         8.21272e+57
          1485.73580	         8.14281e+57
          1486.54210	         9.51625e+57
          1487.34840	         9.42991e+57
          1488.15470	         8.40981e+57
          1488.96100	         8.73995e+57
          1489.76730	         9.11222e+57
