#sample_40_stacked_spectrum_rest_UV-bands_median_H-alpha_noDC.txt
#median Lum: 1.69389e+42
#Rest-frame wavelength (A) | Luminosity (erg/s/A)
#
          1110.00000	         0.00000e+00
          1110.80630	        -1.89963e+58
          1111.61260	         3.00255e+58
          1112.41890	         1.73081e+59
          1113.22520	         1.01915e+59
          1114.03150	        -2.64502e+59
          1114.83780	         2.21732e+59
          1115.64410	         2.05632e+59
          1116.45040	         1.79556e+59
          1117.25670	         3.54253e+58
          1118.06300	         4.27848e+58
          1118.86930	        -4.33140e+58
          1119.67560	         4.38015e+57
          1120.48190	        -7.24339e+58
          1121.28820	        -1.07741e+59
          1122.09450	        -2.75163e+58
          1122.90080	        -3.04446e+58
          1123.70710	         4.66376e+58
          1124.51340	         1.08979e+59
          1125.31970	        -1.10039e+58
          1126.12600	        -3.93897e+58
          1126.93230	        -3.33248e+58
          1127.73860	        -1.05711e+59
          1128.54490	        -3.78968e+58
          1129.35120	         1.07340e+58
          1130.15750	        -1.34438e+58
          1130.96380	        -3.55573e+58
          1131.77010	         7.84413e+58
          1132.57640	         8.30947e+58
          1133.38270	         2.95930e+58
          1134.18900	         2.89612e+58
          1134.99530	         2.99073e+58
          1135.80160	         3.14745e+58
          1136.60790	        -1.75221e+57
          1137.41420	        -2.15910e+58
          1138.22050	         4.78887e+58
          1139.02680	         2.97045e+58
          1139.83310	         5.96017e+57
          1140.63940	         1.57672e+58
          1141.44570	        -6.51761e+57
          1142.25200	        -1.12228e+57
          1143.05830	         2.37757e+58
          1143.86460	         1.27960e+58
          1144.67090	         2.16842e+58
          1145.47720	         1.58887e+58
          1146.28350	         2.33684e+58
          1147.08980	         2.41205e+58
          1147.89610	         2.98455e+58
          1148.70240	         3.51088e+58
          1149.50870	         2.53802e+58
          1150.31500	         1.11949e+58
          1151.12130	         1.41570e+58
          1151.92760	         1.16492e+58
          1152.73390	         1.23593e+58
          1153.54020	         6.04743e+57
          1154.34650	         2.64124e+58
          1155.15280	         2.20785e+58
          1155.95910	         3.15288e+57
          1156.76540	        -6.11001e+57
          1157.57170	        -1.23302e+58
          1158.37800	        -6.09598e+57
          1159.18430	        -2.30466e+57
          1159.99060	         1.53305e+58
          1160.79690	         1.16566e+58
          1161.60320	         1.44323e+58
          1162.40950	         1.77360e+58
          1163.21580	         1.91111e+58
          1164.02210	         5.05212e+57
          1164.82840	         1.29968e+58
          1165.63470	         2.30391e+58
          1166.44100	         2.93280e+58
          1167.24730	         1.57240e+58
          1168.05360	         5.34865e+57
          1168.85990	         9.78238e+57
          1169.66620	         9.28789e+57
          1170.47250	         7.93366e+57
          1171.27880	         1.84644e+58
          1172.08510	         2.06560e+58
          1172.89140	         1.97391e+58
          1173.69770	         2.09119e+57
          1174.50400	         4.48066e+57
          1175.31030	         9.92396e+57
          1176.11660	         1.49670e+58
          1176.92290	         1.47255e+58
          1177.72920	         1.16751e+58
          1178.53550	         1.12759e+58
          1179.34180	         7.53313e+57
          1180.14810	         8.45758e+57
          1180.95440	         1.17091e+58
          1181.76070	         9.34554e+57
          1182.56700	         7.90988e+57
          1183.37330	         6.69151e+57
          1184.17960	         8.23516e+57
          1184.98590	         1.39405e+58
          1185.79220	         7.56349e+57
          1186.59850	         1.24262e+58
          1187.40480	         1.41135e+58
          1188.21110	         1.43342e+58
          1189.01740	         1.25385e+58
          1189.82370	         1.23466e+58
          1190.63000	         6.96547e+57
          1191.43630	         9.68453e+57
          1192.24260	         8.38914e+57
          1193.04890	         1.18532e+58
          1193.85520	         1.08509e+58
          1194.66150	         6.89958e+57
          1195.46780	         1.03128e+58
          1196.27410	         1.41488e+58
          1197.08040	         1.29739e+58
          1197.88670	         1.56272e+58
          1198.69300	         1.90899e+58
          1199.49930	         1.94116e+58
          1200.30560	         1.01490e+58
          1201.11190	         8.12950e+57
          1201.91820	         1.31479e+58
          1202.72450	         1.36838e+58
          1203.53080	         1.37807e+58
          1204.33710	         1.07912e+58
          1205.14340	         6.44962e+57
          1205.94970	         5.80871e+57
          1206.75600	         8.49762e+57
          1207.56230	         9.17417e+57
          1208.36860	         1.33497e+58
          1209.17490	         5.06859e+57
          1209.98120	         7.47281e+57
          1210.78750	         8.55454e+57
          1211.59380	         1.19914e+58
          1212.40010	         1.89256e+58
          1213.20640	         1.77069e+58
          1214.01270	         1.81646e+58
          1214.81900	         2.21285e+58
          1215.62530	         4.10379e+58
          1216.43160	         8.83364e+58
          1217.23790	         1.52843e+59
          1218.04420	         1.17538e+59
          1218.85050	         8.38924e+58
          1219.65680	         6.04708e+58
          1220.46310	         3.78842e+58
          1221.26940	         2.48942e+58
          1222.07570	         1.46979e+58
          1222.88200	         1.22971e+58
          1223.68830	         9.79849e+57
          1224.49460	         5.39961e+57
          1225.30090	         6.42049e+57
          1226.10720	         9.76696e+57
          1226.91350	         1.09253e+58
          1227.71980	         9.06408e+57
          1228.52610	         1.20618e+58
          1229.33240	         1.33056e+58
          1230.13870	         1.08237e+58
          1230.94500	         9.43427e+57
          1231.75130	         6.64166e+57
          1232.55760	         9.07367e+57
          1233.36390	         9.21665e+57
          1234.17020	         1.05671e+58
          1234.97650	         9.09490e+57
          1235.78280	         7.63470e+57
          1236.58910	         9.55939e+57
          1237.39540	         1.14593e+58
          1238.20170	         1.15167e+58
          1239.00800	         1.35607e+58
          1239.81430	         1.56032e+58
          1240.62060	         1.31030e+58
          1241.42690	         1.14917e+58
          1242.23320	         1.22873e+58
          1243.03950	         9.70615e+57
          1243.84580	         9.10763e+57
          1244.65210	         1.24149e+58
          1245.45840	         1.16527e+58
          1246.26470	         1.19471e+58
          1247.07100	         8.82502e+57
          1247.87730	         6.15856e+57
          1248.68360	         5.95991e+57
          1249.48990	         7.33881e+57
          1250.29620	         1.04252e+58
          1251.10250	         1.00537e+58
          1251.90880	         6.09693e+57
          1252.71510	         5.92478e+57
          1253.52140	         8.17021e+57
          1254.32770	         1.14540e+58
          1255.13400	         1.55202e+58
          1255.94030	         1.30469e+58
          1256.74660	         1.03814e+58
          1257.55290	         1.13087e+58
          1258.35920	         9.92037e+57
          1259.16550	         7.59976e+57
          1259.97180	         7.32794e+57
          1260.77810	         1.08943e+58
          1261.58440	         1.22034e+58
          1262.39070	         9.68624e+57
          1263.19700	         9.70556e+57
          1264.00330	         1.00106e+58
          1264.80960	         1.11614e+58
          1265.61590	         1.44642e+58
          1266.42220	         1.30332e+58
          1267.22850	         9.44065e+57
          1268.03480	         1.42955e+58
          1268.84110	         1.49257e+58
          1269.64740	         1.14221e+58
          1270.45370	         1.36224e+58
          1271.26000	         1.32169e+58
          1272.06630	         1.46052e+58
          1272.87260	         1.13769e+58
          1273.67890	         1.07662e+58
          1274.48520	         1.21978e+58
          1275.29150	         1.23597e+58
          1276.09780	         1.31985e+58
          1276.90410	         1.54784e+58
          1277.71040	         1.24609e+58
          1278.51670	         1.07469e+58
          1279.32300	         1.49934e+58
          1280.12930	         1.39502e+58
          1280.93560	         1.28147e+58
          1281.74190	         1.04732e+58
          1282.54820	         1.05872e+58
          1283.35450	         1.21663e+58
          1284.16080	         1.17196e+58
          1284.96710	         1.19407e+58
          1285.77340	         1.10842e+58
          1286.57970	         1.07893e+58
          1287.38600	         1.66477e+58
          1288.19230	         2.05688e+58
          1288.99860	         1.61488e+58
          1289.80490	         1.02447e+58
          1290.61120	         1.26500e+58
          1291.41750	         1.40418e+58
          1292.22380	         1.21991e+58
          1293.03010	         1.20626e+58
          1293.83640	         1.29204e+58
          1294.64270	         1.17801e+58
          1295.44900	         6.76547e+57
          1296.25530	         7.58659e+57
          1297.06160	         1.03574e+58
          1297.86790	         8.81820e+57
          1298.67420	         8.23536e+57
          1299.48050	         1.00988e+58
          1300.28680	         1.04803e+58
          1301.09310	         8.63613e+57
          1301.89940	         5.32110e+57
          1302.70570	         7.14528e+57
          1303.51200	         8.50749e+57
          1304.31830	         9.30510e+57
          1305.12460	         1.03271e+58
          1305.93090	         1.17827e+58
          1306.73720	         1.30259e+58
          1307.54350	         1.51545e+58
          1308.34980	         1.60131e+58
          1309.15610	         1.53660e+58
          1309.96240	         1.63506e+58
          1310.76870	         1.54340e+58
          1311.57500	         1.13425e+58
          1312.38130	         9.11220e+57
          1313.18760	         1.24606e+58
          1313.99390	         1.50530e+58
          1314.80020	         1.52830e+58
          1315.60650	         1.33860e+58
          1316.41280	         1.25179e+58
          1317.21910	         1.20295e+58
          1318.02540	         1.32933e+58
          1318.83170	         1.39702e+58
          1319.63800	         1.25964e+58
          1320.44430	         1.15052e+58
          1321.25060	         1.10011e+58
          1322.05690	         1.10146e+58
          1322.86320	         1.18515e+58
          1323.66950	         1.08706e+58
          1324.47580	         8.73365e+57
          1325.28210	         9.73266e+57
          1326.08840	         1.11568e+58
          1326.89470	         1.25253e+58
          1327.70100	         1.08932e+58
          1328.50730	         9.14942e+57
          1329.31360	         9.81788e+57
          1330.11990	         1.03975e+58
          1330.92620	         9.00484e+57
          1331.73250	         1.05109e+58
          1332.53880	         9.95080e+57
          1333.34510	         8.54908e+57
          1334.15140	         8.50634e+57
          1334.95770	         9.10594e+57
          1335.76400	         1.09498e+58
          1336.57030	         1.14726e+58
          1337.37660	         1.05629e+58
          1338.18290	         9.42737e+57
          1338.98920	         1.07528e+58
          1339.79550	         1.27107e+58
          1340.60180	         1.29364e+58
          1341.40810	         1.33275e+58
          1342.21440	         1.11003e+58
          1343.02070	         1.22893e+58
          1343.82700	         1.28681e+58
          1344.63330	         1.29600e+58
          1345.43960	         1.40736e+58
          1346.24590	         1.07669e+58
          1347.05220	         1.08990e+58
          1347.85850	         1.08596e+58
          1348.66480	         1.28538e+58
          1349.47110	         1.35073e+58
          1350.27740	         1.14175e+58
          1351.08370	         1.20607e+58
          1351.89000	         1.20607e+58
          1352.69630	         1.19216e+58
          1353.50260	         1.19195e+58
          1354.30890	         1.20252e+58
          1355.11520	         1.19110e+58
          1355.92150	         1.22388e+58
          1356.72780	         1.21422e+58
          1357.53410	         1.20544e+58
          1358.34040	         1.13859e+58
          1359.14670	         1.06938e+58
          1359.95300	         1.36026e+58
          1360.75930	         1.34780e+58
          1361.56560	         1.07058e+58
          1362.37190	         1.22939e+58
          1363.17820	         1.25909e+58
          1363.98450	         1.21992e+58
          1364.79080	         1.30886e+58
          1365.59710	         1.31282e+58
          1366.40340	         1.29807e+58
          1367.20970	         1.08457e+58
          1368.01600	         8.85888e+57
          1368.82230	         8.98862e+57
          1369.62860	         1.09568e+58
          1370.43490	         9.70548e+57
          1371.24120	         8.55562e+57
          1372.04750	         8.25003e+57
          1372.85380	         1.04756e+58
          1373.66010	         1.13145e+58
          1374.46640	         1.10923e+58
          1375.27270	         1.14514e+58
          1376.07900	         1.10965e+58
          1376.88530	         8.88836e+57
          1377.69160	         8.66077e+57
          1378.49790	         7.80233e+57
          1379.30420	         7.44081e+57
          1380.11050	         9.41683e+57
          1380.91680	         9.48921e+57
          1381.72310	         9.25302e+57
          1382.52940	         9.43257e+57
          1383.33570	         9.50349e+57
          1384.14200	         1.19994e+58
          1384.94830	         1.14611e+58
          1385.75460	         1.11035e+58
          1386.56090	         1.22195e+58
          1387.36720	         1.18310e+58
          1388.17350	         1.41163e+58
          1388.97980	         1.16473e+58
          1389.78610	         7.64935e+57
          1390.59240	         9.46946e+57
          1391.39870	         9.22587e+57
          1392.20500	         8.60787e+57
          1393.01130	         7.81927e+57
          1393.81760	         7.78208e+57
          1394.62390	         8.29165e+57
          1395.43020	         7.10782e+57
          1396.23650	         7.23125e+57
          1397.04280	         7.86961e+57
          1397.84910	         9.06426e+57
          1398.65540	         9.37794e+57
          1399.46170	         1.04871e+58
          1400.26800	         8.17351e+57
          1401.07430	         6.45028e+57
          1401.88060	         7.63631e+57
          1402.68690	         8.33633e+57
          1403.49320	         9.59761e+57
          1404.29950	         8.21743e+57
          1405.10580	         9.95585e+57
          1405.91210	         1.06409e+58
          1406.71840	         9.77617e+57
          1407.52470	         1.04824e+58
          1408.33100	         1.08626e+58
          1409.13730	         1.24587e+58
          1409.94360	         1.25694e+58
          1410.74990	         1.17319e+58
          1411.55620	         1.01974e+58
          1412.36250	         9.64645e+57
          1413.16880	         1.04553e+58
          1413.97510	         9.22215e+57
          1414.78140	         9.03392e+57
          1415.58770	         1.05254e+58
          1416.39400	         9.83448e+57
          1417.20030	         9.92647e+57
          1418.00660	         8.04964e+57
          1418.81290	         1.07887e+58
          1419.61920	         1.05111e+58
          1420.42550	         1.10945e+58
          1421.23180	         1.48041e+58
          1422.03810	         1.33477e+58
          1422.84440	         1.23430e+58
          1423.65070	         1.33685e+58
          1424.45700	         1.10711e+58
          1425.26330	         8.86508e+57
          1426.06960	         8.91539e+57
          1426.87590	         1.01165e+58
          1427.68220	         1.08344e+58
          1428.48850	         1.16102e+58
          1429.29480	         1.04349e+58
          1430.10110	         9.48993e+57
          1430.90740	         9.81955e+57
          1431.71370	         9.76482e+57
          1432.52000	         9.44992e+57
          1433.32630	         8.61690e+57
          1434.13260	         8.31753e+57
          1434.93890	         8.55045e+57
          1435.74520	         1.00332e+58
          1436.55150	         9.36922e+57
          1437.35780	         8.36492e+57
          1438.16410	         9.05129e+57
          1438.97040	         9.78419e+57
          1439.77670	         9.63604e+57
          1440.58300	         9.61307e+57
          1441.38930	         1.07129e+58
          1442.19560	         1.07926e+58
          1443.00190	         9.47120e+57
          1443.80820	         1.01906e+58
          1444.61450	         9.55316e+57
          1445.42080	         8.56223e+57
          1446.22710	         1.12553e+58
          1447.03340	         1.07918e+58
          1447.83970	         1.08428e+58
          1448.64600	         1.16981e+58
          1449.45230	         1.03094e+58
          1450.25860	         9.71987e+57
          1451.06490	         9.23874e+57
          1451.87120	         8.06388e+57
          1452.67750	         8.30247e+57
          1453.48380	         8.91628e+57
          1454.29010	         8.46700e+57
          1455.09640	         8.17736e+57
          1455.90270	         9.86430e+57
          1456.70900	         9.73901e+57
          1457.51530	         9.50551e+57
          1458.32160	         1.23310e+58
          1459.12790	         1.26995e+58
          1459.93420	         1.12063e+58
          1460.74050	         8.50721e+57
          1461.54680	         8.07983e+57
          1462.35310	         8.24172e+57
          1463.15940	         8.73390e+57
          1463.96570	         1.16202e+58
          1464.77200	         1.21651e+58
          1465.57830	         1.09531e+58
          1466.38460	         9.60797e+57
          1467.19090	         8.65679e+57
          1467.99720	         9.71437e+57
          1468.80350	         1.01496e+58
          1469.60980	         9.14179e+57
          1470.41610	         1.02342e+58
          1471.22240	         9.89395e+57
          1472.02870	         1.04347e+58
          1472.83500	         1.08163e+58
          1473.64130	         1.00644e+58
          1474.44760	         9.27477e+57
          1475.25390	         9.20387e+57
          1476.06020	         9.54471e+57
          1476.86650	         9.19799e+57
          1477.67280	         7.21490e+57
          1478.47910	         6.36211e+57
          1479.28540	         7.53046e+57
          1480.09170	         9.72691e+57
          1480.89800	         9.20485e+57
          1481.70430	         8.70908e+57
          1482.51060	         8.17704e+57
          1483.31690	         8.20065e+57
          1484.12320	         7.75683e+57
          1484.92950	         8.68284e+57
          1485.73580	         8.46856e+57
          1486.54210	         8.37612e+57
          1487.34840	         9.02735e+57
          1488.15470	         8.90542e+57
          1488.96100	         8.57518e+57
          1489.76730	         8.80144e+57
