#sample_92_stacked_spectrum_rest_UV-bands_median_H-alpha_noDC.txt
#median Lum: 1.69069e+42
#Rest-frame wavelength (A) | Luminosity (erg/s/A)
#
          1110.00000	         0.00000e+00
          1110.80630	         7.98068e+59
          1111.61260	         5.25450e+59
          1112.41890	         2.62303e+59
          1113.22520	        -9.53315e+58
          1114.03150	        -1.37044e+59
          1114.83780	         1.23380e+59
          1115.64410	         2.39093e+59
          1116.45040	         2.18429e+59
          1117.25670	        -1.87942e+58
          1118.06300	         1.57188e+59
          1118.86930	        -7.73460e+58
          1119.67560	         8.18607e+58
          1120.48190	         3.67008e+58
          1121.28820	        -1.04613e+59
          1122.09450	        -4.69168e+58
          1122.90080	        -4.71501e+58
          1123.70710	         6.34678e+58
          1124.51340	         1.05625e+59
          1125.31970	         7.70773e+58
          1126.12600	         2.72144e+58
          1126.93230	        -5.56851e+58
          1127.73860	        -3.54804e+58
          1128.54490	        -2.70303e+58
          1129.35120	        -1.52970e+58
          1130.15750	        -5.78671e+57
          1130.96380	        -4.58280e+57
          1131.77010	         3.11644e+58
          1132.57640	         1.77627e+58
          1133.38270	         1.71033e+58
          1134.18900	         1.96314e+58
          1134.99530	         2.30444e+58
          1135.80160	         2.14449e+58
          1136.60790	         1.58261e+58
          1137.41420	         8.88995e+57
          1138.22050	         5.24628e+58
          1139.02680	         5.55641e+58
          1139.83310	         3.83454e+58
          1140.63940	         3.07838e+58
          1141.44570	        -6.05669e+57
          1142.25200	        -4.78989e+57
          1143.05830	         2.25574e+58
          1143.86460	         4.38026e+58
          1144.67090	         2.59732e+58
          1145.47720	         1.37402e+58
          1146.28350	         1.16357e+58
          1147.08980	         2.32375e+57
          1147.89610	         1.38266e+58
          1148.70240	         2.84519e+58
          1149.50870	         2.01158e+58
          1150.31500	         1.04758e+58
          1151.12130	         1.81774e+58
          1151.92760	         8.58010e+57
          1152.73390	         1.12635e+58
          1153.54020	         1.46903e+58
          1154.34650	         2.34771e+58
          1155.15280	         1.73924e+58
          1155.95910	         9.24342e+57
          1156.76540	         1.45850e+58
          1157.57170	         4.33490e+57
          1158.37800	        -7.96594e+57
          1159.18430	        -3.98361e+57
          1159.99060	         4.97944e+57
          1160.79690	         1.32965e+58
          1161.60320	         2.22581e+58
          1162.40950	         1.59058e+58
          1163.21580	         2.12900e+58
          1164.02210	         1.21790e+58
          1164.82840	         1.04481e+57
          1165.63470	         1.67913e+58
          1166.44100	         3.47886e+58
          1167.24730	         2.29543e+58
          1168.05360	         7.15034e+57
          1168.85990	         9.76600e+57
          1169.66620	         1.35617e+58
          1170.47250	         1.84940e+58
          1171.27880	         1.23154e+58
          1172.08510	         1.31804e+58
          1172.89140	         1.33343e+58
          1173.69770	         1.37942e+58
          1174.50400	         1.16974e+58
          1175.31030	         1.55213e+58
          1176.11660	         1.58021e+58
          1176.92290	         1.75325e+58
          1177.72920	         1.15125e+58
          1178.53550	         9.27564e+57
          1179.34180	         4.68462e+57
          1180.14810	         1.02154e+58
          1180.95440	         1.23569e+58
          1181.76070	         8.48487e+57
          1182.56700	         1.02119e+58
          1183.37330	         1.23294e+58
          1184.17960	         1.52246e+58
          1184.98590	         1.80173e+58
          1185.79220	         1.18717e+58
          1186.59850	         1.12226e+58
          1187.40480	         1.15312e+58
          1188.21110	         1.74576e+58
          1189.01740	         7.00815e+57
          1189.82370	         1.25899e+58
          1190.63000	         1.21936e+58
          1191.43630	         7.15957e+57
          1192.24260	         5.42456e+57
          1193.04890	         1.12921e+58
          1193.85520	         1.07225e+58
          1194.66150	         4.86912e+57
          1195.46780	         9.36790e+57
          1196.27410	         1.09318e+58
          1197.08040	         8.20628e+57
          1197.88670	         1.24187e+58
          1198.69300	         1.59046e+58
          1199.49930	         1.68877e+58
          1200.30560	         7.79597e+57
          1201.11190	         9.69746e+57
          1201.91820	         1.31767e+58
          1202.72450	         1.13371e+58
          1203.53080	         1.20300e+58
          1204.33710	         6.07921e+57
          1205.14340	         5.77460e+57
          1205.94970	         7.79476e+57
          1206.75600	         8.91250e+57
          1207.56230	         6.11346e+57
          1208.36860	         1.07902e+58
          1209.17490	         6.32583e+57
          1209.98120	         7.12327e+57
          1210.78750	         4.88412e+57
          1211.59380	         8.85609e+57
          1212.40010	         1.80577e+58
          1213.20640	         1.88566e+58
          1214.01270	         2.23805e+58
          1214.81900	         2.96692e+58
          1215.62530	         5.04789e+58
          1216.43160	         9.59744e+58
          1217.23790	         1.53771e+59
          1218.04420	         1.18511e+59
          1218.85050	         8.88284e+58
          1219.65680	         5.71784e+58
          1220.46310	         3.87730e+58
          1221.26940	         2.60520e+58
          1222.07570	         1.29761e+58
          1222.88200	         9.19289e+57
          1223.68830	         8.24902e+57
          1224.49460	         5.59120e+57
          1225.30090	         5.03838e+57
          1226.10720	         6.00216e+57
          1226.91350	         6.26912e+57
          1227.71980	         1.03552e+58
          1228.52610	         9.62725e+57
          1229.33240	         8.46264e+57
          1230.13870	         7.10024e+57
          1230.94500	         6.83371e+57
          1231.75130	         8.54534e+57
          1232.55760	         1.00522e+58
          1233.36390	         9.33720e+57
          1234.17020	         7.41293e+57
          1234.97650	         7.71779e+57
          1235.78280	         9.02907e+57
          1236.58910	         1.01344e+58
          1237.39540	         9.08682e+57
          1238.20170	         7.61457e+57
          1239.00800	         1.10750e+58
          1239.81430	         1.18068e+58
          1240.62060	         8.77194e+57
          1241.42690	         1.00885e+58
          1242.23320	         1.22077e+58
          1243.03950	         8.21009e+57
          1243.84580	         9.53120e+57
          1244.65210	         1.11394e+58
          1245.45840	         9.48855e+57
          1246.26470	         8.23774e+57
          1247.07100	         7.03693e+57
          1247.87730	         4.23735e+57
          1248.68360	         2.35324e+57
          1249.48990	         6.64936e+57
          1250.29620	         1.19792e+58
          1251.10250	         9.04242e+57
          1251.90880	         4.30708e+57
          1252.71510	         4.34805e+57
          1253.52140	         7.78226e+57
          1254.32770	         9.30040e+57
          1255.13400	         1.05690e+58
          1255.94030	         1.02664e+58
          1256.74660	         9.33851e+57
          1257.55290	         9.38913e+57
          1258.35920	         9.01946e+57
          1259.16550	         6.53634e+57
          1259.97180	         4.87062e+57
          1260.77810	         6.49616e+57
          1261.58440	         1.01667e+58
          1262.39070	         9.39022e+57
          1263.19700	         8.51017e+57
          1264.00330	         7.95109e+57
          1264.80960	         8.78113e+57
          1265.61590	         1.18257e+58
          1266.42220	         1.14199e+58
          1267.22850	         1.12005e+58
          1268.03480	         1.45036e+58
          1268.84110	         1.49378e+58
          1269.64740	         1.44910e+58
          1270.45370	         1.16024e+58
          1271.26000	         1.14515e+58
          1272.06630	         1.19918e+58
          1272.87260	         1.13254e+58
          1273.67890	         1.03019e+58
          1274.48520	         9.59764e+57
          1275.29150	         1.20850e+58
          1276.09780	         1.32404e+58
          1276.90410	         1.59756e+58
          1277.71040	         1.25275e+58
          1278.51670	         1.22364e+58
          1279.32300	         1.49895e+58
          1280.12930	         1.11860e+58
          1280.93560	         9.62562e+57
          1281.74190	         9.44034e+57
          1282.54820	         9.57034e+57
          1283.35450	         1.08177e+58
          1284.16080	         1.32833e+58
          1284.96710	         1.39000e+58
          1285.77340	         1.13204e+58
          1286.57970	         1.14092e+58
          1287.38600	         1.82120e+58
          1288.19230	         1.86740e+58
          1288.99860	         1.41747e+58
          1289.80490	         1.20881e+58
          1290.61120	         1.36599e+58
          1291.41750	         1.45667e+58
          1292.22380	         1.35595e+58
          1293.03010	         9.99927e+57
          1293.83640	         1.03064e+58
          1294.64270	         9.98531e+57
          1295.44900	         7.35456e+57
          1296.25530	         7.98866e+57
          1297.06160	         9.63842e+57
          1297.86790	         8.92653e+57
          1298.67420	         8.31907e+57
          1299.48050	         9.36690e+57
          1300.28680	         9.98010e+57
          1301.09310	         8.19286e+57
          1301.89940	         5.45102e+57
          1302.70570	         7.97206e+57
          1303.51200	         9.00937e+57
          1304.31830	         9.41557e+57
          1305.12460	         1.09867e+58
          1305.93090	         1.20992e+58
          1306.73720	         1.28769e+58
          1307.54350	         1.46056e+58
          1308.34980	         1.46687e+58
          1309.15610	         1.64545e+58
          1309.96240	         1.66464e+58
          1310.76870	         1.36637e+58
          1311.57500	         1.27158e+58
          1312.38130	         1.13324e+58
          1313.18760	         1.14418e+58
          1313.99390	         1.52723e+58
          1314.80020	         1.59997e+58
          1315.60650	         1.46591e+58
          1316.41280	         1.31409e+58
          1317.21910	         1.10534e+58
          1318.02540	         1.28958e+58
          1318.83170	         1.38216e+58
          1319.63800	         1.20381e+58
          1320.44430	         1.14192e+58
          1321.25060	         1.31053e+58
          1322.05690	         1.28661e+58
          1322.86320	         1.20947e+58
          1323.66950	         1.14999e+58
          1324.47580	         1.05434e+58
          1325.28210	         1.02948e+58
          1326.08840	         1.16798e+58
          1326.89470	         1.39010e+58
          1327.70100	         1.14098e+58
          1328.50730	         8.84655e+57
          1329.31360	         8.97287e+57
          1330.11990	         1.09559e+58
          1330.92620	         1.17037e+58
          1331.73250	         1.21088e+58
          1332.53880	         1.10542e+58
          1333.34510	         9.55421e+57
          1334.15140	         8.98986e+57
          1334.95770	         9.42560e+57
          1335.76400	         1.13657e+58
          1336.57030	         1.11852e+58
          1337.37660	         8.60495e+57
          1338.18290	         9.47334e+57
          1338.98920	         1.19730e+58
          1339.79550	         1.16775e+58
          1340.60180	         1.29193e+58
          1341.40810	         1.72586e+58
          1342.21440	         1.30744e+58
          1343.02070	         1.13342e+58
          1343.82700	         1.36183e+58
          1344.63330	         1.38112e+58
          1345.43960	         1.27012e+58
          1346.24590	         1.18119e+58
          1347.05220	         1.33201e+58
          1347.85850	         1.23247e+58
          1348.66480	         1.21428e+58
          1349.47110	         1.17019e+58
          1350.27740	         1.11319e+58
          1351.08370	         1.16773e+58
          1351.89000	         1.20024e+58
          1352.69630	         1.16212e+58
          1353.50260	         1.12468e+58
          1354.30890	         1.10391e+58
          1355.11520	         1.19719e+58
          1355.92150	         1.12528e+58
          1356.72780	         9.59496e+57
          1357.53410	         9.95259e+57
          1358.34040	         1.14333e+58
          1359.14670	         1.07016e+58
          1359.95300	         1.11847e+58
          1360.75930	         1.15640e+58
          1361.56560	         1.16176e+58
          1362.37190	         1.15544e+58
          1363.17820	         1.02080e+58
          1363.98450	         1.19727e+58
          1364.79080	         1.49021e+58
          1365.59710	         1.51632e+58
          1366.40340	         1.19522e+58
          1367.20970	         9.03021e+57
          1368.01600	         9.05048e+57
          1368.82230	         9.01761e+57
          1369.62860	         9.93450e+57
          1370.43490	         9.13725e+57
          1371.24120	         8.70002e+57
          1372.04750	         7.12275e+57
          1372.85380	         1.00421e+58
          1373.66010	         1.23821e+58
          1374.46640	         1.09004e+58
          1375.27270	         9.81292e+57
          1376.07900	         9.91688e+57
          1376.88530	         1.00477e+58
          1377.69160	         9.29686e+57
          1378.49790	         7.19687e+57
          1379.30420	         7.15348e+57
          1380.11050	         8.83041e+57
          1380.91680	         7.84787e+57
          1381.72310	         6.66383e+57
          1382.52940	         7.06394e+57
          1383.33570	         8.10134e+57
          1384.14200	         1.09843e+58
          1384.94830	         1.25136e+58
          1385.75460	         1.22757e+58
          1386.56090	         1.21404e+58
          1387.36720	         1.24670e+58
          1388.17350	         1.19182e+58
          1388.97980	         1.13923e+58
          1389.78610	         1.02878e+58
          1390.59240	         7.86418e+57
          1391.39870	         5.70171e+57
          1392.20500	         6.40389e+57
          1393.01130	         6.25935e+57
          1393.81760	         7.05947e+57
          1394.62390	         7.07164e+57
          1395.43020	         5.46472e+57
          1396.23650	         6.32527e+57
          1397.04280	         6.80477e+57
          1397.84910	         8.24133e+57
          1398.65540	         9.00983e+57
          1399.46170	         9.40462e+57
          1400.26800	         8.28075e+57
          1401.07430	         8.68214e+57
          1401.88060	         9.55061e+57
          1402.68690	         9.50766e+57
          1403.49320	         8.37411e+57
          1404.29950	         9.16677e+57
          1405.10580	         1.09289e+58
          1405.91210	         1.20984e+58
          1406.71840	         1.13368e+58
          1407.52470	         1.16731e+58
          1408.33100	         1.18686e+58
          1409.13730	         1.19518e+58
          1409.94360	         1.14308e+58
          1410.74990	         1.10680e+58
          1411.55620	         9.36170e+57
          1412.36250	         8.94863e+57
          1413.16880	         9.33939e+57
          1413.97510	         8.80192e+57
          1414.78140	         8.32207e+57
          1415.58770	         1.09431e+58
          1416.39400	         1.24424e+58
          1417.20030	         1.05589e+58
          1418.00660	         8.38656e+57
          1418.81290	         1.01446e+58
          1419.61920	         1.10224e+58
          1420.42550	         1.22209e+58
          1421.23180	         1.39534e+58
          1422.03810	         1.33817e+58
          1422.84440	         1.04451e+58
          1423.65070	         1.15678e+58
          1424.45700	         1.14835e+58
          1425.26330	         9.30948e+57
          1426.06960	         1.00190e+58
          1426.87590	         1.13098e+58
          1427.68220	         1.20293e+58
          1428.48850	         1.08577e+58
          1429.29480	         9.91779e+57
          1430.10110	         8.89810e+57
          1430.90740	         8.04476e+57
          1431.71370	         8.28553e+57
          1432.52000	         8.40676e+57
          1433.32630	         6.88888e+57
          1434.13260	         8.29948e+57
          1434.93890	         9.25634e+57
          1435.74520	         8.85522e+57
          1436.55150	         9.62616e+57
          1437.35780	         9.58529e+57
          1438.16410	         9.80807e+57
          1438.97040	         8.62204e+57
          1439.77670	         8.26140e+57
          1440.58300	         8.46814e+57
          1441.38930	         9.76610e+57
          1442.19560	         1.04583e+58
          1443.00190	         1.00348e+58
          1443.80820	         1.01407e+58
          1444.61450	         9.85947e+57
          1445.42080	         9.33483e+57
          1446.22710	         1.08572e+58
          1447.03340	         1.07739e+58
          1447.83970	         1.07276e+58
          1448.64600	         1.00178e+58
          1449.45230	         8.98482e+57
          1450.25860	         9.86882e+57
          1451.06490	         9.70682e+57
          1451.87120	         7.49389e+57
          1452.67750	         7.13298e+57
          1453.48380	         9.13725e+57
          1454.29010	         7.62507e+57
          1455.09640	         6.72212e+57
          1455.90270	         7.41446e+57
          1456.70900	         7.26748e+57
          1457.51530	         1.00396e+58
          1458.32160	         1.19943e+58
          1459.12790	         1.15221e+58
          1459.93420	         9.84387e+57
          1460.74050	         8.29214e+57
          1461.54680	         8.31069e+57
          1462.35310	         7.52183e+57
          1463.15940	         9.48758e+57
          1463.96570	         1.16682e+58
          1464.77200	         1.20872e+58
          1465.57830	         1.04516e+58
          1466.38460	         9.02706e+57
          1467.19090	         8.96015e+57
          1467.99720	         9.18662e+57
          1468.80350	         9.74519e+57
          1469.60980	         9.94337e+57
          1470.41610	         1.00261e+58
          1471.22240	         9.12659e+57
          1472.02870	         8.79023e+57
          1472.83500	         9.10787e+57
          1473.64130	         9.88332e+57
          1474.44760	         1.00436e+58
          1475.25390	         1.00521e+58
          1476.06020	         9.47020e+57
          1476.86650	         9.56295e+57
          1477.67280	         8.27950e+57
          1478.47910	         7.42541e+57
          1479.28540	         8.39493e+57
          1480.09170	         9.52198e+57
          1480.89800	         8.85462e+57
          1481.70430	         9.24026e+57
          1482.51060	         8.14710e+57
          1483.31690	         7.34745e+57
          1484.12320	         7.55992e+57
          1484.92950	         7.79796e+57
          1485.73580	         8.40219e+57
          1486.54210	         8.87978e+57
          1487.34840	         8.63571e+57
          1488.15470	         8.55135e+57
          1488.96100	         8.56267e+57
          1489.76730	         9.53111e+57
