#sample_497_stacked_spectrum_rest_UV-bands_median_H-alpha_noDC.txt
#median Lum: 1.68497e+42
#Rest-frame wavelength (A) | Luminosity (erg/s/A)
#
          1110.00000	         0.00000e+00
          1110.80630	        -4.12752e+59
          1111.61260	        -9.36297e+58
          1112.41890	         3.05363e+58
          1113.22520	         2.19971e+58
          1114.03150	        -2.45398e+59
          1114.83780	        -2.71762e+58
          1115.64410	         1.15231e+59
          1116.45040	         3.41873e+58
          1117.25670	        -1.77902e+59
          1118.06300	         1.46825e+59
          1118.86930	        -9.69312e+58
          1119.67560	         4.95459e+58
          1120.48190	         1.06168e+58
          1121.28820	        -1.38198e+59
          1122.09450	        -3.29662e+58
          1122.90080	        -3.69839e+56
          1123.70710	         4.31051e+57
          1124.51340	         4.11845e+57
          1125.31970	        -1.91285e+58
          1126.12600	        -8.76376e+57
          1126.93230	         1.73812e+58
          1127.73860	        -5.81882e+58
          1128.54490	        -4.02672e+58
          1129.35120	        -1.83386e+58
          1130.15750	         1.27509e+58
          1130.96380	        -2.66632e+58
          1131.77010	         3.22244e+58
          1132.57640	         4.56343e+58
          1133.38270	         2.12391e+58
          1134.18900	         7.13583e+57
          1134.99530	         3.44916e+58
          1135.80160	        -9.55632e+56
          1136.60790	         1.39308e+58
          1137.41420	         1.67420e+57
          1138.22050	         2.38931e+58
          1139.02680	         3.20897e+58
          1139.83310	         3.72517e+58
          1140.63940	         2.15665e+58
          1141.44570	        -3.15411e+58
          1142.25200	        -8.35591e+57
          1143.05830	         3.76546e+57
          1143.86460	         1.80810e+58
          1144.67090	         3.41913e+58
          1145.47720	         9.81468e+57
          1146.28350	         9.25153e+57
          1147.08980	         1.29117e+58
          1147.89610	         1.65863e+58
          1148.70240	         3.09547e+58
          1149.50870	         2.36218e+58
          1150.31500	         2.06284e+58
          1151.12130	         4.71542e+57
          1151.92760	         5.75460e+57
          1152.73390	         7.34486e+57
          1153.54020	         1.53246e+58
          1154.34650	         2.41629e+58
          1155.15280	         2.24499e+58
          1155.95910	         1.11742e+58
          1156.76540	         4.54538e+57
          1157.57170	        -2.61061e+57
          1158.37800	        -6.18314e+57
          1159.18430	        -7.34957e+56
          1159.99060	         1.05288e+58
          1160.79690	         4.71368e+57
          1161.60320	         1.17830e+58
          1162.40950	         1.44608e+58
          1163.21580	         2.03189e+58
          1164.02210	         2.46614e+58
          1164.82840	         1.35370e+58
          1165.63470	         1.54444e+58
          1166.44100	         3.27355e+58
          1167.24730	         2.31191e+58
          1168.05360	         9.87773e+57
          1168.85990	         9.26370e+57
          1169.66620	         7.16432e+57
          1170.47250	         5.88306e+57
          1171.27880	         9.65802e+57
          1172.08510	         1.38955e+58
          1172.89140	         8.86526e+57
          1173.69770	         1.32273e+58
          1174.50400	         1.59145e+58
          1175.31030	         1.52329e+58
          1176.11660	         2.03541e+58
          1176.92290	         1.83639e+58
          1177.72920	         1.39793e+58
          1178.53550	         7.49742e+57
          1179.34180	         6.00220e+57
          1180.14810	         7.42223e+57
          1180.95440	         9.99641e+57
          1181.76070	         7.90183e+57
          1182.56700	         6.64483e+57
          1183.37330	         3.87891e+57
          1184.17960	         1.06071e+58
          1184.98590	         9.02226e+57
          1185.79220	         1.77213e+57
          1186.59850	         3.26514e+57
          1187.40480	         9.46616e+57
          1188.21110	         1.56118e+58
          1189.01740	         7.10903e+57
          1189.82370	         1.18259e+58
          1190.63000	         8.79364e+57
          1191.43630	         1.15921e+58
          1192.24260	         1.01104e+58
          1193.04890	         1.41095e+58
          1193.85520	         1.33100e+58
          1194.66150	         4.22313e+57
          1195.46780	         1.03869e+58
          1196.27410	         1.55419e+58
          1197.08040	         1.18448e+58
          1197.88670	         1.26615e+58
          1198.69300	         1.34465e+58
          1199.49930	         1.17195e+58
          1200.30560	         1.01961e+58
          1201.11190	         9.98459e+57
          1201.91820	         8.36498e+57
          1202.72450	         9.66846e+57
          1203.53080	         1.57968e+58
          1204.33710	         8.46866e+57
          1205.14340	         8.68660e+57
          1205.94970	         1.07754e+58
          1206.75600	         5.86239e+57
          1207.56230	         8.73143e+57
          1208.36860	         1.29402e+58
          1209.17490	         5.12073e+57
          1209.98120	         3.88793e+57
          1210.78750	         8.78725e+57
          1211.59380	         1.18097e+58
          1212.40010	         1.79306e+58
          1213.20640	         2.10977e+58
          1214.01270	         2.21685e+58
          1214.81900	         2.84128e+58
          1215.62530	         4.57216e+58
          1216.43160	         9.01110e+58
          1217.23790	         1.51000e+59
          1218.04420	         1.16686e+59
          1218.85050	         9.12741e+58
          1219.65680	         5.69197e+58
          1220.46310	         3.03575e+58
          1221.26940	         2.23207e+58
          1222.07570	         1.17167e+58
          1222.88200	         9.38663e+57
          1223.68830	         9.40170e+57
          1224.49460	         9.05705e+57
          1225.30090	         7.64120e+57
          1226.10720	         8.70046e+57
          1226.91350	         8.35838e+57
          1227.71980	         9.36594e+57
          1228.52610	         1.23084e+58
          1229.33240	         5.81296e+57
          1230.13870	         6.40751e+57
          1230.94500	         7.53276e+57
          1231.75130	         8.74314e+57
          1232.55760	         9.85848e+57
          1233.36390	         9.66975e+57
          1234.17020	         9.75660e+57
          1234.97650	         9.17385e+57
          1235.78280	         8.40408e+57
          1236.58910	         9.41578e+57
          1237.39540	         8.85845e+57
          1238.20170	         8.59322e+57
          1239.00800	         1.30281e+58
          1239.81430	         1.45639e+58
          1240.62060	         1.04389e+58
          1241.42690	         1.11062e+58
          1242.23320	         1.15997e+58
          1243.03950	         8.16338e+57
          1243.84580	         8.27143e+57
          1244.65210	         1.13190e+58
          1245.45840	         1.15440e+58
          1246.26470	         1.02304e+58
          1247.07100	         7.97696e+57
          1247.87730	         5.07492e+57
          1248.68360	         7.86543e+56
          1249.48990	         3.82615e+57
          1250.29620	         9.05518e+57
          1251.10250	         6.58280e+57
          1251.90880	         4.96965e+57
          1252.71510	         5.84818e+57
          1253.52140	         7.41675e+57
          1254.32770	         9.96289e+57
          1255.13400	         1.35303e+58
          1255.94030	         9.80322e+57
          1256.74660	         7.61544e+57
          1257.55290	         9.95911e+57
          1258.35920	         8.42458e+57
          1259.16550	         5.74321e+57
          1259.97180	         6.26150e+57
          1260.77810	         9.86152e+57
          1261.58440	         1.21689e+58
          1262.39070	         8.34739e+57
          1263.19700	         8.55428e+57
          1264.00330	         1.02064e+58
          1264.80960	         1.12590e+58
          1265.61590	         1.32657e+58
          1266.42220	         1.23955e+58
          1267.22850	         1.14397e+58
          1268.03480	         1.42178e+58
          1268.84110	         1.44096e+58
          1269.64740	         1.38045e+58
          1270.45370	         1.48085e+58
          1271.26000	         1.38370e+58
          1272.06630	         1.35375e+58
          1272.87260	         1.49811e+58
          1273.67890	         1.54744e+58
          1274.48520	         1.39503e+58
          1275.29150	         1.19633e+58
          1276.09780	         1.10504e+58
          1276.90410	         1.51867e+58
          1277.71040	         1.26892e+58
          1278.51670	         1.10206e+58
          1279.32300	         1.26927e+58
          1280.12930	         1.18688e+58
          1280.93560	         1.08349e+58
          1281.74190	         1.03004e+58
          1282.54820	         1.23218e+58
          1283.35450	         1.00122e+58
          1284.16080	         8.56449e+57
          1284.96710	         1.40999e+58
          1285.77340	         1.37542e+58
          1286.57970	         1.02006e+58
          1287.38600	         1.44348e+58
          1288.19230	         1.74847e+58
          1288.99860	         1.56879e+58
          1289.80490	         1.27685e+58
          1290.61120	         1.31732e+58
          1291.41750	         1.43122e+58
          1292.22380	         1.37471e+58
          1293.03010	         1.08148e+58
          1293.83640	         1.07437e+58
          1294.64270	         9.57931e+57
          1295.44900	         5.66124e+57
          1296.25530	         7.95347e+57
          1297.06160	         8.59332e+57
          1297.86790	         6.66548e+57
          1298.67420	         7.92198e+57
          1299.48050	         9.88991e+57
          1300.28680	         9.48047e+57
          1301.09310	         6.69254e+57
          1301.89940	         5.13725e+57
          1302.70570	         7.29491e+57
          1303.51200	         7.97907e+57
          1304.31830	         1.08621e+58
          1305.12460	         1.07862e+58
          1305.93090	         1.07109e+58
          1306.73720	         1.14591e+58
          1307.54350	         1.37353e+58
          1308.34980	         1.48994e+58
          1309.15610	         1.45712e+58
          1309.96240	         1.54589e+58
          1310.76870	         1.46397e+58
          1311.57500	         1.21863e+58
          1312.38130	         1.25209e+58
          1313.18760	         1.54107e+58
          1313.99390	         1.56670e+58
          1314.80020	         1.61491e+58
          1315.60650	         1.58274e+58
          1316.41280	         1.51503e+58
          1317.21910	         1.22550e+58
          1318.02540	         1.14550e+58
          1318.83170	         1.16513e+58
          1319.63800	         1.24354e+58
          1320.44430	         1.36577e+58
          1321.25060	         1.29419e+58
          1322.05690	         1.21248e+58
          1322.86320	         1.20019e+58
          1323.66950	         1.13341e+58
          1324.47580	         9.46292e+57
          1325.28210	         9.51891e+57
          1326.08840	         1.19307e+58
          1326.89470	         1.33941e+58
          1327.70100	         9.59290e+57
          1328.50730	         7.96502e+57
          1329.31360	         9.93915e+57
          1330.11990	         9.46455e+57
          1330.92620	         8.20159e+57
          1331.73250	         1.07724e+58
          1332.53880	         1.01366e+58
          1333.34510	         8.64867e+57
          1334.15140	         8.92801e+57
          1334.95770	         1.02160e+58
          1335.76400	         1.18843e+58
          1336.57030	         1.13845e+58
          1337.37660	         1.11821e+58
          1338.18290	         1.09165e+58
          1338.98920	         1.13105e+58
          1339.79550	         1.04030e+58
          1340.60180	         1.15268e+58
          1341.40810	         1.29688e+58
          1342.21440	         1.30876e+58
          1343.02070	         1.23783e+58
          1343.82700	         1.31641e+58
          1344.63330	         1.28809e+58
          1345.43960	         1.19893e+58
          1346.24590	         1.13720e+58
          1347.05220	         1.12149e+58
          1347.85850	         9.94059e+57
          1348.66480	         1.27852e+58
          1349.47110	         1.30129e+58
          1350.27740	         1.12715e+58
          1351.08370	         1.21918e+58
          1351.89000	         1.24293e+58
          1352.69630	         1.09198e+58
          1353.50260	         1.13179e+58
          1354.30890	         1.25777e+58
          1355.11520	         1.32188e+58
          1355.92150	         1.29831e+58
          1356.72780	         1.04863e+58
          1357.53410	         1.08569e+58
          1358.34040	         1.16468e+58
          1359.14670	         1.00819e+58
          1359.95300	         1.03615e+58
          1360.75930	         1.02218e+58
          1361.56560	         1.07720e+58
          1362.37190	         1.18215e+58
          1363.17820	         1.16208e+58
          1363.98450	         1.14035e+58
          1364.79080	         1.19012e+58
          1365.59710	         1.20243e+58
          1366.40340	         1.16101e+58
          1367.20970	         1.01072e+58
          1368.01600	         7.78255e+57
          1368.82230	         8.27207e+57
          1369.62860	         1.02780e+58
          1370.43490	         1.01921e+58
          1371.24120	         1.03178e+58
          1372.04750	         8.83904e+57
          1372.85380	         1.23547e+58
          1373.66010	         1.30246e+58
          1374.46640	         1.12191e+58
          1375.27270	         1.00407e+58
          1376.07900	         7.58904e+57
          1376.88530	         9.16910e+57
          1377.69160	         8.94017e+57
          1378.49790	         6.26751e+57
          1379.30420	         6.84365e+57
          1380.11050	         8.71026e+57
          1380.91680	         8.38953e+57
          1381.72310	         8.36810e+57
          1382.52940	         7.90729e+57
          1383.33570	         9.17555e+57
          1384.14200	         1.07559e+58
          1384.94830	         1.07980e+58
          1385.75460	         1.04037e+58
          1386.56090	         1.09804e+58
          1387.36720	         1.00647e+58
          1388.17350	         1.12024e+58
          1388.97980	         1.22405e+58
          1389.78610	         1.08930e+58
          1390.59240	         7.57287e+57
          1391.39870	         6.66426e+57
          1392.20500	         7.80127e+57
          1393.01130	         6.68229e+57
          1393.81760	         5.49642e+57
          1394.62390	         6.43503e+57
          1395.43020	         5.26725e+57
          1396.23650	         6.11943e+57
          1397.04280	         6.87137e+57
          1397.84910	         7.68055e+57
          1398.65540	         7.92352e+57
          1399.46170	         8.61110e+57
          1400.26800	         7.79693e+57
          1401.07430	         7.03535e+57
          1401.88060	         6.93210e+57
          1402.68690	         9.02748e+57
          1403.49320	         1.01561e+58
          1404.29950	         8.85076e+57
          1405.10580	         1.05859e+58
          1405.91210	         1.19749e+58
          1406.71840	         1.12570e+58
          1407.52470	         9.99167e+57
          1408.33100	         9.97526e+57
          1409.13730	         1.13491e+58
          1409.94360	         1.19761e+58
          1410.74990	         1.03045e+58
          1411.55620	         8.55891e+57
          1412.36250	         8.31148e+57
          1413.16880	         7.90641e+57
          1413.97510	         8.02454e+57
          1414.78140	         8.02360e+57
          1415.58770	         1.09489e+58
          1416.39400	         1.29012e+58
          1417.20030	         1.12217e+58
          1418.00660	         9.01242e+57
          1418.81290	         1.03375e+58
          1419.61920	         8.63839e+57
          1420.42550	         1.15442e+58
          1421.23180	         1.35937e+58
          1422.03810	         1.19246e+58
          1422.84440	         1.03425e+58
          1423.65070	         1.16836e+58
          1424.45700	         1.02134e+58
          1425.26330	         7.91385e+57
          1426.06960	         9.86667e+57
          1426.87590	         1.03112e+58
          1427.68220	         9.41512e+57
          1428.48850	         9.47705e+57
          1429.29480	         1.01125e+58
          1430.10110	         1.01202e+58
          1430.90740	         8.42273e+57
          1431.71370	         8.09722e+57
          1432.52000	         8.53774e+57
          1433.32630	         7.62125e+57
          1434.13260	         7.08812e+57
          1434.93890	         7.07733e+57
          1435.74520	         8.12441e+57
          1436.55150	         9.97750e+57
          1437.35780	         9.53653e+57
          1438.16410	         9.52430e+57
          1438.97040	         9.12549e+57
          1439.77670	         8.71219e+57
          1440.58300	         8.69331e+57
          1441.38930	         8.56721e+57
          1442.19560	         9.69340e+57
          1443.00190	         9.47931e+57
          1443.80820	         1.06123e+58
          1444.61450	         9.00414e+57
          1445.42080	         7.59495e+57
          1446.22710	         1.03354e+58
          1447.03340	         1.08761e+58
          1447.83970	         1.13414e+58
          1448.64600	         1.10671e+58
          1449.45230	         9.08157e+57
          1450.25860	         9.67988e+57
          1451.06490	         8.46772e+57
          1451.87120	         7.41015e+57
          1452.67750	         7.70794e+57
          1453.48380	         8.25357e+57
          1454.29010	         7.46021e+57
          1455.09640	         7.40918e+57
          1455.90270	         8.77937e+57
          1456.70900	         8.55971e+57
          1457.51530	         9.99383e+57
          1458.32160	         1.26154e+58
          1459.12790	         1.12560e+58
          1459.93420	         9.67275e+57
          1460.74050	         8.10130e+57
          1461.54680	         7.90922e+57
          1462.35310	         8.18982e+57
          1463.15940	         9.82925e+57
          1463.96570	         1.07244e+58
          1464.77200	         1.11340e+58
          1465.57830	         1.04756e+58
          1466.38460	         8.61421e+57
          1467.19090	         8.69313e+57
          1467.99720	         8.60690e+57
          1468.80350	         8.58621e+57
          1469.60980	         9.74864e+57
          1470.41610	         1.08481e+58
          1471.22240	         9.97645e+57
          1472.02870	         9.70423e+57
          1472.83500	         9.55510e+57
          1473.64130	         8.89525e+57
          1474.44760	         9.80664e+57
          1475.25390	         9.39070e+57
          1476.06020	         8.69601e+57
          1476.86650	         8.05041e+57
          1477.67280	         8.44132e+57
          1478.47910	         8.05035e+57
          1479.28540	         6.99342e+57
          1480.09170	         8.36882e+57
          1480.89800	         7.81830e+57
          1481.70430	         7.97459e+57
          1482.51060	         7.74572e+57
          1483.31690	         7.65944e+57
          1484.12320	         7.02776e+57
          1484.92950	         7.35179e+57
          1485.73580	         8.33347e+57
          1486.54210	         8.73355e+57
          1487.34840	         8.36189e+57
          1488.15470	         7.89141e+57
          1488.96100	         8.76711e+57
          1489.76730	         8.89796e+57
