#sample_132_stacked_spectrum_rest_UV-bands_median_H-alpha_noDC.txt
#median Lum: 1.66737e+42
#Rest-frame wavelength (A) | Luminosity (erg/s/A)
#
          1110.00000	         0.00000e+00
          1110.80630	        -4.54760e+59
          1111.61260	         1.85920e+59
          1112.41890	         5.05108e+59
          1113.22520	        -1.43545e+59
          1114.03150	        -2.62680e+59
          1114.83780	        -3.95306e+58
          1115.64410	        -5.91197e+58
          1116.45040	         1.39316e+59
          1117.25670	        -8.07289e+58
          1118.06300	         1.23750e+59
          1118.86930	         1.05727e+59
          1119.67560	         1.51313e+59
          1120.48190	        -2.57259e+58
          1121.28820	        -1.38976e+59
          1122.09450	        -1.77140e+57
          1122.90080	         7.85165e+58
          1123.70710	         1.13323e+59
          1124.51340	         1.49208e+59
          1125.31970	         1.37114e+58
          1126.12600	         8.14949e+57
          1126.93230	        -1.75608e+58
          1127.73860	        -1.42899e+58
          1128.54490	        -4.43099e+58
          1129.35120	        -1.26137e+58
          1130.15750	         1.78623e+58
          1130.96380	        -3.24579e+58
          1131.77010	         7.38251e+57
          1132.57640	         1.82760e+58
          1133.38270	         2.69919e+57
          1134.18900	         2.88387e+58
          1134.99530	         3.17671e+58
          1135.80160	         2.76051e+58
          1136.60790	         1.35183e+58
          1137.41420	        -2.58873e+57
          1138.22050	         5.42715e+58
          1139.02680	         4.03956e+58
          1139.83310	         1.34567e+58
          1140.63940	         1.95213e+58
          1141.44570	        -1.06138e+58
          1142.25200	        -6.49590e+57
          1143.05830	         1.25715e+58
          1143.86460	         3.20181e+58
          1144.67090	         3.73130e+58
          1145.47720	         2.33914e+58
          1146.28350	         2.78363e+57
          1147.08980	         2.13426e+58
          1147.89610	         2.15734e+58
          1148.70240	         2.17507e+58
          1149.50870	         2.87467e+58
          1150.31500	         1.54598e+58
          1151.12130	         5.02242e+57
          1151.92760	        -1.07390e+58
          1152.73390	        -2.05991e+57
          1153.54020	         1.60518e+58
          1154.34650	         1.69717e+58
          1155.15280	         1.65347e+58
          1155.95910	         1.49681e+58
          1156.76540	         1.99297e+58
          1157.57170	        -7.39402e+56
          1158.37800	         4.25080e+57
          1159.18430	         8.54154e+57
          1159.99060	         2.61324e+57
          1160.79690	        -4.67079e+57
          1161.60320	         5.91693e+57
          1162.40950	         1.05029e+58
          1163.21580	         1.39035e+58
          1164.02210	         1.20112e+58
          1164.82840	         4.42088e+57
          1165.63470	         2.18281e+58
          1166.44100	         2.92214e+58
          1167.24730	         2.17367e+58
          1168.05360	         2.54264e+57
          1168.85990	         3.93647e+57
          1169.66620	         1.47867e+58
          1170.47250	         1.97095e+58
          1171.27880	         9.48631e+57
          1172.08510	         1.34942e+58
          1172.89140	         1.40847e+58
          1173.69770	         7.69133e+57
          1174.50400	         1.29455e+58
          1175.31030	         8.55377e+57
          1176.11660	         9.40410e+57
          1176.92290	         1.78468e+58
          1177.72920	         1.50914e+58
          1178.53550	         6.91495e+57
          1179.34180	         2.22017e+57
          1180.14810	         9.26299e+57
          1180.95440	         7.60023e+57
          1181.76070	         5.62161e+57
          1182.56700	         9.05112e+57
          1183.37330	         5.16547e+57
          1184.17960	         9.03500e+57
          1184.98590	         8.32962e+57
          1185.79220	         2.96568e+57
          1186.59850	         8.79292e+57
          1187.40480	         1.88200e+58
          1188.21110	         1.58515e+58
          1189.01740	         7.09677e+57
          1189.82370	         5.13167e+57
          1190.63000	         1.28698e+58
          1191.43630	         1.08278e+58
          1192.24260	         8.18298e+57
          1193.04890	         1.22260e+58
          1193.85520	         6.80680e+57
          1194.66150	         4.75513e+57
          1195.46780	         1.01940e+58
          1196.27410	         1.16284e+58
          1197.08040	         9.09505e+57
          1197.88670	         1.72134e+58
          1198.69300	         1.57197e+58
          1199.49930	         1.50720e+58
          1200.30560	         9.42991e+57
          1201.11190	         9.50501e+57
          1201.91820	         9.33341e+57
          1202.72450	         3.87471e+57
          1203.53080	         1.49021e+58
          1204.33710	         1.14466e+58
          1205.14340	         4.24001e+57
          1205.94970	         6.38625e+57
          1206.75600	         3.67667e+57
          1207.56230	         2.67864e+57
          1208.36860	         6.93790e+57
          1209.17490	         4.30819e+57
          1209.98120	         6.46301e+57
          1210.78750	         7.40984e+57
          1211.59380	         9.17310e+57
          1212.40010	         1.75262e+58
          1213.20640	         1.95942e+58
          1214.01270	         1.78365e+58
          1214.81900	         2.25061e+58
          1215.62530	         4.13519e+58
          1216.43160	         8.69237e+58
          1217.23790	         1.47404e+59
          1218.04420	         1.07107e+59
          1218.85050	         8.00103e+58
          1219.65680	         5.77946e+58
          1220.46310	         3.48236e+58
          1221.26940	         2.33009e+58
          1222.07570	         1.52015e+58
          1222.88200	         1.22633e+58
          1223.68830	         1.34070e+58
          1224.49460	         8.97953e+57
          1225.30090	         6.17168e+57
          1226.10720	         7.55292e+57
          1226.91350	         8.75063e+57
          1227.71980	         9.65905e+57
          1228.52610	         9.51933e+57
          1229.33240	         9.80718e+57
          1230.13870	         7.82202e+57
          1230.94500	         7.75209e+57
          1231.75130	         6.03659e+57
          1232.55760	         8.08984e+57
          1233.36390	         7.87566e+57
          1234.17020	         9.72005e+57
          1234.97650	         9.94278e+57
          1235.78280	         8.88275e+57
          1236.58910	         9.18247e+57
          1237.39540	         1.20171e+58
          1238.20170	         1.07832e+58
          1239.00800	         1.13421e+58
          1239.81430	         1.26820e+58
          1240.62060	         1.00919e+58
          1241.42690	         1.02751e+58
          1242.23320	         9.78053e+57
          1243.03950	         6.36597e+57
          1243.84580	         6.62148e+57
          1244.65210	         9.14201e+57
          1245.45840	         1.04415e+58
          1246.26470	         8.59244e+57
          1247.07100	         6.69789e+57
          1247.87730	         5.51163e+57
          1248.68360	         3.36754e+57
          1249.48990	         8.41112e+57
          1250.29620	         1.23033e+58
          1251.10250	         6.93399e+57
          1251.90880	         6.94264e+57
          1252.71510	         6.32026e+57
          1253.52140	         4.61534e+57
          1254.32770	         8.97220e+57
          1255.13400	         1.25953e+58
          1255.94030	         1.00823e+58
          1256.74660	         1.08716e+58
          1257.55290	         1.02389e+58
          1258.35920	         6.46337e+57
          1259.16550	         4.82644e+57
          1259.97180	         5.09089e+57
          1260.77810	         7.55648e+57
          1261.58440	         1.08449e+58
          1262.39070	         1.02798e+58
          1263.19700	         9.68516e+57
          1264.00330	         9.46653e+57
          1264.80960	         1.01223e+58
          1265.61590	         1.24111e+58
          1266.42220	         1.20038e+58
          1267.22850	         1.16206e+58
          1268.03480	         1.58911e+58
          1268.84110	         1.55328e+58
          1269.64740	         1.18695e+58
          1270.45370	         1.26695e+58
          1271.26000	         1.12568e+58
          1272.06630	         1.17539e+58
          1272.87260	         1.09718e+58
          1273.67890	         1.06835e+58
          1274.48520	         1.09993e+58
          1275.29150	         1.08717e+58
          1276.09780	         1.19090e+58
          1276.90410	         1.46663e+58
          1277.71040	         1.18024e+58
          1278.51670	         1.11349e+58
          1279.32300	         1.35467e+58
          1280.12930	         1.16358e+58
          1280.93560	         1.19589e+58
          1281.74190	         1.10303e+58
          1282.54820	         1.17184e+58
          1283.35450	         1.28294e+58
          1284.16080	         1.12167e+58
          1284.96710	         1.16223e+58
          1285.77340	         1.07215e+58
          1286.57970	         1.14307e+58
          1287.38600	         1.51114e+58
          1288.19230	         1.73913e+58
          1288.99860	         1.51656e+58
          1289.80490	         1.16314e+58
          1290.61120	         1.44938e+58
          1291.41750	         1.38460e+58
          1292.22380	         1.06992e+58
          1293.03010	         9.60858e+57
          1293.83640	         1.13015e+58
          1294.64270	         1.07487e+58
          1295.44900	         6.88783e+57
          1296.25530	         8.09877e+57
          1297.06160	         1.08727e+58
          1297.86790	         1.05771e+58
          1298.67420	         1.08592e+58
          1299.48050	         1.14453e+58
          1300.28680	         9.26163e+57
          1301.09310	         6.87746e+57
          1301.89940	         3.68658e+57
          1302.70570	         5.58731e+57
          1303.51200	         8.40934e+57
          1304.31830	         9.41272e+57
          1305.12460	         9.47185e+57
          1305.93090	         1.16220e+58
          1306.73720	         1.34152e+58
          1307.54350	         1.32106e+58
          1308.34980	         1.45327e+58
          1309.15610	         1.50336e+58
          1309.96240	         1.27990e+58
          1310.76870	         1.10914e+58
          1311.57500	         9.80275e+57
          1312.38130	         1.07808e+58
          1313.18760	         1.31319e+58
          1313.99390	         1.48396e+58
          1314.80020	         1.52710e+58
          1315.60650	         1.52750e+58
          1316.41280	         1.27866e+58
          1317.21910	         9.75836e+57
          1318.02540	         1.21670e+58
          1318.83170	         1.35823e+58
          1319.63800	         1.08833e+58
          1320.44430	         1.02033e+58
          1321.25060	         1.30279e+58
          1322.05690	         1.35566e+58
          1322.86320	         1.22267e+58
          1323.66950	         1.07518e+58
          1324.47580	         9.44345e+57
          1325.28210	         9.35944e+57
          1326.08840	         1.08150e+58
          1326.89470	         1.20111e+58
          1327.70100	         1.00841e+58
          1328.50730	         9.51310e+57
          1329.31360	         1.04432e+58
          1330.11990	         9.65728e+57
          1330.92620	         9.88943e+57
          1331.73250	         1.11623e+58
          1332.53880	         1.09974e+58
          1333.34510	         9.16617e+57
          1334.15140	         8.21009e+57
          1334.95770	         8.40062e+57
          1335.76400	         9.99899e+57
          1336.57030	         9.85043e+57
          1337.37660	         9.56965e+57
          1338.18290	         1.05356e+58
          1338.98920	         1.17285e+58
          1339.79550	         1.26308e+58
          1340.60180	         1.12480e+58
          1341.40810	         1.20126e+58
          1342.21440	         1.28108e+58
          1343.02070	         1.15555e+58
          1343.82700	         1.17994e+58
          1344.63330	         1.13820e+58
          1345.43960	         1.32424e+58
          1346.24590	         1.24774e+58
          1347.05220	         1.18444e+58
          1347.85850	         1.09024e+58
          1348.66480	         1.17999e+58
          1349.47110	         1.26793e+58
          1350.27740	         1.11566e+58
          1351.08370	         1.05863e+58
          1351.89000	         1.15129e+58
          1352.69630	         1.19852e+58
          1353.50260	         1.16055e+58
          1354.30890	         1.16102e+58
          1355.11520	         1.16019e+58
          1355.92150	         1.08241e+58
          1356.72780	         9.76810e+57
          1357.53410	         9.02567e+57
          1358.34040	         9.42332e+57
          1359.14670	         9.84391e+57
          1359.95300	         1.09727e+58
          1360.75930	         1.22067e+58
          1361.56560	         1.12220e+58
          1362.37190	         1.07352e+58
          1363.17820	         9.91839e+57
          1363.98450	         1.01577e+58
          1364.79080	         1.14726e+58
          1365.59710	         1.20629e+58
          1366.40340	         1.19665e+58
          1367.20970	         1.11989e+58
          1368.01600	         1.02004e+58
          1368.82230	         1.04157e+58
          1369.62860	         1.08343e+58
          1370.43490	         9.51589e+57
          1371.24120	         8.42768e+57
          1372.04750	         8.27946e+57
          1372.85380	         1.01049e+58
          1373.66010	         9.84991e+57
          1374.46640	         1.00452e+58
          1375.27270	         1.04490e+58
          1376.07900	         9.18731e+57
          1376.88530	         8.31539e+57
          1377.69160	         8.93007e+57
          1378.49790	         7.16065e+57
          1379.30420	         6.29180e+57
          1380.11050	         6.92793e+57
          1380.91680	         6.78890e+57
          1381.72310	         8.16644e+57
          1382.52940	         8.41966e+57
          1383.33570	         9.57910e+57
          1384.14200	         1.26383e+58
          1384.94830	         1.23667e+58
          1385.75460	         1.12476e+58
          1386.56090	         1.20296e+58
          1387.36720	         1.20845e+58
          1388.17350	         1.20343e+58
          1388.97980	         1.03308e+58
          1389.78610	         9.37507e+57
          1390.59240	         8.15298e+57
          1391.39870	         6.73777e+57
          1392.20500	         8.35137e+57
          1393.01130	         7.15902e+57
          1393.81760	         7.19293e+57
          1394.62390	         7.32635e+57
          1395.43020	         6.52303e+57
          1396.23650	         7.25570e+57
          1397.04280	         7.41126e+57
          1397.84910	         8.40861e+57
          1398.65540	         9.31897e+57
          1399.46170	         9.74963e+57
          1400.26800	         8.74186e+57
          1401.07430	         7.16496e+57
          1401.88060	         8.13899e+57
          1402.68690	         9.19721e+57
          1403.49320	         9.67855e+57
          1404.29950	         8.76572e+57
          1405.10580	         1.02956e+58
          1405.91210	         1.21407e+58
          1406.71840	         1.20367e+58
          1407.52470	         1.08823e+58
          1408.33100	         9.65319e+57
          1409.13730	         1.23540e+58
          1409.94360	         1.27753e+58
          1410.74990	         1.10078e+58
          1411.55620	         9.87325e+57
          1412.36250	         8.56863e+57
          1413.16880	         7.59448e+57
          1413.97510	         7.06564e+57
          1414.78140	         7.75143e+57
          1415.58770	         9.90593e+57
          1416.39400	         1.03390e+58
          1417.20030	         1.18274e+58
          1418.00660	         1.05519e+58
          1418.81290	         1.06481e+58
          1419.61920	         1.02932e+58
          1420.42550	         1.07883e+58
          1421.23180	         1.30422e+58
          1422.03810	         1.32368e+58
          1422.84440	         1.22098e+58
          1423.65070	         1.25431e+58
          1424.45700	         1.13265e+58
          1425.26330	         9.12373e+57
          1426.06960	         8.99862e+57
          1426.87590	         1.11803e+58
          1427.68220	         1.00219e+58
          1428.48850	         9.39745e+57
          1429.29480	         9.79412e+57
          1430.10110	         9.49230e+57
          1430.90740	         8.82478e+57
          1431.71370	         8.17066e+57
          1432.52000	         9.06750e+57
          1433.32630	         8.40295e+57
          1434.13260	         8.31052e+57
          1434.93890	         8.35617e+57
          1435.74520	         8.95855e+57
          1436.55150	         8.54247e+57
          1437.35780	         7.94115e+57
          1438.16410	         8.98195e+57
          1438.97040	         8.32498e+57
          1439.77670	         7.25641e+57
          1440.58300	         8.65026e+57
          1441.38930	         9.79913e+57
          1442.19560	         9.92619e+57
          1443.00190	         9.86329e+57
          1443.80820	         1.03628e+58
          1444.61450	         9.77736e+57
          1445.42080	         8.64774e+57
          1446.22710	         9.82324e+57
          1447.03340	         8.77527e+57
          1447.83970	         1.05229e+58
          1448.64600	         1.07042e+58
          1449.45230	         9.17394e+57
          1450.25860	         1.00502e+58
          1451.06490	         9.39280e+57
          1451.87120	         8.38920e+57
          1452.67750	         8.47918e+57
          1453.48380	         9.33825e+57
          1454.29010	         8.78321e+57
          1455.09640	         8.61425e+57
          1455.90270	         9.31460e+57
          1456.70900	         9.19492e+57
          1457.51530	         9.70395e+57
          1458.32160	         1.10612e+58
          1459.12790	         1.06363e+58
          1459.93420	         8.67975e+57
          1460.74050	         7.19393e+57
          1461.54680	         7.96811e+57
          1462.35310	         8.88439e+57
          1463.15940	         9.19295e+57
          1463.96570	         1.15410e+58
          1464.77200	         1.28632e+58
          1465.57830	         1.01882e+58
          1466.38460	         8.65273e+57
          1467.19090	         8.34846e+57
          1467.99720	         8.83913e+57
          1468.80350	         9.59544e+57
          1469.60980	         9.47889e+57
          1470.41610	         1.00814e+58
          1471.22240	         1.01903e+58
          1472.02870	         1.05643e+58
          1472.83500	         9.68411e+57
          1473.64130	         9.07966e+57
          1474.44760	         9.95303e+57
          1475.25390	         1.04521e+58
          1476.06020	         8.56699e+57
          1476.86650	         6.51093e+57
          1477.67280	         6.38173e+57
          1478.47910	         6.78105e+57
          1479.28540	         7.23197e+57
          1480.09170	         8.16333e+57
          1480.89800	         8.49232e+57
          1481.70430	         7.96329e+57
          1482.51060	         8.07934e+57
          1483.31690	         7.75560e+57
          1484.12320	         7.06459e+57
          1484.92950	         7.79716e+57
          1485.73580	         7.39045e+57
          1486.54210	         8.10049e+57
          1487.34840	         7.87612e+57
          1488.15470	         8.06471e+57
          1488.96100	         8.83466e+57
          1489.76730	         9.73848e+57
