#sample_432_stacked_spectrum_rest_UV-bands_median_H-alpha_noDC.txt
#median Lum: 1.73879e+42
#Rest-frame wavelength (A) | Luminosity (erg/s/A)
#
          1110.00000	         0.00000e+00
          1110.80630	        -4.59277e+59
          1111.61260	         4.82438e+59
          1112.41890	         2.43197e+59
          1113.22520	        -4.81729e+58
          1114.03150	        -2.67341e+59
          1114.83780	         7.10848e+58
          1115.64410	         2.24401e+58
          1116.45040	        -4.34523e+58
          1117.25670	         9.90091e+58
          1118.06300	         7.40618e+58
          1118.86930	         1.45598e+59
          1119.67560	         1.77639e+59
          1120.48190	         4.89795e+58
          1121.28820	        -1.96484e+59
          1122.09450	        -9.33209e+58
          1122.90080	         5.66153e+57
          1123.70710	         7.38346e+58
          1124.51340	         6.65010e+58
          1125.31970	         1.16878e+58
          1126.12600	         3.79521e+58
          1126.93230	         8.18106e+57
          1127.73860	        -2.00704e+58
          1128.54490	         2.12415e+58
          1129.35120	         1.73654e+58
          1130.15750	        -3.63708e+58
          1130.96380	        -3.17832e+58
          1131.77010	         1.88781e+58
          1132.57640	         8.51031e+57
          1133.38270	         2.71229e+58
          1134.18900	         2.16971e+58
          1134.99530	         2.26584e+58
          1135.80160	         4.46628e+57
          1136.60790	         1.14485e+58
          1137.41420	         9.89587e+57
          1138.22050	         4.41070e+58
          1139.02680	         3.55519e+58
          1139.83310	         2.77656e+58
          1140.63940	         4.41429e+57
          1141.44570	        -2.16047e+58
          1142.25200	        -5.33436e+57
          1143.05830	         2.38807e+58
          1143.86460	         2.97762e+58
          1144.67090	         2.54203e+58
          1145.47720	         2.40700e+58
          1146.28350	         1.33934e+58
          1147.08980	         8.66647e+57
          1147.89610	         9.88900e+57
          1148.70240	         2.14624e+58
          1149.50870	         3.29846e+58
          1150.31500	         2.08379e+58
          1151.12130	         3.11564e+57
          1151.92760	        -5.36431e+55
          1152.73390	         1.00606e+58
          1153.54020	         2.02662e+57
          1154.34650	         1.41776e+58
          1155.15280	         1.41810e+58
          1155.95910	         6.79377e+57
          1156.76540	         6.27149e+57
          1157.57170	         2.10495e+57
          1158.37800	        -1.25500e+58
          1159.18430	        -8.45976e+57
          1159.99060	         7.10057e+57
          1160.79690	         5.37863e+57
          1161.60320	         1.44335e+58
          1162.40950	         1.78696e+58
          1163.21580	         1.06763e+58
          1164.02210	         1.33707e+58
          1164.82840	         5.23637e+57
          1165.63470	         2.17976e+58
          1166.44100	         2.89292e+58
          1167.24730	         1.02963e+58
          1168.05360	         6.90336e+57
          1168.85990	         4.59969e+57
          1169.66620	         9.15362e+57
          1170.47250	         1.84479e+58
          1171.27880	         1.45527e+58
          1172.08510	         1.53979e+58
          1172.89140	         8.82706e+57
          1173.69770	         3.51281e+57
          1174.50400	         1.27261e+58
          1175.31030	         1.91381e+58
          1176.11660	         1.53192e+58
          1176.92290	         1.43728e+58
          1177.72920	         1.09587e+58
          1178.53550	         1.19239e+58
          1179.34180	         5.75790e+57
          1180.14810	         2.37912e+57
          1180.95440	         7.28707e+57
          1181.76070	         7.69267e+57
          1182.56700	         6.40608e+57
          1183.37330	         4.97656e+57
          1184.17960	         1.24867e+58
          1184.98590	         9.35875e+57
          1185.79220	         3.90383e+57
          1186.59850	         5.45511e+57
          1187.40480	         7.92996e+57
          1188.21110	         6.88416e+57
          1189.01740	         8.01929e+57
          1189.82370	         9.01946e+57
          1190.63000	         8.99070e+57
          1191.43630	         8.12341e+57
          1192.24260	         6.53697e+57
          1193.04890	         1.61221e+58
          1193.85520	         9.04269e+57
          1194.66150	         3.60132e+57
          1195.46780	         6.73336e+57
          1196.27410	         8.96271e+57
          1197.08040	         7.29994e+57
          1197.88670	         1.53457e+58
          1198.69300	         1.41888e+58
          1199.49930	         9.64106e+57
          1200.30560	         7.22146e+57
          1201.11190	         9.62548e+57
          1201.91820	         1.00065e+58
          1202.72450	         8.11214e+57
          1203.53080	         1.79810e+58
          1204.33710	         8.11280e+57
          1205.14340	         9.55529e+57
          1205.94970	         9.33296e+57
          1206.75600	         7.57459e+57
          1207.56230	         5.06313e+57
          1208.36860	         8.00586e+57
          1209.17490	         3.54791e+57
          1209.98120	         4.16773e+57
          1210.78750	         9.25814e+57
          1211.59380	         1.17450e+58
          1212.40010	         1.89987e+58
          1213.20640	         2.10079e+58
          1214.01270	         2.14407e+58
          1214.81900	         2.58543e+58
          1215.62530	         4.46567e+58
          1216.43160	         9.10014e+58
          1217.23790	         1.54517e+59
          1218.04420	         1.16682e+59
          1218.85050	         9.03919e+58
          1219.65680	         5.43567e+58
          1220.46310	         2.78527e+58
          1221.26940	         2.61567e+58
          1222.07570	         1.60859e+58
          1222.88200	         1.25079e+58
          1223.68830	         1.21819e+58
          1224.49460	         6.64251e+57
          1225.30090	         8.64423e+57
          1226.10720	         8.02600e+57
          1226.91350	         1.01994e+58
          1227.71980	         1.26529e+58
          1228.52610	         1.08808e+58
          1229.33240	         1.10680e+58
          1230.13870	         1.25712e+58
          1230.94500	         8.46042e+57
          1231.75130	         8.79374e+57
          1232.55760	         1.18771e+58
          1233.36390	         1.00086e+58
          1234.17020	         9.13507e+57
          1234.97650	         8.09378e+57
          1235.78280	         9.61779e+57
          1236.58910	         1.13369e+58
          1237.39540	         1.43951e+58
          1238.20170	         1.28999e+58
          1239.00800	         1.28991e+58
          1239.81430	         1.60150e+58
          1240.62060	         1.50923e+58
          1241.42690	         1.19825e+58
          1242.23320	         1.04492e+58
          1243.03950	         8.48105e+57
          1243.84580	         9.16335e+57
          1244.65210	         1.18837e+58
          1245.45840	         1.25653e+58
          1246.26470	         1.06511e+58
          1247.07100	         8.27451e+57
          1247.87730	         4.72190e+57
          1248.68360	         3.73328e+57
          1249.48990	         6.94828e+57
          1250.29620	         8.95428e+57
          1251.10250	         1.14682e+58
          1251.90880	         7.87513e+57
          1252.71510	         4.79029e+57
          1253.52140	         5.74938e+57
          1254.32770	         8.40282e+57
          1255.13400	         1.22925e+58
          1255.94030	         1.19587e+58
          1256.74660	         1.10654e+58
          1257.55290	         1.11684e+58
          1258.35920	         7.46744e+57
          1259.16550	         3.88992e+57
          1259.97180	         4.03451e+57
          1260.77810	         7.09099e+57
          1261.58440	         8.78840e+57
          1262.39070	         7.95492e+57
          1263.19700	         1.03923e+58
          1264.00330	         1.08829e+58
          1264.80960	         1.00866e+58
          1265.61590	         1.23547e+58
          1266.42220	         1.21162e+58
          1267.22850	         1.03797e+58
          1268.03480	         1.53834e+58
          1268.84110	         1.72231e+58
          1269.64740	         1.57247e+58
          1270.45370	         1.49032e+58
          1271.26000	         1.37077e+58
          1272.06630	         1.34585e+58
          1272.87260	         1.37114e+58
          1273.67890	         1.50864e+58
          1274.48520	         1.37063e+58
          1275.29150	         1.42525e+58
          1276.09780	         1.38685e+58
          1276.90410	         1.62611e+58
          1277.71040	         1.52965e+58
          1278.51670	         1.33194e+58
          1279.32300	         1.44138e+58
          1280.12930	         1.17336e+58
          1280.93560	         1.32012e+58
          1281.74190	         1.28376e+58
          1282.54820	         1.15449e+58
          1283.35450	         1.10735e+58
          1284.16080	         1.01828e+58
          1284.96710	         1.19034e+58
          1285.77340	         1.14653e+58
          1286.57970	         9.25801e+57
          1287.38600	         1.39110e+58
          1288.19230	         1.69528e+58
          1288.99860	         1.53718e+58
          1289.80490	         1.29292e+58
          1290.61120	         1.47433e+58
          1291.41750	         1.55236e+58
          1292.22380	         1.13620e+58
          1293.03010	         8.84754e+57
          1293.83640	         1.00663e+58
          1294.64270	         9.24922e+57
          1295.44900	         6.90216e+57
          1296.25530	         8.39196e+57
          1297.06160	         7.73660e+57
          1297.86790	         6.74292e+57
          1298.67420	         8.23802e+57
          1299.48050	         1.09138e+58
          1300.28680	         1.08992e+58
          1301.09310	         7.67984e+57
          1301.89940	         3.74082e+57
          1302.70570	         5.73620e+57
          1303.51200	         8.37761e+57
          1304.31830	         9.99472e+57
          1305.12460	         9.50370e+57
          1305.93090	         1.03999e+58
          1306.73720	         1.40781e+58
          1307.54350	         1.52105e+58
          1308.34980	         1.45368e+58
          1309.15610	         1.54512e+58
          1309.96240	         1.62188e+58
          1310.76870	         1.24536e+58
          1311.57500	         8.66395e+57
          1312.38130	         9.62929e+57
          1313.18760	         1.08513e+58
          1313.99390	         1.52866e+58
          1314.80020	         1.65898e+58
          1315.60650	         1.34121e+58
          1316.41280	         1.02469e+58
          1317.21910	         9.91845e+57
          1318.02540	         1.17579e+58
          1318.83170	         1.41855e+58
          1319.63800	         1.19672e+58
          1320.44430	         1.15786e+58
          1321.25060	         1.12829e+58
          1322.05690	         1.15363e+58
          1322.86320	         1.17009e+58
          1323.66950	         1.10812e+58
          1324.47580	         9.13976e+57
          1325.28210	         7.89899e+57
          1326.08840	         1.02298e+58
          1326.89470	         1.19753e+58
          1327.70100	         1.11688e+58
          1328.50730	         9.69672e+57
          1329.31360	         9.77169e+57
          1330.11990	         1.07462e+58
          1330.92620	         9.40011e+57
          1331.73250	         1.07286e+58
          1332.53880	         1.12200e+58
          1333.34510	         9.65275e+57
          1334.15140	         8.89577e+57
          1334.95770	         9.58434e+57
          1335.76400	         1.06707e+58
          1336.57030	         1.13835e+58
          1337.37660	         1.05029e+58
          1338.18290	         1.05694e+58
          1338.98920	         1.23415e+58
          1339.79550	         1.16370e+58
          1340.60180	         1.17066e+58
          1341.40810	         1.35134e+58
          1342.21440	         1.27189e+58
          1343.02070	         1.21231e+58
          1343.82700	         1.46439e+58
          1344.63330	         1.45463e+58
          1345.43960	         1.42180e+58
          1346.24590	         1.27905e+58
          1347.05220	         1.18145e+58
          1347.85850	         9.90909e+57
          1348.66480	         1.03076e+58
          1349.47110	         1.26946e+58
          1350.27740	         1.35350e+58
          1351.08370	         1.26023e+58
          1351.89000	         1.09570e+58
          1352.69630	         1.13240e+58
          1353.50260	         1.16488e+58
          1354.30890	         1.05686e+58
          1355.11520	         1.13343e+58
          1355.92150	         1.22285e+58
          1356.72780	         1.05508e+58
          1357.53410	         9.43254e+57
          1358.34040	         1.10597e+58
          1359.14670	         1.12719e+58
          1359.95300	         1.18706e+58
          1360.75930	         1.21161e+58
          1361.56560	         1.18895e+58
          1362.37190	         1.18137e+58
          1363.17820	         1.15766e+58
          1363.98450	         1.14804e+58
          1364.79080	         1.16803e+58
          1365.59710	         1.21887e+58
          1366.40340	         1.20226e+58
          1367.20970	         1.05901e+58
          1368.01600	         9.75453e+57
          1368.82230	         7.51445e+57
          1369.62860	         8.73239e+57
          1370.43490	         1.00726e+58
          1371.24120	         1.03618e+58
          1372.04750	         1.03978e+58
          1372.85380	         1.04660e+58
          1373.66010	         1.13481e+58
          1374.46640	         1.16604e+58
          1375.27270	         1.06482e+58
          1376.07900	         8.85135e+57
          1376.88530	         7.73767e+57
          1377.69160	         8.21205e+57
          1378.49790	         7.19399e+57
          1379.30420	         7.65384e+57
          1380.11050	         9.72333e+57
          1380.91680	         8.90111e+57
          1381.72310	         6.98512e+57
          1382.52940	         7.87712e+57
          1383.33570	         9.44160e+57
          1384.14200	         1.05303e+58
          1384.94830	         1.08257e+58
          1385.75460	         1.05313e+58
          1386.56090	         1.14019e+58
          1387.36720	         1.08376e+58
          1388.17350	         1.24596e+58
          1388.97980	         1.13171e+58
          1389.78610	         9.29462e+57
          1390.59240	         7.78235e+57
          1391.39870	         8.62986e+57
          1392.20500	         9.72901e+57
          1393.01130	         8.07003e+57
          1393.81760	         6.64748e+57
          1394.62390	         6.51297e+57
          1395.43020	         6.03236e+57
          1396.23650	         6.77007e+57
          1397.04280	         8.89841e+57
          1397.84910	         9.87647e+57
          1398.65540	         9.29847e+57
          1399.46170	         1.02316e+58
          1400.26800	         9.31771e+57
          1401.07430	         8.53161e+57
          1401.88060	         1.02250e+58
          1402.68690	         1.10505e+58
          1403.49320	         1.00524e+58
          1404.29950	         9.06517e+57
          1405.10580	         1.00965e+58
          1405.91210	         1.16780e+58
          1406.71840	         1.10837e+58
          1407.52470	         1.05258e+58
          1408.33100	         1.02545e+58
          1409.13730	         1.07186e+58
          1409.94360	         1.14630e+58
          1410.74990	         1.29823e+58
          1411.55620	         1.01170e+58
          1412.36250	         9.51282e+57
          1413.16880	         9.93640e+57
          1413.97510	         8.20977e+57
          1414.78140	         8.99640e+57
          1415.58770	         1.17817e+58
          1416.39400	         1.12712e+58
          1417.20030	         1.08458e+58
          1418.00660	         9.73431e+57
          1418.81290	         1.00442e+58
          1419.61920	         1.03079e+58
          1420.42550	         1.25120e+58
          1421.23180	         1.33273e+58
          1422.03810	         1.21845e+58
          1422.84440	         1.12670e+58
          1423.65070	         1.32856e+58
          1424.45700	         1.20773e+58
          1425.26330	         1.00292e+58
          1426.06960	         1.00906e+58
          1426.87590	         1.02020e+58
          1427.68220	         1.07109e+58
          1428.48850	         1.20646e+58
          1429.29480	         1.09166e+58
          1430.10110	         9.18643e+57
          1430.90740	         9.37732e+57
          1431.71370	         1.07688e+58
          1432.52000	         1.04623e+58
          1433.32630	         8.49696e+57
          1434.13260	         7.78686e+57
          1434.93890	         8.09371e+57
          1435.74520	         8.71358e+57
          1436.55150	         9.68111e+57
          1437.35780	         9.33787e+57
          1438.16410	         9.76409e+57
          1438.97040	         9.63411e+57
          1439.77670	         8.91070e+57
          1440.58300	         9.41946e+57
          1441.38930	         9.04524e+57
          1442.19560	         9.65362e+57
          1443.00190	         1.06391e+58
          1443.80820	         1.12694e+58
          1444.61450	         9.80156e+57
          1445.42080	         7.56726e+57
          1446.22710	         9.25356e+57
          1447.03340	         9.46638e+57
          1447.83970	         9.82731e+57
          1448.64600	         9.10897e+57
          1449.45230	         9.57751e+57
          1450.25860	         1.11130e+58
          1451.06490	         9.39419e+57
          1451.87120	         7.81479e+57
          1452.67750	         7.66829e+57
          1453.48380	         8.86943e+57
          1454.29010	         8.70554e+57
          1455.09640	         8.24135e+57
          1455.90270	         9.43745e+57
          1456.70900	         8.88053e+57
          1457.51530	         9.98204e+57
          1458.32160	         1.18649e+58
          1459.12790	         1.25141e+58
          1459.93420	         1.12445e+58
          1460.74050	         7.71523e+57
          1461.54680	         7.36003e+57
          1462.35310	         7.30540e+57
          1463.15940	         7.77095e+57
          1463.96570	         9.98225e+57
          1464.77200	         1.12054e+58
          1465.57830	         1.09481e+58
          1466.38460	         1.00383e+58
          1467.19090	         9.58747e+57
          1467.99720	         9.47581e+57
          1468.80350	         8.96714e+57
          1469.60980	         9.73369e+57
          1470.41610	         1.13417e+58
          1471.22240	         9.67830e+57
          1472.02870	         8.70353e+57
          1472.83500	         8.93076e+57
          1473.64130	         9.09701e+57
          1474.44760	         8.50330e+57
          1475.25390	         7.97916e+57
          1476.06020	         9.20780e+57
          1476.86650	         9.32942e+57
          1477.67280	         8.31934e+57
          1478.47910	         6.72993e+57
          1479.28540	         5.91633e+57
          1480.09170	         7.77420e+57
          1480.89800	         7.77828e+57
          1481.70430	         8.28266e+57
          1482.51060	         8.52972e+57
          1483.31690	         8.45152e+57
          1484.12320	         8.34475e+57
          1484.92950	         8.08024e+57
          1485.73580	         8.15675e+57
          1486.54210	         7.95668e+57
          1487.34840	         8.73386e+57
          1488.15470	         9.00772e+57
          1488.96100	         8.14510e+57
          1489.76730	         7.90548e+57
