#sample_273_stacked_spectrum_rest_UV-bands_median_H-alpha_noDC.txt
#median Lum: 1.72825e+42
#Rest-frame wavelength (A) | Luminosity (erg/s/A)
#
          1110.00000	         0.00000e+00
          1110.80630	        -1.67792e+59
          1111.61260	         5.03751e+59
          1112.41890	         1.44908e+59
          1113.22520	        -4.02378e+58
          1114.03150	        -1.23563e+59
          1114.83780	         3.96793e+58
          1115.64410	         9.83607e+58
          1116.45040	        -8.88489e+57
          1117.25670	        -6.80224e+58
          1118.06300	         9.82326e+58
          1118.86930	         1.02634e+58
          1119.67560	         3.87427e+58
          1120.48190	        -6.81252e+58
          1121.28820	        -1.18592e+59
          1122.09450	        -1.35821e+58
          1122.90080	         3.70132e+58
          1123.70710	         1.24029e+59
          1124.51340	         6.07166e+58
          1125.31970	         4.65780e+58
          1126.12600	        -5.34305e+57
          1126.93230	        -3.67533e+58
          1127.73860	        -2.63176e+58
          1128.54490	         1.82252e+58
          1129.35120	         2.92474e+58
          1130.15750	        -5.30630e+58
          1130.96380	        -3.41518e+58
          1131.77010	         5.05608e+58
          1132.57640	         6.04798e+58
          1133.38270	         4.30895e+58
          1134.18900	         1.61503e+58
          1134.99530	         2.73771e+58
          1135.80160	         9.02753e+57
          1136.60790	         4.33724e+58
          1137.41420	         1.53925e+58
          1138.22050	         2.78464e+58
          1139.02680	         3.92966e+58
          1139.83310	         2.50981e+58
          1140.63940	         1.60967e+58
          1141.44570	        -1.60258e+58
          1142.25200	        -2.29795e+57
          1143.05830	         3.33116e+58
          1143.86460	         1.94768e+58
          1144.67090	         2.73369e+58
          1145.47720	         1.41163e+58
          1146.28350	         7.68722e+57
          1147.08980	         1.26468e+58
          1147.89610	         1.66765e+58
          1148.70240	         3.35029e+58
          1149.50870	         1.35501e+58
          1150.31500	         1.55064e+58
          1151.12130	         1.86306e+58
          1151.92760	         3.55890e+57
          1152.73390	         4.44373e+57
          1153.54020	         8.71562e+57
          1154.34650	         1.43811e+58
          1155.15280	         1.58304e+58
          1155.95910	         4.13707e+57
          1156.76540	         1.14182e+58
          1157.57170	        -1.02941e+57
          1158.37800	         3.21166e+57
          1159.18430	         4.98581e+57
          1159.99060	         1.60072e+58
          1160.79690	        -5.26154e+56
          1161.60320	         3.93200e+57
          1162.40950	         9.99665e+57
          1163.21580	         1.38364e+58
          1164.02210	         8.00375e+57
          1164.82840	         1.63728e+58
          1165.63470	         1.65086e+58
          1166.44100	         1.88176e+58
          1167.24730	         1.81180e+58
          1168.05360	         3.95679e+57
          1168.85990	         1.03014e+58
          1169.66620	         1.27929e+58
          1170.47250	         2.06758e+58
          1171.27880	         8.75595e+57
          1172.08510	         7.04586e+57
          1172.89140	         7.10999e+57
          1173.69770	         7.62890e+57
          1174.50400	         8.45582e+57
          1175.31030	         8.41015e+57
          1176.11660	         1.70763e+58
          1176.92290	         1.54300e+58
          1177.72920	         1.42388e+58
          1178.53550	         9.04458e+57
          1179.34180	         8.61209e+57
          1180.14810	         1.27184e+58
          1180.95440	         1.54518e+58
          1181.76070	         7.09011e+57
          1182.56700	         3.99645e+57
          1183.37330	         1.91216e+57
          1184.17960	         1.20961e+58
          1184.98590	         1.44165e+58
          1185.79220	         6.91149e+57
          1186.59850	         8.42393e+57
          1187.40480	         8.56099e+57
          1188.21110	         1.23483e+58
          1189.01740	         1.11078e+58
          1189.82370	         8.48178e+57
          1190.63000	         1.54845e+58
          1191.43630	         1.45932e+58
          1192.24260	         7.64540e+57
          1193.04890	         8.80074e+57
          1193.85520	         8.80537e+57
          1194.66150	         3.81841e+57
          1195.46780	         1.18286e+58
          1196.27410	         1.39149e+58
          1197.08040	         1.12694e+58
          1197.88670	         1.46016e+58
          1198.69300	         1.30682e+58
          1199.49930	         1.76766e+58
          1200.30560	         1.24557e+58
          1201.11190	         8.00692e+57
          1201.91820	         9.88383e+57
          1202.72450	         6.08245e+57
          1203.53080	         1.39507e+58
          1204.33710	         9.31309e+57
          1205.14340	         6.04233e+57
          1205.94970	         8.06131e+57
          1206.75600	         7.74914e+57
          1207.56230	         4.57100e+57
          1208.36860	         6.72349e+57
          1209.17490	         4.67458e+57
          1209.98120	         7.65474e+57
          1210.78750	         8.29947e+57
          1211.59380	         1.48999e+58
          1212.40010	         1.85508e+58
          1213.20640	         1.93388e+58
          1214.01270	         2.18091e+58
          1214.81900	         2.61484e+58
          1215.62530	         4.61476e+58
          1216.43160	         9.60939e+58
          1217.23790	         1.54745e+59
          1218.04420	         1.12751e+59
          1218.85050	         8.75551e+58
          1219.65680	         6.07256e+58
          1220.46310	         3.91156e+58
          1221.26940	         2.71391e+58
          1222.07570	         1.66517e+58
          1222.88200	         1.57732e+58
          1223.68830	         1.16425e+58
          1224.49460	         4.72300e+57
          1225.30090	         7.01727e+57
          1226.10720	         4.48871e+57
          1226.91350	         8.66996e+57
          1227.71980	         1.11725e+58
          1228.52610	         1.11778e+58
          1229.33240	         8.64850e+57
          1230.13870	         1.01080e+58
          1230.94500	         1.02005e+58
          1231.75130	         6.22922e+57
          1232.55760	         1.16003e+58
          1233.36390	         9.64358e+57
          1234.17020	         8.71111e+57
          1234.97650	         6.26116e+57
          1235.78280	         6.18099e+57
          1236.58910	         8.57997e+57
          1237.39540	         9.91136e+57
          1238.20170	         1.05173e+58
          1239.00800	         1.36149e+58
          1239.81430	         1.38213e+58
          1240.62060	         1.14291e+58
          1241.42690	         1.21726e+58
          1242.23320	         1.39298e+58
          1243.03950	         1.05290e+58
          1243.84580	         1.00450e+58
          1244.65210	         1.02346e+58
          1245.45840	         9.71248e+57
          1246.26470	         1.14765e+58
          1247.07100	         9.53634e+57
          1247.87730	         4.72213e+57
          1248.68360	         4.63332e+57
          1249.48990	         7.24886e+57
          1250.29620	         6.54237e+57
          1251.10250	         8.55210e+57
          1251.90880	         5.80462e+57
          1252.71510	         7.31833e+57
          1253.52140	         9.13536e+57
          1254.32770	         9.86395e+57
          1255.13400	         1.28950e+58
          1255.94030	         1.14050e+58
          1256.74660	         1.03886e+58
          1257.55290	         9.18748e+57
          1258.35920	         6.37728e+57
          1259.16550	         4.58824e+57
          1259.97180	         4.54509e+57
          1260.77810	         6.53417e+57
          1261.58440	         1.00100e+58
          1262.39070	         9.54879e+57
          1263.19700	         8.06778e+57
          1264.00330	         9.32849e+57
          1264.80960	         1.06443e+58
          1265.61590	         1.32852e+58
          1266.42220	         1.33801e+58
          1267.22850	         1.03752e+58
          1268.03480	         1.36888e+58
          1268.84110	         1.49580e+58
          1269.64740	         1.08385e+58
          1270.45370	         1.11249e+58
          1271.26000	         1.15542e+58
          1272.06630	         1.42005e+58
          1272.87260	         1.38435e+58
          1273.67890	         1.19159e+58
          1274.48520	         1.32697e+58
          1275.29150	         1.30607e+58
          1276.09780	         1.26138e+58
          1276.90410	         1.36483e+58
          1277.71040	         1.23572e+58
          1278.51670	         1.22707e+58
          1279.32300	         1.30113e+58
          1280.12930	         1.17342e+58
          1280.93560	         1.15873e+58
          1281.74190	         1.39795e+58
          1282.54820	         1.30515e+58
          1283.35450	         1.01364e+58
          1284.16080	         1.06520e+58
          1284.96710	         1.26145e+58
          1285.77340	         1.14821e+58
          1286.57970	         1.03105e+58
          1287.38600	         1.29513e+58
          1288.19230	         1.65743e+58
          1288.99860	         1.51639e+58
          1289.80490	         9.58605e+57
          1290.61120	         1.33400e+58
          1291.41750	         1.68148e+58
          1292.22380	         1.35994e+58
          1293.03010	         1.15350e+58
          1293.83640	         1.46660e+58
          1294.64270	         1.28869e+58
          1295.44900	         7.42986e+57
          1296.25530	         7.76812e+57
          1297.06160	         1.03971e+58
          1297.86790	         1.00639e+58
          1298.67420	         8.35875e+57
          1299.48050	         1.03601e+58
          1300.28680	         1.11092e+58
          1301.09310	         6.56709e+57
          1301.89940	         3.36992e+57
          1302.70570	         6.30192e+57
          1303.51200	         7.73930e+57
          1304.31830	         9.35172e+57
          1305.12460	         9.89418e+57
          1305.93090	         9.47914e+57
          1306.73720	         1.13126e+58
          1307.54350	         1.35683e+58
          1308.34980	         1.41662e+58
          1309.15610	         1.69162e+58
          1309.96240	         1.62246e+58
          1310.76870	         1.36380e+58
          1311.57500	         1.51008e+58
          1312.38130	         1.30583e+58
          1313.18760	         1.20962e+58
          1313.99390	         1.63455e+58
          1314.80020	         1.68463e+58
          1315.60650	         1.64041e+58
          1316.41280	         1.22714e+58
          1317.21910	         1.13925e+58
          1318.02540	         1.19879e+58
          1318.83170	         1.18959e+58
          1319.63800	         1.11903e+58
          1320.44430	         1.13842e+58
          1321.25060	         1.28819e+58
          1322.05690	         1.32355e+58
          1322.86320	         1.22024e+58
          1323.66950	         1.12729e+58
          1324.47580	         9.42064e+57
          1325.28210	         9.10703e+57
          1326.08840	         1.04146e+58
          1326.89470	         1.19025e+58
          1327.70100	         1.12684e+58
          1328.50730	         9.39738e+57
          1329.31360	         1.04980e+58
          1330.11990	         1.05883e+58
          1330.92620	         9.51117e+57
          1331.73250	         1.01058e+58
          1332.53880	         9.11213e+57
          1333.34510	         9.02764e+57
          1334.15140	         8.45356e+57
          1334.95770	         8.05896e+57
          1335.76400	         9.91553e+57
          1336.57030	         1.17733e+58
          1337.37660	         1.22428e+58
          1338.18290	         1.15309e+58
          1338.98920	         1.11399e+58
          1339.79550	         1.10602e+58
          1340.60180	         1.03897e+58
          1341.40810	         1.22503e+58
          1342.21440	         1.08289e+58
          1343.02070	         9.58545e+57
          1343.82700	         1.35585e+58
          1344.63330	         1.43433e+58
          1345.43960	         1.19257e+58
          1346.24590	         9.27631e+57
          1347.05220	         1.06177e+58
          1347.85850	         1.13155e+58
          1348.66480	         1.18989e+58
          1349.47110	         1.24995e+58
          1350.27740	         1.01462e+58
          1351.08370	         1.05916e+58
          1351.89000	         1.11444e+58
          1352.69630	         1.15122e+58
          1353.50260	         1.00764e+58
          1354.30890	         1.02174e+58
          1355.11520	         1.11811e+58
          1355.92150	         1.13287e+58
          1356.72780	         1.08266e+58
          1357.53410	         1.15279e+58
          1358.34040	         1.15485e+58
          1359.14670	         1.06236e+58
          1359.95300	         1.21194e+58
          1360.75930	         1.12048e+58
          1361.56560	         1.01065e+58
          1362.37190	         1.19757e+58
          1363.17820	         1.18373e+58
          1363.98450	         1.31173e+58
          1364.79080	         1.26705e+58
          1365.59710	         1.36900e+58
          1366.40340	         1.30042e+58
          1367.20970	         1.12890e+58
          1368.01600	         1.10570e+58
          1368.82230	         8.63151e+57
          1369.62860	         1.07483e+58
          1370.43490	         1.08580e+58
          1371.24120	         8.84795e+57
          1372.04750	         7.60077e+57
          1372.85380	         9.88091e+57
          1373.66010	         1.14828e+58
          1374.46640	         1.07735e+58
          1375.27270	         1.05542e+58
          1376.07900	         8.74198e+57
          1376.88530	         8.88383e+57
          1377.69160	         9.34760e+57
          1378.49790	         7.83173e+57
          1379.30420	         6.74886e+57
          1380.11050	         8.03344e+57
          1380.91680	         9.15786e+57
          1381.72310	         7.19026e+57
          1382.52940	         6.91994e+57
          1383.33570	         8.33682e+57
          1384.14200	         1.02454e+58
          1384.94830	         1.12736e+58
          1385.75460	         1.12091e+58
          1386.56090	         1.24426e+58
          1387.36720	         1.21363e+58
          1388.17350	         1.32167e+58
          1388.97980	         1.06589e+58
          1389.78610	         7.37282e+57
          1390.59240	         7.50343e+57
          1391.39870	         7.68651e+57
          1392.20500	         7.74748e+57
          1393.01130	         7.56963e+57
          1393.81760	         7.46093e+57
          1394.62390	         7.17112e+57
          1395.43020	         7.14743e+57
          1396.23650	         6.94868e+57
          1397.04280	         7.41359e+57
          1397.84910	         8.73804e+57
          1398.65540	         9.43246e+57
          1399.46170	         1.03049e+58
          1400.26800	         8.40706e+57
          1401.07430	         8.02919e+57
          1401.88060	         8.77498e+57
          1402.68690	         9.72192e+57
          1403.49320	         9.41539e+57
          1404.29950	         8.47803e+57
          1405.10580	         1.05344e+58
          1405.91210	         1.22087e+58
          1406.71840	         1.12152e+58
          1407.52470	         9.50375e+57
          1408.33100	         9.85808e+57
          1409.13730	         1.20679e+58
          1409.94360	         1.19994e+58
          1410.74990	         1.10682e+58
          1411.55620	         9.48968e+57
          1412.36250	         9.14344e+57
          1413.16880	         9.41307e+57
          1413.97510	         8.63789e+57
          1414.78140	         9.69100e+57
          1415.58770	         1.02962e+58
          1416.39400	         1.07617e+58
          1417.20030	         1.02042e+58
          1418.00660	         7.58251e+57
          1418.81290	         8.50220e+57
          1419.61920	         1.06613e+58
          1420.42550	         1.28818e+58
          1421.23180	         1.46643e+58
          1422.03810	         1.29855e+58
          1422.84440	         1.05506e+58
          1423.65070	         1.27918e+58
          1424.45700	         1.23524e+58
          1425.26330	         1.04821e+58
          1426.06960	         9.71095e+57
          1426.87590	         9.61053e+57
          1427.68220	         8.55265e+57
          1428.48850	         9.64387e+57
          1429.29480	         1.11320e+58
          1430.10110	         1.02243e+58
          1430.90740	         8.22176e+57
          1431.71370	         9.01458e+57
          1432.52000	         9.03707e+57
          1433.32630	         7.89920e+57
          1434.13260	         7.63162e+57
          1434.93890	         8.26857e+57
          1435.74520	         9.75326e+57
          1436.55150	         9.84318e+57
          1437.35780	         8.75596e+57
          1438.16410	         9.53382e+57
          1438.97040	         9.19461e+57
          1439.77670	         7.82937e+57
          1440.58300	         8.14604e+57
          1441.38930	         9.06094e+57
          1442.19560	         9.32495e+57
          1443.00190	         9.97143e+57
          1443.80820	         1.11487e+58
          1444.61450	         9.81181e+57
          1445.42080	         8.57410e+57
          1446.22710	         9.40433e+57
          1447.03340	         9.89911e+57
          1447.83970	         1.05236e+58
          1448.64600	         1.05100e+58
          1449.45230	         1.10365e+58
          1450.25860	         1.18793e+58
          1451.06490	         9.12313e+57
          1451.87120	         7.71788e+57
          1452.67750	         7.41784e+57
          1453.48380	         9.04696e+57
          1454.29010	         8.34680e+57
          1455.09640	         7.70035e+57
          1455.90270	         8.52103e+57
          1456.70900	         8.56976e+57
          1457.51530	         1.09357e+58
          1458.32160	         1.30709e+58
          1459.12790	         1.07857e+58
          1459.93420	         8.88857e+57
          1460.74050	         6.68727e+57
          1461.54680	         7.59997e+57
          1462.35310	         8.99569e+57
          1463.15940	         8.89366e+57
          1463.96570	         1.02375e+58
          1464.77200	         1.23224e+58
          1465.57830	         1.05057e+58
          1466.38460	         8.49834e+57
          1467.19090	         8.96440e+57
          1467.99720	         8.86573e+57
          1468.80350	         9.04984e+57
          1469.60980	         1.12116e+58
          1470.41610	         1.11322e+58
          1471.22240	         9.00596e+57
          1472.02870	         9.26444e+57
          1472.83500	         1.00751e+58
          1473.64130	         9.16572e+57
          1474.44760	         9.65502e+57
          1475.25390	         8.60125e+57
          1476.06020	         8.17554e+57
          1476.86650	         8.66191e+57
          1477.67280	         7.45645e+57
          1478.47910	         6.65081e+57
          1479.28540	         6.42111e+57
          1480.09170	         7.32284e+57
          1480.89800	         8.76550e+57
          1481.70430	         8.40510e+57
          1482.51060	         6.82349e+57
          1483.31690	         7.55553e+57
          1484.12320	         7.63137e+57
          1484.92950	         7.29906e+57
          1485.73580	         8.56011e+57
          1486.54210	         8.73367e+57
          1487.34840	         8.20279e+57
          1488.15470	         8.08993e+57
          1488.96100	         8.94706e+57
          1489.76730	         9.24233e+57
