#sample_355_stacked_spectrum_rest_UV-bands_median_H-alpha_noDC.txt
#median Lum: 1.71958e+42
#Rest-frame wavelength (A) | Luminosity (erg/s/A)
#
          1110.00000	         0.00000e+00
          1110.80630	         3.93472e+59
          1111.61260	        -3.10475e+58
          1112.41890	         3.47968e+59
          1113.22520	         2.27668e+59
          1114.03150	         1.01925e+59
          1114.83780	         1.01883e+59
          1115.64410	         3.82874e+58
          1116.45040	         1.32702e+59
          1117.25670	        -6.26509e+58
          1118.06300	         1.37365e+58
          1118.86930	        -6.63792e+58
          1119.67560	         7.65250e+58
          1120.48190	        -1.14104e+59
          1121.28820	        -1.50045e+59
          1122.09450	        -4.98124e+58
          1122.90080	        -7.37421e+58
          1123.70710	         2.77223e+58
          1124.51340	         1.20232e+59
          1125.31970	         1.72189e+58
          1126.12600	         2.39846e+58
          1126.93230	        -2.99868e+58
          1127.73860	        -8.13656e+58
          1128.54490	        -4.27227e+58
          1129.35120	        -1.41771e+58
          1130.15750	        -7.03621e+57
          1130.96380	        -1.42974e+58
          1131.77010	         5.09264e+58
          1132.57640	         7.78392e+58
          1133.38270	         5.68523e+58
          1134.18900	         5.66961e+58
          1134.99530	         2.00977e+58
          1135.80160	         3.93211e+58
          1136.60790	         4.10197e+58
          1137.41420	         8.96133e+57
          1138.22050	         4.50322e+58
          1139.02680	         1.84140e+58
          1139.83310	        -3.78599e+57
          1140.63940	         1.78935e+58
          1141.44570	        -1.79027e+58
          1142.25200	        -1.52897e+58
          1143.05830	         2.30917e+58
          1143.86460	         3.72649e+58
          1144.67090	         5.38044e+57
          1145.47720	         1.57008e+58
          1146.28350	         1.07208e+58
          1147.08980	         1.76821e+58
          1147.89610	         1.80745e+58
          1148.70240	         3.06391e+58
          1149.50870	         2.43311e+58
          1150.31500	         1.63164e+58
          1151.12130	         9.06133e+57
          1151.92760	         1.20331e+58
          1152.73390	         4.60072e+57
          1153.54020	        -2.50021e+57
          1154.34650	         1.79410e+58
          1155.15280	         1.62723e+58
          1155.95910	         1.62279e+58
          1156.76540	         1.17010e+58
          1157.57170	         7.04719e+57
          1158.37800	         3.19842e+57
          1159.18430	        -1.07606e+57
          1159.99060	         1.21910e+58
          1160.79690	         8.63639e+57
          1161.60320	         1.57398e+58
          1162.40950	         2.62864e+58
          1163.21580	         2.46899e+58
          1164.02210	         1.88116e+58
          1164.82840	         9.18837e+57
          1165.63470	         1.08587e+58
          1166.44100	         2.82915e+58
          1167.24730	         1.88617e+58
          1168.05360	         2.88310e+57
          1168.85990	         6.68410e+57
          1169.66620	         1.01024e+58
          1170.47250	         1.27264e+58
          1171.27880	         6.29093e+57
          1172.08510	         1.11309e+58
          1172.89140	         6.63041e+57
          1173.69770	         8.51231e+57
          1174.50400	         1.53121e+58
          1175.31030	         1.74679e+58
          1176.11660	         2.08681e+58
          1176.92290	         1.46102e+58
          1177.72920	         1.02061e+58
          1178.53550	         6.95622e+57
          1179.34180	         3.94968e+57
          1180.14810	         4.99587e+57
          1180.95440	         1.55938e+58
          1181.76070	         8.96461e+57
          1182.56700	         6.05883e+57
          1183.37330	         4.59130e+57
          1184.17960	         1.23898e+58
          1184.98590	         1.49775e+58
          1185.79220	         9.29552e+57
          1186.59850	         1.18738e+58
          1187.40480	         1.04957e+58
          1188.21110	         1.60234e+58
          1189.01740	         9.31500e+57
          1189.82370	         4.20181e+57
          1190.63000	         1.05715e+58
          1191.43630	         2.01678e+58
          1192.24260	         1.08366e+58
          1193.04890	         1.32147e+58
          1193.85520	         8.94810e+57
          1194.66150	         9.63966e+57
          1195.46780	         1.07051e+58
          1196.27410	         1.24987e+58
          1197.08040	         1.29676e+58
          1197.88670	         1.32989e+58
          1198.69300	         1.32975e+58
          1199.49930	         1.56902e+58
          1200.30560	         1.04896e+58
          1201.11190	         1.16753e+58
          1201.91820	         1.27013e+58
          1202.72450	         1.08240e+58
          1203.53080	         1.80795e+58
          1204.33710	         1.19208e+58
          1205.14340	         8.10017e+57
          1205.94970	         1.13853e+58
          1206.75600	         8.88173e+57
          1207.56230	         4.31033e+57
          1208.36860	         5.16400e+57
          1209.17490	         6.50893e+57
          1209.98120	         7.09317e+57
          1210.78750	         8.56238e+57
          1211.59380	         9.25861e+57
          1212.40010	         1.39829e+58
          1213.20640	         1.82709e+58
          1214.01270	         2.01394e+58
          1214.81900	         2.43450e+58
          1215.62530	         4.57356e+58
          1216.43160	         9.33844e+58
          1217.23790	         1.51335e+59
          1218.04420	         1.13793e+59
          1218.85050	         8.43826e+58
          1219.65680	         5.60178e+58
          1220.46310	         3.33852e+58
          1221.26940	         2.43477e+58
          1222.07570	         1.25651e+58
          1222.88200	         1.01539e+58
          1223.68830	         1.11549e+58
          1224.49460	         6.95621e+57
          1225.30090	         6.15311e+57
          1226.10720	         6.24151e+57
          1226.91350	         5.50630e+57
          1227.71980	         7.42852e+57
          1228.52610	         1.00364e+58
          1229.33240	         5.94344e+57
          1230.13870	         7.18558e+57
          1230.94500	         8.50814e+57
          1231.75130	         8.38110e+57
          1232.55760	         7.71254e+57
          1233.36390	         1.09376e+58
          1234.17020	         7.35487e+57
          1234.97650	         6.68826e+57
          1235.78280	         7.14932e+57
          1236.58910	         7.39417e+57
          1237.39540	         8.84096e+57
          1238.20170	         8.61806e+57
          1239.00800	         8.52495e+57
          1239.81430	         1.26935e+58
          1240.62060	         1.06504e+58
          1241.42690	         1.08661e+58
          1242.23320	         1.31737e+58
          1243.03950	         1.04171e+58
          1243.84580	         1.16211e+58
          1244.65210	         1.26517e+58
          1245.45840	         9.80413e+57
          1246.26470	         1.03368e+58
          1247.07100	         9.04020e+57
          1247.87730	         7.02477e+57
          1248.68360	         2.61976e+57
          1249.48990	         3.57469e+57
          1250.29620	         8.49795e+57
          1251.10250	         8.58835e+57
          1251.90880	         7.27582e+57
          1252.71510	         8.27089e+57
          1253.52140	         8.20907e+57
          1254.32770	         1.16283e+58
          1255.13400	         1.43910e+58
          1255.94030	         1.24656e+58
          1256.74660	         9.84415e+57
          1257.55290	         1.02881e+58
          1258.35920	         8.79060e+57
          1259.16550	         4.68283e+57
          1259.97180	         6.14692e+57
          1260.77810	         1.00657e+58
          1261.58440	         1.04454e+58
          1262.39070	         7.12735e+57
          1263.19700	         7.65741e+57
          1264.00330	         1.05676e+58
          1264.80960	         1.11410e+58
          1265.61590	         1.26846e+58
          1266.42220	         1.14394e+58
          1267.22850	         9.49775e+57
          1268.03480	         1.24377e+58
          1268.84110	         1.18349e+58
          1269.64740	         1.14210e+58
          1270.45370	         1.38004e+58
          1271.26000	         1.23578e+58
          1272.06630	         1.30686e+58
          1272.87260	         1.46062e+58
          1273.67890	         1.39902e+58
          1274.48520	         1.15825e+58
          1275.29150	         1.09392e+58
          1276.09780	         1.20822e+58
          1276.90410	         1.41154e+58
          1277.71040	         1.42129e+58
          1278.51670	         1.30134e+58
          1279.32300	         1.40809e+58
          1280.12930	         1.37177e+58
          1280.93560	         1.13737e+58
          1281.74190	         1.28826e+58
          1282.54820	         1.41184e+58
          1283.35450	         1.10123e+58
          1284.16080	         1.17883e+58
          1284.96710	         1.41796e+58
          1285.77340	         1.19028e+58
          1286.57970	         1.15003e+58
          1287.38600	         1.60172e+58
          1288.19230	         1.67989e+58
          1288.99860	         1.39305e+58
          1289.80490	         1.13328e+58
          1290.61120	         1.53720e+58
          1291.41750	         1.49043e+58
          1292.22380	         1.12280e+58
          1293.03010	         1.11718e+58
          1293.83640	         1.19529e+58
          1294.64270	         1.00362e+58
          1295.44900	         7.12526e+57
          1296.25530	         7.00211e+57
          1297.06160	         9.24097e+57
          1297.86790	         1.06380e+58
          1298.67420	         8.63631e+57
          1299.48050	         8.06582e+57
          1300.28680	         9.55825e+57
          1301.09310	         9.12958e+57
          1301.89940	         4.18320e+57
          1302.70570	         5.90152e+57
          1303.51200	         8.25446e+57
          1304.31830	         1.09021e+58
          1305.12460	         1.06296e+58
          1305.93090	         9.91674e+57
          1306.73720	         1.05368e+58
          1307.54350	         1.42078e+58
          1308.34980	         1.45339e+58
          1309.15610	         1.50757e+58
          1309.96240	         1.61292e+58
          1310.76870	         1.23973e+58
          1311.57500	         7.47720e+57
          1312.38130	         9.25530e+57
          1313.18760	         1.19761e+58
          1313.99390	         1.43447e+58
          1314.80020	         1.64485e+58
          1315.60650	         1.43831e+58
          1316.41280	         1.15449e+58
          1317.21910	         1.20962e+58
          1318.02540	         1.28915e+58
          1318.83170	         1.32950e+58
          1319.63800	         1.14478e+58
          1320.44430	         1.03185e+58
          1321.25060	         1.14211e+58
          1322.05690	         1.39667e+58
          1322.86320	         1.36443e+58
          1323.66950	         1.20672e+58
          1324.47580	         1.08224e+58
          1325.28210	         1.05618e+58
          1326.08840	         1.24591e+58
          1326.89470	         1.25433e+58
          1327.70100	         9.57016e+57
          1328.50730	         7.28747e+57
          1329.31360	         9.14607e+57
          1330.11990	         1.09118e+58
          1330.92620	         9.45794e+57
          1331.73250	         1.02406e+58
          1332.53880	         9.62752e+57
          1333.34510	         9.40471e+57
          1334.15140	         9.25873e+57
          1334.95770	         9.25681e+57
          1335.76400	         1.11322e+58
          1336.57030	         1.06992e+58
          1337.37660	         9.85433e+57
          1338.18290	         9.59948e+57
          1338.98920	         1.05605e+58
          1339.79550	         1.19902e+58
          1340.60180	         1.28231e+58
          1341.40810	         1.52562e+58
          1342.21440	         1.15767e+58
          1343.02070	         1.16754e+58
          1343.82700	         1.41197e+58
          1344.63330	         1.21282e+58
          1345.43960	         1.37682e+58
          1346.24590	         1.16870e+58
          1347.05220	         1.20151e+58
          1347.85850	         1.24837e+58
          1348.66480	         1.21378e+58
          1349.47110	         1.30273e+58
          1350.27740	         1.23866e+58
          1351.08370	         1.16332e+58
          1351.89000	         1.16494e+58
          1352.69630	         1.19299e+58
          1353.50260	         1.17024e+58
          1354.30890	         1.24573e+58
          1355.11520	         1.29383e+58
          1355.92150	         1.14938e+58
          1356.72780	         1.02779e+58
          1357.53410	         1.08358e+58
          1358.34040	         1.11360e+58
          1359.14670	         1.10608e+58
          1359.95300	         1.24732e+58
          1360.75930	         1.26659e+58
          1361.56560	         1.25666e+58
          1362.37190	         1.35921e+58
          1363.17820	         1.16492e+58
          1363.98450	         1.09177e+58
          1364.79080	         1.22171e+58
          1365.59710	         1.28474e+58
          1366.40340	         1.19630e+58
          1367.20970	         9.10364e+57
          1368.01600	         9.55602e+57
          1368.82230	         1.09842e+58
          1369.62860	         1.13686e+58
          1370.43490	         9.75832e+57
          1371.24120	         9.60627e+57
          1372.04750	         8.00849e+57
          1372.85380	         9.27423e+57
          1373.66010	         1.20222e+58
          1374.46640	         1.14015e+58
          1375.27270	         1.10561e+58
          1376.07900	         9.54607e+57
          1376.88530	         9.01361e+57
          1377.69160	         9.52344e+57
          1378.49790	         8.28210e+57
          1379.30420	         8.70774e+57
          1380.11050	         1.05948e+58
          1380.91680	         8.41696e+57
          1381.72310	         7.35638e+57
          1382.52940	         7.94299e+57
          1383.33570	         7.89415e+57
          1384.14200	         1.04325e+58
          1384.94830	         1.17919e+58
          1385.75460	         1.13938e+58
          1386.56090	         1.21501e+58
          1387.36720	         1.15536e+58
          1388.17350	         1.44641e+58
          1388.97980	         1.19704e+58
          1389.78610	         8.06052e+57
          1390.59240	         8.53236e+57
          1391.39870	         9.09018e+57
          1392.20500	         8.71517e+57
          1393.01130	         6.73598e+57
          1393.81760	         5.48393e+57
          1394.62390	         6.78160e+57
          1395.43020	         7.81138e+57
          1396.23650	         8.32683e+57
          1397.04280	         7.90774e+57
          1397.84910	         8.45340e+57
          1398.65540	         8.49917e+57
          1399.46170	         9.41967e+57
          1400.26800	         8.84914e+57
          1401.07430	         8.05966e+57
          1401.88060	         8.09791e+57
          1402.68690	         9.46099e+57
          1403.49320	         1.01870e+58
          1404.29950	         9.22906e+57
          1405.10580	         9.96086e+57
          1405.91210	         9.94959e+57
          1406.71840	         1.04565e+58
          1407.52470	         1.03949e+58
          1408.33100	         8.77286e+57
          1409.13730	         1.00660e+58
          1409.94360	         1.11092e+58
          1410.74990	         1.09769e+58
          1411.55620	         1.01223e+58
          1412.36250	         1.02556e+58
          1413.16880	         1.02413e+58
          1413.97510	         8.10943e+57
          1414.78140	         8.14380e+57
          1415.58770	         1.10739e+58
          1416.39400	         1.23528e+58
          1417.20030	         1.06422e+58
          1418.00660	         8.83741e+57
          1418.81290	         9.23013e+57
          1419.61920	         9.77058e+57
          1420.42550	         1.21530e+58
          1421.23180	         1.29440e+58
          1422.03810	         1.18047e+58
          1422.84440	         1.11948e+58
          1423.65070	         1.26176e+58
          1424.45700	         1.20917e+58
          1425.26330	         8.94039e+57
          1426.06960	         7.70802e+57
          1426.87590	         9.72605e+57
          1427.68220	         9.06402e+57
          1428.48850	         1.09491e+58
          1429.29480	         1.17544e+58
          1430.10110	         1.06250e+58
          1430.90740	         9.15886e+57
          1431.71370	         9.07139e+57
          1432.52000	         8.81644e+57
          1433.32630	         7.66422e+57
          1434.13260	         8.28861e+57
          1434.93890	         9.01120e+57
          1435.74520	         8.77516e+57
          1436.55150	         8.86959e+57
          1437.35780	         8.51872e+57
          1438.16410	         9.16391e+57
          1438.97040	         9.39720e+57
          1439.77670	         8.93559e+57
          1440.58300	         9.25013e+57
          1441.38930	         9.41353e+57
          1442.19560	         9.25884e+57
          1443.00190	         1.01589e+58
          1443.80820	         1.16742e+58
          1444.61450	         1.01299e+58
          1445.42080	         8.53386e+57
          1446.22710	         1.02294e+58
          1447.03340	         9.91338e+57
          1447.83970	         1.04294e+58
          1448.64600	         1.03229e+58
          1449.45230	         1.02312e+58
          1450.25860	         1.03599e+58
          1451.06490	         9.15009e+57
          1451.87120	         8.25735e+57
          1452.67750	         7.63737e+57
          1453.48380	         9.04792e+57
          1454.29010	         8.46489e+57
          1455.09640	         7.86540e+57
          1455.90270	         9.41296e+57
          1456.70900	         8.76483e+57
          1457.51530	         9.59784e+57
          1458.32160	         1.29410e+58
          1459.12790	         1.20185e+58
          1459.93420	         8.83122e+57
          1460.74050	         7.96350e+57
          1461.54680	         8.26219e+57
          1462.35310	         7.91223e+57
          1463.15940	         9.30897e+57
          1463.96570	         9.77021e+57
          1464.77200	         1.14419e+58
          1465.57830	         1.08478e+58
          1466.38460	         8.66785e+57
          1467.19090	         8.40602e+57
          1467.99720	         8.22723e+57
          1468.80350	         9.79650e+57
          1469.60980	         9.82918e+57
          1470.41610	         9.67986e+57
          1471.22240	         9.07636e+57
          1472.02870	         9.83688e+57
          1472.83500	         9.67813e+57
          1473.64130	         9.56561e+57
          1474.44760	         9.86653e+57
          1475.25390	         9.16607e+57
          1476.06020	         8.49422e+57
          1476.86650	         8.09105e+57
          1477.67280	         7.20779e+57
          1478.47910	         6.89058e+57
          1479.28540	         7.27514e+57
          1480.09170	         9.30492e+57
          1480.89800	         9.40656e+57
          1481.70430	         8.29180e+57
          1482.51060	         8.02493e+57
          1483.31690	         8.28759e+57
          1484.12320	         8.62597e+57
          1484.92950	         6.98732e+57
          1485.73580	         6.65358e+57
          1486.54210	         8.09555e+57
          1487.34840	         8.47739e+57
          1488.15470	         7.87815e+57
          1488.96100	         8.42612e+57
          1489.76730	         8.96639e+57
