#sample_373_stacked_spectrum_rest_UV-bands_median_H-alpha_noDC.txt
#median Lum: 1.72508e+42
#Rest-frame wavelength (A) | Luminosity (erg/s/A)
#
          1110.00000	         0.00000e+00
          1110.80630	        -4.22796e+59
          1111.61260	         7.93910e+58
          1112.41890	         1.97340e+59
          1113.22520	         6.54438e+58
          1114.03150	        -8.38715e+58
          1114.83780	         2.75628e+59
          1115.64410	         1.90854e+59
          1116.45040	         2.88545e+59
          1117.25670	         8.78805e+58
          1118.06300	         8.52366e+58
          1118.86930	        -1.06064e+59
          1119.67560	         8.26205e+58
          1120.48190	         5.34448e+57
          1121.28820	        -1.65487e+59
          1122.09450	        -3.02702e+58
          1122.90080	         2.11559e+57
          1123.70710	         7.09847e+58
          1124.51340	         1.39680e+59
          1125.31970	         4.90818e+58
          1126.12600	        -1.47220e+58
          1126.93230	        -4.46315e+58
          1127.73860	        -5.30487e+58
          1128.54490	        -2.31747e+58
          1129.35120	         3.65880e+57
          1130.15750	         3.76944e+57
          1130.96380	        -1.13128e+58
          1131.77010	         2.44173e+58
          1132.57640	         2.15829e+58
          1133.38270	         3.47766e+58
          1134.18900	         1.57212e+58
          1134.99530	         1.15182e+58
          1135.80160	         2.53614e+58
          1136.60790	         1.57058e+58
          1137.41420	         1.08680e+58
          1138.22050	         2.90688e+58
          1139.02680	         2.71554e+58
          1139.83310	         1.02859e+58
          1140.63940	         2.02491e+58
          1141.44570	        -1.02720e+58
          1142.25200	         7.86462e+55
          1143.05830	         1.32893e+58
          1143.86460	         1.15612e+58
          1144.67090	         3.35750e+58
          1145.47720	         9.75236e+57
          1146.28350	         1.60461e+57
          1147.08980	         1.72945e+58
          1147.89610	         2.10265e+58
          1148.70240	         2.92588e+58
          1149.50870	         2.29822e+58
          1150.31500	         1.32786e+58
          1151.12130	         8.79086e+57
          1151.92760	         5.90821e+57
          1152.73390	        -3.79565e+57
          1153.54020	        -2.59097e+57
          1154.34650	         1.81221e+58
          1155.15280	         1.39922e+58
          1155.95910	         1.62619e+58
          1156.76540	         1.24850e+58
          1157.57170	         1.25945e+58
          1158.37800	        -3.22644e+57
          1159.18430	        -1.41517e+57
          1159.99060	         1.19772e+58
          1160.79690	         6.32990e+57
          1161.60320	         7.78239e+57
          1162.40950	         1.70448e+58
          1163.21580	         1.39611e+58
          1164.02210	         1.60637e+58
          1164.82840	         1.08738e+58
          1165.63470	         2.00064e+58
          1166.44100	         3.61109e+58
          1167.24730	         3.32024e+58
          1168.05360	         7.27228e+57
          1168.85990	         7.37088e+57
          1169.66620	         1.08086e+58
          1170.47250	         1.50441e+58
          1171.27880	         1.48965e+58
          1172.08510	         7.43716e+57
          1172.89140	         7.95885e+57
          1173.69770	         1.32416e+58
          1174.50400	         1.75116e+58
          1175.31030	         1.66649e+58
          1176.11660	         1.85041e+58
          1176.92290	         1.53924e+58
          1177.72920	         9.56353e+57
          1178.53550	         8.25834e+57
          1179.34180	         4.38587e+57
          1180.14810	         5.87739e+57
          1180.95440	         1.15053e+58
          1181.76070	         1.11499e+58
          1182.56700	         9.26538e+57
          1183.37330	         1.00756e+58
          1184.17960	         1.91690e+58
          1184.98590	         1.40097e+58
          1185.79220	         6.97157e+57
          1186.59850	         9.53028e+57
          1187.40480	         1.11380e+58
          1188.21110	         1.07347e+58
          1189.01740	         3.94257e+57
          1189.82370	         1.20446e+58
          1190.63000	         1.74363e+58
          1191.43630	         1.41069e+58
          1192.24260	         1.11578e+58
          1193.04890	         1.36188e+58
          1193.85520	         1.09693e+58
          1194.66150	         6.60099e+57
          1195.46780	         1.00132e+58
          1196.27410	         1.12004e+58
          1197.08040	         8.79327e+57
          1197.88670	         1.31132e+58
          1198.69300	         1.31631e+58
          1199.49930	         1.57174e+58
          1200.30560	         1.40005e+58
          1201.11190	         1.06722e+58
          1201.91820	         8.44712e+57
          1202.72450	         9.22760e+57
          1203.53080	         1.69244e+58
          1204.33710	         1.07767e+58
          1205.14340	         6.28217e+57
          1205.94970	         5.17216e+57
          1206.75600	         6.74890e+57
          1207.56230	         4.16417e+57
          1208.36860	         6.95151e+57
          1209.17490	         7.01612e+57
          1209.98120	         5.68693e+57
          1210.78750	         9.50718e+57
          1211.59380	         1.28194e+58
          1212.40010	         1.60209e+58
          1213.20640	         1.89238e+58
          1214.01270	         1.81727e+58
          1214.81900	         2.43127e+58
          1215.62530	         4.52378e+58
          1216.43160	         8.86930e+58
          1217.23790	         1.50399e+59
          1218.04420	         1.18530e+59
          1218.85050	         9.28775e+58
          1219.65680	         6.19023e+58
          1220.46310	         3.31907e+58
          1221.26940	         2.04970e+58
          1222.07570	         1.24619e+58
          1222.88200	         1.11232e+58
          1223.68830	         1.13517e+58
          1224.49460	         6.69516e+57
          1225.30090	         8.53407e+57
          1226.10720	         8.55192e+57
          1226.91350	         8.85772e+57
          1227.71980	         1.04795e+58
          1228.52610	         1.40965e+58
          1229.33240	         1.23885e+58
          1230.13870	         7.19150e+57
          1230.94500	         8.41763e+57
          1231.75130	         8.16121e+57
          1232.55760	         1.10853e+58
          1233.36390	         1.00130e+58
          1234.17020	         1.01469e+58
          1234.97650	         8.68755e+57
          1235.78280	         8.51037e+57
          1236.58910	         7.08217e+57
          1237.39540	         8.88911e+57
          1238.20170	         9.75872e+57
          1239.00800	         1.33751e+58
          1239.81430	         1.57257e+58
          1240.62060	         1.23097e+58
          1241.42690	         1.20143e+58
          1242.23320	         1.35779e+58
          1243.03950	         9.96264e+57
          1243.84580	         9.68851e+57
          1244.65210	         1.12629e+58
          1245.45840	         1.02558e+58
          1246.26470	         9.49711e+57
          1247.07100	         1.11238e+58
          1247.87730	         9.03496e+57
          1248.68360	         5.66210e+57
          1249.48990	         9.75209e+57
          1250.29620	         1.10708e+58
          1251.10250	         7.56291e+57
          1251.90880	         6.07514e+57
          1252.71510	         5.55629e+57
          1253.52140	         4.78115e+57
          1254.32770	         1.03957e+58
          1255.13400	         1.37239e+58
          1255.94030	         1.08707e+58
          1256.74660	         9.50136e+57
          1257.55290	         1.03734e+58
          1258.35920	         8.02372e+57
          1259.16550	         5.38733e+57
          1259.97180	         5.95653e+57
          1260.77810	         6.85795e+57
          1261.58440	         8.32156e+57
          1262.39070	         7.55059e+57
          1263.19700	         8.99235e+57
          1264.00330	         1.15870e+58
          1264.80960	         1.37603e+58
          1265.61590	         1.34796e+58
          1266.42220	         1.18077e+58
          1267.22850	         8.87122e+57
          1268.03480	         1.30166e+58
          1268.84110	         1.46315e+58
          1269.64740	         1.16277e+58
          1270.45370	         1.25853e+58
          1271.26000	         1.27823e+58
          1272.06630	         1.38075e+58
          1272.87260	         1.31191e+58
          1273.67890	         1.09092e+58
          1274.48520	         1.08822e+58
          1275.29150	         1.35101e+58
          1276.09780	         1.10423e+58
          1276.90410	         1.25903e+58
          1277.71040	         1.28112e+58
          1278.51670	         1.26613e+58
          1279.32300	         1.39702e+58
          1280.12930	         1.20061e+58
          1280.93560	         1.12281e+58
          1281.74190	         1.31814e+58
          1282.54820	         1.21532e+58
          1283.35450	         9.34557e+57
          1284.16080	         1.12923e+58
          1284.96710	         1.49284e+58
          1285.77340	         1.20296e+58
          1286.57970	         1.15968e+58
          1287.38600	         1.43022e+58
          1288.19230	         1.67194e+58
          1288.99860	         1.41066e+58
          1289.80490	         1.09916e+58
          1290.61120	         1.31133e+58
          1291.41750	         1.32318e+58
          1292.22380	         1.12325e+58
          1293.03010	         1.09423e+58
          1293.83640	         1.06004e+58
          1294.64270	         9.73817e+57
          1295.44900	         7.35228e+57
          1296.25530	         6.63701e+57
          1297.06160	         9.76378e+57
          1297.86790	         1.13906e+58
          1298.67420	         8.72413e+57
          1299.48050	         1.04211e+58
          1300.28680	         1.11406e+58
          1301.09310	         7.78432e+57
          1301.89940	         3.72454e+57
          1302.70570	         5.82240e+57
          1303.51200	         8.55970e+57
          1304.31830	         1.02353e+58
          1305.12460	         1.14605e+58
          1305.93090	         1.07251e+58
          1306.73720	         1.26235e+58
          1307.54350	         1.53933e+58
          1308.34980	         1.44591e+58
          1309.15610	         1.44990e+58
          1309.96240	         1.32260e+58
          1310.76870	         1.15711e+58
          1311.57500	         1.14498e+58
          1312.38130	         1.12184e+58
          1313.18760	         1.04841e+58
          1313.99390	         1.62913e+58
          1314.80020	         1.73430e+58
          1315.60650	         1.37945e+58
          1316.41280	         1.21608e+58
          1317.21910	         1.15574e+58
          1318.02540	         1.27674e+58
          1318.83170	         1.39923e+58
          1319.63800	         1.25545e+58
          1320.44430	         1.14625e+58
          1321.25060	         1.17076e+58
          1322.05690	         1.25476e+58
          1322.86320	         1.21594e+58
          1323.66950	         1.23869e+58
          1324.47580	         1.07056e+58
          1325.28210	         9.73010e+57
          1326.08840	         1.07772e+58
          1326.89470	         1.08493e+58
          1327.70100	         9.14637e+57
          1328.50730	         7.36300e+57
          1329.31360	         8.65801e+57
          1330.11990	         9.83787e+57
          1330.92620	         8.59196e+57
          1331.73250	         9.59018e+57
          1332.53880	         9.88321e+57
          1333.34510	         1.02779e+58
          1334.15140	         1.04395e+58
          1334.95770	         9.92073e+57
          1335.76400	         1.05139e+58
          1336.57030	         1.10293e+58
          1337.37660	         9.05184e+57
          1338.18290	         8.98511e+57
          1338.98920	         1.05959e+58
          1339.79550	         1.14659e+58
          1340.60180	         1.19132e+58
          1341.40810	         1.15100e+58
          1342.21440	         1.13224e+58
          1343.02070	         1.32278e+58
          1343.82700	         1.42581e+58
          1344.63330	         1.34013e+58
          1345.43960	         1.28405e+58
          1346.24590	         1.11071e+58
          1347.05220	         1.11313e+58
          1347.85850	         9.65766e+57
          1348.66480	         1.23547e+58
          1349.47110	         1.34050e+58
          1350.27740	         1.24738e+58
          1351.08370	         1.10600e+58
          1351.89000	         1.16204e+58
          1352.69630	         1.24761e+58
          1353.50260	         1.22010e+58
          1354.30890	         1.29875e+58
          1355.11520	         1.22657e+58
          1355.92150	         1.11875e+58
          1356.72780	         1.05363e+58
          1357.53410	         1.10512e+58
          1358.34040	         1.09753e+58
          1359.14670	         1.08365e+58
          1359.95300	         1.10353e+58
          1360.75930	         1.13353e+58
          1361.56560	         1.23205e+58
          1362.37190	         1.31677e+58
          1363.17820	         1.16913e+58
          1363.98450	         1.23597e+58
          1364.79080	         1.40159e+58
          1365.59710	         1.33944e+58
          1366.40340	         1.30196e+58
          1367.20970	         1.06130e+58
          1368.01600	         1.08972e+58
          1368.82230	         1.11063e+58
          1369.62860	         1.04120e+58
          1370.43490	         9.03443e+57
          1371.24120	         1.04827e+58
          1372.04750	         9.61515e+57
          1372.85380	         1.11225e+58
          1373.66010	         1.07224e+58
          1374.46640	         1.01440e+58
          1375.27270	         1.20434e+58
          1376.07900	         1.00506e+58
          1376.88530	         8.65465e+57
          1377.69160	         9.10204e+57
          1378.49790	         6.97291e+57
          1379.30420	         7.56147e+57
          1380.11050	         9.86753e+57
          1380.91680	         9.05426e+57
          1381.72310	         7.67408e+57
          1382.52940	         7.39740e+57
          1383.33570	         7.70410e+57
          1384.14200	         8.70035e+57
          1384.94830	         9.88448e+57
          1385.75460	         1.00047e+58
          1386.56090	         1.10718e+58
          1387.36720	         1.06901e+58
          1388.17350	         1.21665e+58
          1388.97980	         1.06603e+58
          1389.78610	         8.60335e+57
          1390.59240	         8.23308e+57
          1391.39870	         8.09572e+57
          1392.20500	         7.83504e+57
          1393.01130	         6.52686e+57
          1393.81760	         7.09751e+57
          1394.62390	         8.00736e+57
          1395.43020	         6.59746e+57
          1396.23650	         5.89501e+57
          1397.04280	         7.37290e+57
          1397.84910	         8.92809e+57
          1398.65540	         9.59572e+57
          1399.46170	         9.86058e+57
          1400.26800	         9.27896e+57
          1401.07430	         8.60910e+57
          1401.88060	         8.87997e+57
          1402.68690	         1.00317e+58
          1403.49320	         1.02396e+58
          1404.29950	         9.15515e+57
          1405.10580	         1.18158e+58
          1405.91210	         1.14675e+58
          1406.71840	         1.08499e+58
          1407.52470	         1.14250e+58
          1408.33100	         1.13292e+58
          1409.13730	         1.03007e+58
          1409.94360	         1.06326e+58
          1410.74990	         1.24037e+58
          1411.55620	         1.06115e+58
          1412.36250	         9.80763e+57
          1413.16880	         9.78822e+57
          1413.97510	         8.60725e+57
          1414.78140	         9.46274e+57
          1415.58770	         1.13988e+58
          1416.39400	         1.14139e+58
          1417.20030	         1.04768e+58
          1418.00660	         9.34505e+57
          1418.81290	         1.07276e+58
          1419.61920	         1.15025e+58
          1420.42550	         1.30085e+58
          1421.23180	         1.43961e+58
          1422.03810	         1.29515e+58
          1422.84440	         1.13792e+58
          1423.65070	         1.29210e+58
          1424.45700	         1.18287e+58
          1425.26330	         8.01932e+57
          1426.06960	         8.32917e+57
          1426.87590	         8.98830e+57
          1427.68220	         1.01573e+58
          1428.48850	         1.12731e+58
          1429.29480	         1.03672e+58
          1430.10110	         9.97636e+57
          1430.90740	         9.26832e+57
          1431.71370	         8.82117e+57
          1432.52000	         8.17277e+57
          1433.32630	         7.71297e+57
          1434.13260	         8.33646e+57
          1434.93890	         7.97315e+57
          1435.74520	         8.40161e+57
          1436.55150	         9.58857e+57
          1437.35780	         9.27247e+57
          1438.16410	         9.35422e+57
          1438.97040	         9.57290e+57
          1439.77670	         8.74730e+57
          1440.58300	         8.56819e+57
          1441.38930	         9.89891e+57
          1442.19560	         1.01179e+58
          1443.00190	         9.70913e+57
          1443.80820	         1.12758e+58
          1444.61450	         1.03309e+58
          1445.42080	         8.86037e+57
          1446.22710	         1.09373e+58
          1447.03340	         1.12019e+58
          1447.83970	         1.14081e+58
          1448.64600	         1.05349e+58
          1449.45230	         1.05697e+58
          1450.25860	         1.06583e+58
          1451.06490	         1.00748e+58
          1451.87120	         7.81077e+57
          1452.67750	         6.94296e+57
          1453.48380	         8.42395e+57
          1454.29010	         7.66713e+57
          1455.09640	         7.90529e+57
          1455.90270	         8.55127e+57
          1456.70900	         7.71350e+57
          1457.51530	         9.02330e+57
          1458.32160	         1.16492e+58
          1459.12790	         1.19117e+58
          1459.93420	         1.09622e+58
          1460.74050	         8.11677e+57
          1461.54680	         7.47406e+57
          1462.35310	         8.41825e+57
          1463.15940	         1.00087e+58
          1463.96570	         1.11259e+58
          1464.77200	         1.20366e+58
          1465.57830	         9.95100e+57
          1466.38460	         9.05337e+57
          1467.19090	         8.29275e+57
          1467.99720	         8.47498e+57
          1468.80350	         9.55977e+57
          1469.60980	         9.52362e+57
          1470.41610	         9.70813e+57
          1471.22240	         7.90251e+57
          1472.02870	         8.26970e+57
          1472.83500	         9.21925e+57
          1473.64130	         9.95371e+57
          1474.44760	         1.05897e+58
          1475.25390	         1.04131e+58
          1476.06020	         9.24134e+57
          1476.86650	         8.91238e+57
          1477.67280	         7.91236e+57
          1478.47910	         6.57866e+57
          1479.28540	         5.98804e+57
          1480.09170	         8.04735e+57
          1480.89800	         9.50158e+57
          1481.70430	         9.71847e+57
          1482.51060	         8.89310e+57
          1483.31690	         8.98873e+57
          1484.12320	         8.57355e+57
          1484.92950	         7.91191e+57
          1485.73580	         7.70944e+57
          1486.54210	         9.48328e+57
          1487.34840	         1.01735e+58
          1488.15470	         8.96741e+57
          1488.96100	         9.30741e+57
          1489.76730	         9.31995e+57
