#sample_41_stacked_spectrum_rest_UV-bands_median_H-alpha_noDC.txt
#median Lum: 1.69908e+42
#Rest-frame wavelength (A) | Luminosity (erg/s/A)
#
          1110.00000	         0.00000e+00
          1110.80630	         5.12296e+59
          1111.61260	         7.56064e+58
          1112.41890	        -2.49515e+58
          1113.22520	         2.12572e+59
          1114.03150	        -1.31221e+59
          1114.83780	         9.51722e+57
          1115.64410	        -1.09744e+58
          1116.45040	        -8.53119e+58
          1117.25670	         9.06347e+58
          1118.06300	         1.64961e+59
          1118.86930	         3.48164e+58
          1119.67560	         1.69135e+58
          1120.48190	        -7.47444e+58
          1121.28820	        -1.12980e+59
          1122.09450	         3.28732e+58
          1122.90080	        -1.38251e+58
          1123.70710	         6.91315e+58
          1124.51340	         1.21821e+59
          1125.31970	         4.20313e+58
          1126.12600	        -2.90688e+58
          1126.93230	        -1.18761e+58
          1127.73860	        -3.13927e+58
          1128.54490	         1.51476e+57
          1129.35120	         7.89905e+57
          1130.15750	         2.12850e+58
          1130.96380	        -3.81141e+58
          1131.77010	         4.25234e+58
          1132.57640	         5.65360e+58
          1133.38270	         4.79505e+58
          1134.18900	         3.55170e+58
          1134.99530	         1.22698e+58
          1135.80160	         2.63600e+58
          1136.60790	         6.49232e+57
          1137.41420	        -2.65967e+57
          1138.22050	         4.10519e+58
          1139.02680	         2.14364e+58
          1139.83310	         3.98103e+58
          1140.63940	         2.04796e+58
          1141.44570	        -1.93737e+58
          1142.25200	        -7.10876e+57
          1143.05830	         2.54805e+58
          1143.86460	         3.82460e+58
          1144.67090	         2.08998e+58
          1145.47720	         6.01668e+57
          1146.28350	         2.15614e+58
          1147.08980	         1.06022e+58
          1147.89610	         2.17829e+58
          1148.70240	         1.83377e+58
          1149.50870	         1.91898e+58
          1150.31500	         1.47032e+58
          1151.12130	         4.66324e+57
          1151.92760	         1.35458e+58
          1152.73390	         2.37211e+58
          1153.54020	        -1.19399e+57
          1154.34650	         1.92695e+58
          1155.15280	         2.02104e+58
          1155.95910	         1.39049e+58
          1156.76540	         1.17670e+58
          1157.57170	         2.63382e+57
          1158.37800	         6.44310e+56
          1159.18430	         2.06395e+57
          1159.99060	         2.02549e+58
          1160.79690	         1.17219e+58
          1161.60320	         1.35997e+58
          1162.40950	         1.16528e+58
          1163.21580	         1.96195e+58
          1164.02210	         8.49996e+57
          1164.82840	         1.04282e+58
          1165.63470	         1.08163e+58
          1166.44100	         2.79091e+58
          1167.24730	         2.43555e+58
          1168.05360	         1.57424e+58
          1168.85990	         4.81726e+57
          1169.66620	         9.56070e+57
          1170.47250	         4.02021e+57
          1171.27880	         4.99696e+57
          1172.08510	         2.04779e+58
          1172.89140	         1.48451e+58
          1173.69770	         7.54578e+57
          1174.50400	         1.30291e+58
          1175.31030	         1.39034e+58
          1176.11660	         1.57235e+58
          1176.92290	         1.50249e+58
          1177.72920	         1.00576e+58
          1178.53550	         2.98350e+57
          1179.34180	         1.79306e+57
          1180.14810	         9.31535e+57
          1180.95440	         1.20384e+58
          1181.76070	         6.57182e+57
          1182.56700	         5.71297e+57
          1183.37330	         1.58697e+57
          1184.17960	         6.65266e+57
          1184.98590	         1.04226e+58
          1185.79220	         7.46300e+57
          1186.59850	         1.01482e+58
          1187.40480	         1.04596e+58
          1188.21110	         1.77960e+58
          1189.01740	         1.28038e+58
          1189.82370	         8.80263e+57
          1190.63000	         8.42201e+57
          1191.43630	         1.30810e+58
          1192.24260	         7.62845e+57
          1193.04890	         1.40338e+58
          1193.85520	         1.10476e+58
          1194.66150	         3.86905e+57
          1195.46780	         9.67251e+57
          1196.27410	         1.52770e+58
          1197.08040	         1.40725e+58
          1197.88670	         1.70234e+58
          1198.69300	         1.99075e+58
          1199.49930	         1.61590e+58
          1200.30560	         1.21834e+58
          1201.11190	         1.32450e+58
          1201.91820	         9.85757e+57
          1202.72450	         7.06638e+57
          1203.53080	         1.39205e+58
          1204.33710	         9.21301e+57
          1205.14340	         5.89023e+57
          1205.94970	         4.65897e+57
          1206.75600	         6.17234e+57
          1207.56230	         4.86515e+57
          1208.36860	         1.09074e+58
          1209.17490	         4.92448e+57
          1209.98120	         4.58548e+57
          1210.78750	         9.92673e+57
          1211.59380	         1.45291e+58
          1212.40010	         1.78943e+58
          1213.20640	         2.03253e+58
          1214.01270	         2.12688e+58
          1214.81900	         2.59581e+58
          1215.62530	         4.55018e+58
          1216.43160	         9.02799e+58
          1217.23790	         1.51040e+59
          1218.04420	         1.13248e+59
          1218.85050	         8.54197e+58
          1219.65680	         5.65891e+58
          1220.46310	         3.44814e+58
          1221.26940	         2.20678e+58
          1222.07570	         1.38242e+58
          1222.88200	         8.39850e+57
          1223.68830	         5.90885e+57
          1224.49460	         6.65946e+57
          1225.30090	         7.35418e+57
          1226.10720	         8.07697e+57
          1226.91350	         1.09449e+58
          1227.71980	         1.09163e+58
          1228.52610	         9.72477e+57
          1229.33240	         8.17197e+57
          1230.13870	         1.04046e+58
          1230.94500	         7.98197e+57
          1231.75130	         9.65389e+57
          1232.55760	         9.41878e+57
          1233.36390	         8.70400e+57
          1234.17020	         1.16468e+58
          1234.97650	         1.06470e+58
          1235.78280	         8.53574e+57
          1236.58910	         1.10441e+58
          1237.39540	         1.31245e+58
          1238.20170	         1.22812e+58
          1239.00800	         1.14862e+58
          1239.81430	         1.22864e+58
          1240.62060	         9.14776e+57
          1241.42690	         1.01656e+58
          1242.23320	         1.20176e+58
          1243.03950	         8.34777e+57
          1243.84580	         8.27719e+57
          1244.65210	         1.23729e+58
          1245.45840	         1.22067e+58
          1246.26470	         8.90777e+57
          1247.07100	         6.65515e+57
          1247.87730	         7.20429e+57
          1248.68360	         3.43704e+57
          1249.48990	         1.00870e+58
          1250.29620	         1.28948e+58
          1251.10250	         8.12371e+57
          1251.90880	         4.89634e+57
          1252.71510	         5.26503e+57
          1253.52140	         7.09581e+57
          1254.32770	         1.08881e+58
          1255.13400	         1.37141e+58
          1255.94030	         1.34167e+58
          1256.74660	         1.15978e+58
          1257.55290	         1.07015e+58
          1258.35920	         9.56773e+57
          1259.16550	         8.50338e+57
          1259.97180	         7.14443e+57
          1260.77810	         1.07890e+58
          1261.58440	         1.31912e+58
          1262.39070	         9.42176e+57
          1263.19700	         8.82113e+57
          1264.00330	         9.64201e+57
          1264.80960	         1.22211e+58
          1265.61590	         1.48235e+58
          1266.42220	         1.36646e+58
          1267.22850	         1.09648e+58
          1268.03480	         1.48659e+58
          1268.84110	         1.59086e+58
          1269.64740	         1.24642e+58
          1270.45370	         1.23639e+58
          1271.26000	         1.21571e+58
          1272.06630	         1.52632e+58
          1272.87260	         1.23545e+58
          1273.67890	         1.03005e+58
          1274.48520	         1.21568e+58
          1275.29150	         1.43632e+58
          1276.09780	         1.25506e+58
          1276.90410	         1.41780e+58
          1277.71040	         1.48095e+58
          1278.51670	         1.03179e+58
          1279.32300	         1.21339e+58
          1280.12930	         1.46134e+58
          1280.93560	         1.14443e+58
          1281.74190	         1.30172e+58
          1282.54820	         1.34206e+58
          1283.35450	         1.14054e+58
          1284.16080	         1.05981e+58
          1284.96710	         1.34989e+58
          1285.77340	         1.28232e+58
          1286.57970	         1.08647e+58
          1287.38600	         1.55780e+58
          1288.19230	         1.85142e+58
          1288.99860	         1.43204e+58
          1289.80490	         1.15930e+58
          1290.61120	         1.37590e+58
          1291.41750	         1.39336e+58
          1292.22380	         1.18042e+58
          1293.03010	         1.12021e+58
          1293.83640	         1.12104e+58
          1294.64270	         9.26174e+57
          1295.44900	         4.88361e+57
          1296.25530	         5.54523e+57
          1297.06160	         1.06150e+58
          1297.86790	         1.00757e+58
          1298.67420	         9.95665e+57
          1299.48050	         1.19722e+58
          1300.28680	         1.02530e+58
          1301.09310	         7.07645e+57
          1301.89940	         5.26782e+57
          1302.70570	         6.22620e+57
          1303.51200	         7.75604e+57
          1304.31830	         1.00010e+58
          1305.12460	         1.08507e+58
          1305.93090	         1.10060e+58
          1306.73720	         1.21911e+58
          1307.54350	         1.27594e+58
          1308.34980	         1.38838e+58
          1309.15610	         1.62654e+58
          1309.96240	         1.58760e+58
          1310.76870	         1.44041e+58
          1311.57500	         1.26455e+58
          1312.38130	         1.16393e+58
          1313.18760	         1.20109e+58
          1313.99390	         1.35584e+58
          1314.80020	         1.40386e+58
          1315.60650	         1.48265e+58
          1316.41280	         1.25023e+58
          1317.21910	         1.08970e+58
          1318.02540	         1.40689e+58
          1318.83170	         1.35157e+58
          1319.63800	         1.16492e+58
          1320.44430	         1.20031e+58
          1321.25060	         1.22391e+58
          1322.05690	         1.13587e+58
          1322.86320	         1.10090e+58
          1323.66950	         1.07996e+58
          1324.47580	         1.02808e+58
          1325.28210	         9.73077e+57
          1326.08840	         1.08480e+58
          1326.89470	         1.26355e+58
          1327.70100	         1.13082e+58
          1328.50730	         8.37248e+57
          1329.31360	         9.96085e+57
          1330.11990	         1.12310e+58
          1330.92620	         1.00020e+58
          1331.73250	         1.05291e+58
          1332.53880	         1.03373e+58
          1333.34510	         1.01338e+58
          1334.15140	         9.14324e+57
          1334.95770	         8.96410e+57
          1335.76400	         1.06051e+58
          1336.57030	         1.09193e+58
          1337.37660	         1.09368e+58
          1338.18290	         1.16586e+58
          1338.98920	         1.18574e+58
          1339.79550	         1.06364e+58
          1340.60180	         1.09958e+58
          1341.40810	         1.32548e+58
          1342.21440	         1.26336e+58
          1343.02070	         1.18873e+58
          1343.82700	         1.42627e+58
          1344.63330	         1.46349e+58
          1345.43960	         1.31302e+58
          1346.24590	         1.22571e+58
          1347.05220	         1.23386e+58
          1347.85850	         1.24128e+58
          1348.66480	         1.15834e+58
          1349.47110	         1.19709e+58
          1350.27740	         1.24364e+58
          1351.08370	         1.21039e+58
          1351.89000	         1.09525e+58
          1352.69630	         1.14928e+58
          1353.50260	         1.19728e+58
          1354.30890	         1.16590e+58
          1355.11520	         1.13653e+58
          1355.92150	         1.10862e+58
          1356.72780	         1.12416e+58
          1357.53410	         1.21470e+58
          1358.34040	         1.16456e+58
          1359.14670	         9.88324e+57
          1359.95300	         1.05875e+58
          1360.75930	         1.14986e+58
          1361.56560	         1.11444e+58
          1362.37190	         1.17307e+58
          1363.17820	         1.14290e+58
          1363.98450	         1.24836e+58
          1364.79080	         1.18423e+58
          1365.59710	         1.06711e+58
          1366.40340	         1.03836e+58
          1367.20970	         9.51971e+57
          1368.01600	         1.01788e+58
          1368.82230	         9.39300e+57
          1369.62860	         7.85788e+57
          1370.43490	         7.95997e+57
          1371.24120	         8.46473e+57
          1372.04750	         8.23551e+57
          1372.85380	         1.09357e+58
          1373.66010	         1.20972e+58
          1374.46640	         1.12107e+58
          1375.27270	         1.03665e+58
          1376.07900	         8.68035e+57
          1376.88530	         8.14263e+57
          1377.69160	         8.08644e+57
          1378.49790	         7.48635e+57
          1379.30420	         7.50696e+57
          1380.11050	         8.11085e+57
          1380.91680	         7.67091e+57
          1381.72310	         6.81731e+57
          1382.52940	         6.92777e+57
          1383.33570	         7.63163e+57
          1384.14200	         8.17677e+57
          1384.94830	         9.99083e+57
          1385.75460	         1.05324e+58
          1386.56090	         1.07777e+58
          1387.36720	         1.00072e+58
          1388.17350	         1.23518e+58
          1388.97980	         1.12149e+58
          1389.78610	         9.25538e+57
          1390.59240	         7.83606e+57
          1391.39870	         7.04688e+57
          1392.20500	         9.67699e+57
          1393.01130	         8.76704e+57
          1393.81760	         7.60747e+57
          1394.62390	         6.98285e+57
          1395.43020	         6.21168e+57
          1396.23650	         6.47919e+57
          1397.04280	         6.11562e+57
          1397.84910	         7.98969e+57
          1398.65540	         9.43786e+57
          1399.46170	         9.73010e+57
          1400.26800	         8.66741e+57
          1401.07430	         7.64941e+57
          1401.88060	         8.76914e+57
          1402.68690	         1.00759e+58
          1403.49320	         9.09606e+57
          1404.29950	         7.95190e+57
          1405.10580	         8.83379e+57
          1405.91210	         1.06800e+58
          1406.71840	         1.10582e+58
          1407.52470	         1.08626e+58
          1408.33100	         1.17737e+58
          1409.13730	         1.23739e+58
          1409.94360	         1.18154e+58
          1410.74990	         1.15375e+58
          1411.55620	         1.09321e+58
          1412.36250	         9.03015e+57
          1413.16880	         8.93822e+57
          1413.97510	         8.69238e+57
          1414.78140	         8.85557e+57
          1415.58770	         9.79387e+57
          1416.39400	         1.00842e+58
          1417.20030	         1.10917e+58
          1418.00660	         9.83547e+57
          1418.81290	         9.99900e+57
          1419.61920	         1.09927e+58
          1420.42550	         1.29736e+58
          1421.23180	         1.32138e+58
          1422.03810	         1.08783e+58
          1422.84440	         1.06359e+58
          1423.65070	         1.39011e+58
          1424.45700	         1.19937e+58
          1425.26330	         7.21639e+57
          1426.06960	         6.66612e+57
          1426.87590	         1.00138e+58
          1427.68220	         1.17352e+58
          1428.48850	         1.25789e+58
          1429.29480	         1.08630e+58
          1430.10110	         9.59623e+57
          1430.90740	         8.40823e+57
          1431.71370	         7.95479e+57
          1432.52000	         8.76986e+57
          1433.32630	         9.18929e+57
          1434.13260	         8.31488e+57
          1434.93890	         7.76369e+57
          1435.74520	         8.93161e+57
          1436.55150	         9.69703e+57
          1437.35780	         8.94697e+57
          1438.16410	         9.53909e+57
          1438.97040	         9.76723e+57
          1439.77670	         9.87216e+57
          1440.58300	         9.81885e+57
          1441.38930	         9.73274e+57
          1442.19560	         9.54282e+57
          1443.00190	         9.73529e+57
          1443.80820	         1.17505e+58
          1444.61450	         9.70427e+57
          1445.42080	         8.40281e+57
          1446.22710	         1.08127e+58
          1447.03340	         1.08924e+58
          1447.83970	         9.77027e+57
          1448.64600	         1.01870e+58
          1449.45230	         8.56969e+57
          1450.25860	         8.53292e+57
          1451.06490	         8.75307e+57
          1451.87120	         8.21417e+57
          1452.67750	         8.21195e+57
          1453.48380	         9.14664e+57
          1454.29010	         7.58174e+57
          1455.09640	         7.13629e+57
          1455.90270	         8.85165e+57
          1456.70900	         8.30463e+57
          1457.51530	         8.60770e+57
          1458.32160	         1.23665e+58
          1459.12790	         1.31513e+58
          1459.93420	         1.10162e+58
          1460.74050	         7.31837e+57
          1461.54680	         7.25843e+57
          1462.35310	         7.71102e+57
          1463.15940	         8.51730e+57
          1463.96570	         1.07964e+58
          1464.77200	         1.18143e+58
          1465.57830	         1.01088e+58
          1466.38460	         8.89271e+57
          1467.19090	         8.81970e+57
          1467.99720	         8.71998e+57
          1468.80350	         8.82029e+57
          1469.60980	         8.63170e+57
          1470.41610	         9.65538e+57
          1471.22240	         9.14100e+57
          1472.02870	         9.25218e+57
          1472.83500	         1.01733e+58
          1473.64130	         9.21083e+57
          1474.44760	         7.96781e+57
          1475.25390	         8.60499e+57
          1476.06020	         8.53508e+57
          1476.86650	         8.10890e+57
          1477.67280	         9.31771e+57
          1478.47910	         8.49665e+57
          1479.28540	         7.58278e+57
          1480.09170	         8.87873e+57
          1480.89800	         9.19631e+57
          1481.70430	         8.81730e+57
          1482.51060	         7.77723e+57
          1483.31690	         7.93181e+57
          1484.12320	         8.04380e+57
          1484.92950	         7.56318e+57
          1485.73580	         7.52959e+57
          1486.54210	         9.04188e+57
          1487.34840	         9.49272e+57
          1488.15470	         9.19491e+57
          1488.96100	         9.73172e+57
          1489.76730	         9.39089e+57
