#sample_61_stacked_spectrum_rest_UV-bands_median_H-alpha_noDC.txt
#median Lum: 1.70401e+42
#Rest-frame wavelength (A) | Luminosity (erg/s/A)
#
          1110.00000	         0.00000e+00
          1110.80630	         9.05265e+58
          1111.61260	         3.06946e+59
          1112.41890	         5.94914e+58
          1113.22520	         1.17525e+59
          1114.03150	        -1.56312e+59
          1114.83780	         2.53958e+59
          1115.64410	         2.81478e+59
          1116.45040	         1.61206e+59
          1117.25670	         7.89898e+58
          1118.06300	         2.85173e+59
          1118.86930	        -5.23765e+58
          1119.67560	         1.48863e+59
          1120.48190	         9.45339e+58
          1121.28820	         1.15387e+58
          1122.09450	         3.41142e+58
          1122.90080	        -8.93437e+57
          1123.70710	         7.10444e+58
          1124.51340	         6.56196e+58
          1125.31970	         6.83702e+57
          1126.12600	        -2.57905e+58
          1126.93230	        -3.69635e+58
          1127.73860	        -3.21007e+58
          1128.54490	        -2.73553e+58
          1129.35120	        -8.25330e+57
          1130.15750	        -1.16238e+58
          1130.96380	         1.81123e+58
          1131.77010	         6.50759e+58
          1132.57640	         3.93206e+58
          1133.38270	         3.88543e+58
          1134.18900	         1.29723e+58
          1134.99530	         2.99283e+58
          1135.80160	         3.42399e+58
          1136.60790	         5.75134e+56
          1137.41420	        -1.85853e+58
          1138.22050	         2.23156e+58
          1139.02680	         1.67374e+58
          1139.83310	        -4.17770e+57
          1140.63940	         2.18529e+57
          1141.44570	        -4.33276e+57
          1142.25200	         5.06110e+57
          1143.05830	         2.75328e+58
          1143.86460	         3.07025e+58
          1144.67090	         4.09764e+58
          1145.47720	         2.76000e+58
          1146.28350	         1.88475e+58
          1147.08980	         1.27409e+58
          1147.89610	         1.23153e+58
          1148.70240	         2.70105e+58
          1149.50870	         2.66775e+58
          1150.31500	         1.69537e+58
          1151.12130	         3.80652e+57
          1151.92760	         2.14962e+57
          1152.73390	        -4.56509e+57
          1153.54020	        -2.35803e+57
          1154.34650	         1.95265e+58
          1155.15280	         1.83723e+58
          1155.95910	         1.10484e+58
          1156.76540	         8.80860e+57
          1157.57170	         3.13992e+57
          1158.37800	        -5.43316e+57
          1159.18430	        -4.14530e+57
          1159.99060	        -8.04534e+56
          1160.79690	         5.01924e+57
          1161.60320	         5.26270e+57
          1162.40950	         1.48645e+58
          1163.21580	         1.65380e+58
          1164.02210	         1.12907e+58
          1164.82840	         7.12679e+57
          1165.63470	         1.93545e+58
          1166.44100	         2.93001e+58
          1167.24730	         1.74633e+58
          1168.05360	         5.90240e+57
          1168.85990	         1.17293e+58
          1169.66620	         1.38141e+58
          1170.47250	         1.04288e+58
          1171.27880	         6.08836e+57
          1172.08510	         1.19094e+58
          1172.89140	         1.22821e+58
          1173.69770	         5.50387e+57
          1174.50400	         8.74776e+57
          1175.31030	         1.95414e+58
          1176.11660	         1.77858e+58
          1176.92290	         1.32969e+58
          1177.72920	         8.85949e+57
          1178.53550	         5.36211e+57
          1179.34180	         7.24009e+57
          1180.14810	         8.14910e+57
          1180.95440	         1.00634e+58
          1181.76070	         5.24016e+57
          1182.56700	         7.85718e+57
          1183.37330	         1.05927e+58
          1184.17960	         1.56716e+58
          1184.98590	         1.51211e+58
          1185.79220	         9.47511e+57
          1186.59850	         1.48919e+58
          1187.40480	         1.13340e+58
          1188.21110	         1.15225e+58
          1189.01740	         2.71323e+57
          1189.82370	         5.08158e+57
          1190.63000	         9.56731e+57
          1191.43630	         1.29698e+58
          1192.24260	         9.76047e+57
          1193.04890	         1.25334e+58
          1193.85520	         9.65948e+57
          1194.66150	         5.20411e+57
          1195.46780	         1.18734e+58
          1196.27410	         1.60426e+58
          1197.08040	         1.29891e+58
          1197.88670	         1.14627e+58
          1198.69300	         1.51152e+58
          1199.49930	         1.55481e+58
          1200.30560	         1.37734e+58
          1201.11190	         1.14060e+58
          1201.91820	         8.20101e+57
          1202.72450	         6.54470e+57
          1203.53080	         1.42745e+58
          1204.33710	         8.70063e+57
          1205.14340	         2.10105e+57
          1205.94970	         3.25556e+57
          1206.75600	         7.41669e+57
          1207.56230	         7.69027e+57
          1208.36860	         6.24919e+57
          1209.17490	         8.30910e+57
          1209.98120	         8.08718e+57
          1210.78750	         1.26697e+58
          1211.59380	         1.32590e+58
          1212.40010	         1.89855e+58
          1213.20640	         1.95913e+58
          1214.01270	         2.17817e+58
          1214.81900	         2.54080e+58
          1215.62530	         4.29031e+58
          1216.43160	         9.03841e+58
          1217.23790	         1.51972e+59
          1218.04420	         1.19001e+59
          1218.85050	         8.65456e+58
          1219.65680	         5.44644e+58
          1220.46310	         3.09773e+58
          1221.26940	         1.98460e+58
          1222.07570	         1.34296e+58
          1222.88200	         1.16202e+58
          1223.68830	         1.06428e+58
          1224.49460	         6.53486e+57
          1225.30090	         5.19266e+57
          1226.10720	         5.29872e+57
          1226.91350	         7.24871e+57
          1227.71980	         9.55008e+57
          1228.52610	         1.08103e+58
          1229.33240	         9.91754e+57
          1230.13870	         8.13140e+57
          1230.94500	         8.12305e+57
          1231.75130	         6.16220e+57
          1232.55760	         6.80622e+57
          1233.36390	         8.79691e+57
          1234.17020	         1.22743e+58
          1234.97650	         1.07717e+58
          1235.78280	         8.86408e+57
          1236.58910	         7.14463e+57
          1237.39540	         6.72570e+57
          1238.20170	         7.71584e+57
          1239.00800	         1.11380e+58
          1239.81430	         1.29696e+58
          1240.62060	         8.72310e+57
          1241.42690	         1.00769e+58
          1242.23320	         9.34717e+57
          1243.03950	         8.83751e+57
          1243.84580	         1.06834e+58
          1244.65210	         8.61677e+57
          1245.45840	         9.20263e+57
          1246.26470	         9.62161e+57
          1247.07100	         8.04706e+57
          1247.87730	         8.32582e+57
          1248.68360	         2.87819e+57
          1249.48990	         7.98247e+57
          1250.29620	         9.05300e+57
          1251.10250	         6.62252e+57
          1251.90880	         5.66785e+57
          1252.71510	         3.81371e+57
          1253.52140	         4.63289e+57
          1254.32770	         8.87879e+57
          1255.13400	         1.26019e+58
          1255.94030	         1.19161e+58
          1256.74660	         1.05454e+58
          1257.55290	         1.03528e+58
          1258.35920	         1.02172e+58
          1259.16550	         4.92406e+57
          1259.97180	         6.00163e+57
          1260.77810	         8.64420e+57
          1261.58440	         1.26634e+58
          1262.39070	         9.51201e+57
          1263.19700	         7.40729e+57
          1264.00330	         9.57182e+57
          1264.80960	         1.15445e+58
          1265.61590	         1.19294e+58
          1266.42220	         1.06639e+58
          1267.22850	         8.87938e+57
          1268.03480	         1.32310e+58
          1268.84110	         1.71126e+58
          1269.64740	         1.49784e+58
          1270.45370	         1.33254e+58
          1271.26000	         1.13204e+58
          1272.06630	         1.19301e+58
          1272.87260	         1.36390e+58
          1273.67890	         1.43628e+58
          1274.48520	         1.34376e+58
          1275.29150	         1.48972e+58
          1276.09780	         1.23120e+58
          1276.90410	         1.42341e+58
          1277.71040	         1.43773e+58
          1278.51670	         1.07926e+58
          1279.32300	         1.30499e+58
          1280.12930	         1.20411e+58
          1280.93560	         1.11178e+58
          1281.74190	         1.19454e+58
          1282.54820	         1.42525e+58
          1283.35450	         1.25529e+58
          1284.16080	         1.09204e+58
          1284.96710	         1.38731e+58
          1285.77340	         1.16563e+58
          1286.57970	         1.26032e+58
          1287.38600	         1.60102e+58
          1288.19230	         1.83049e+58
          1288.99860	         1.65121e+58
          1289.80490	         1.08166e+58
          1290.61120	         1.39102e+58
          1291.41750	         1.66278e+58
          1292.22380	         1.35694e+58
          1293.03010	         1.19582e+58
          1293.83640	         1.25125e+58
          1294.64270	         1.00271e+58
          1295.44900	         7.07406e+57
          1296.25530	         7.54360e+57
          1297.06160	         1.15440e+58
          1297.86790	         1.15933e+58
          1298.67420	         1.02331e+58
          1299.48050	         9.32977e+57
          1300.28680	         1.08610e+58
          1301.09310	         8.60879e+57
          1301.89940	         3.73457e+57
          1302.70570	         6.99670e+57
          1303.51200	         8.62485e+57
          1304.31830	         9.45489e+57
          1305.12460	         1.15743e+58
          1305.93090	         1.26125e+58
          1306.73720	         1.17454e+58
          1307.54350	         1.37797e+58
          1308.34980	         1.62956e+58
          1309.15610	         1.75459e+58
          1309.96240	         1.67388e+58
          1310.76870	         1.34404e+58
          1311.57500	         8.68345e+57
          1312.38130	         8.30759e+57
          1313.18760	         1.15796e+58
          1313.99390	         1.55442e+58
          1314.80020	         1.82020e+58
          1315.60650	         1.51846e+58
          1316.41280	         1.08957e+58
          1317.21910	         8.41028e+57
          1318.02540	         1.08395e+58
          1318.83170	         1.27037e+58
          1319.63800	         1.24976e+58
          1320.44430	         1.08667e+58
          1321.25060	         1.28506e+58
          1322.05690	         1.29171e+58
          1322.86320	         1.20159e+58
          1323.66950	         1.16877e+58
          1324.47580	         9.90186e+57
          1325.28210	         9.83588e+57
          1326.08840	         1.16967e+58
          1326.89470	         1.37497e+58
          1327.70100	         1.16848e+58
          1328.50730	         7.68391e+57
          1329.31360	         8.22572e+57
          1330.11990	         9.37976e+57
          1330.92620	         8.92626e+57
          1331.73250	         1.06601e+58
          1332.53880	         9.29452e+57
          1333.34510	         8.74874e+57
          1334.15140	         9.11278e+57
          1334.95770	         8.73191e+57
          1335.76400	         1.10581e+58
          1336.57030	         1.12199e+58
          1337.37660	         1.08758e+58
          1338.18290	         1.12618e+58
          1338.98920	         1.17655e+58
          1339.79550	         1.19306e+58
          1340.60180	         1.17387e+58
          1341.40810	         1.32072e+58
          1342.21440	         1.24639e+58
          1343.02070	         1.14679e+58
          1343.82700	         1.20421e+58
          1344.63330	         1.20342e+58
          1345.43960	         1.17203e+58
          1346.24590	         1.03246e+58
          1347.05220	         1.26734e+58
          1347.85850	         1.13606e+58
          1348.66480	         1.28361e+58
          1349.47110	         1.31746e+58
          1350.27740	         1.21377e+58
          1351.08370	         1.19523e+58
          1351.89000	         1.28830e+58
          1352.69630	         1.25835e+58
          1353.50260	         1.05260e+58
          1354.30890	         1.02456e+58
          1355.11520	         1.10675e+58
          1355.92150	         9.11801e+57
          1356.72780	         8.72283e+57
          1357.53410	         9.64726e+57
          1358.34040	         1.11797e+58
          1359.14670	         9.71886e+57
          1359.95300	         1.04360e+58
          1360.75930	         1.10407e+58
          1361.56560	         1.07147e+58
          1362.37190	         1.14668e+58
          1363.17820	         1.13099e+58
          1363.98450	         1.20875e+58
          1364.79080	         1.23348e+58
          1365.59710	         1.29837e+58
          1366.40340	         1.17223e+58
          1367.20970	         8.62557e+57
          1368.01600	         9.04539e+57
          1368.82230	         1.01392e+58
          1369.62860	         1.02998e+58
          1370.43490	         9.87679e+57
          1371.24120	         1.02143e+58
          1372.04750	         9.23588e+57
          1372.85380	         1.08556e+58
          1373.66010	         1.25494e+58
          1374.46640	         1.16737e+58
          1375.27270	         1.03252e+58
          1376.07900	         9.54465e+57
          1376.88530	         8.50383e+57
          1377.69160	         8.32653e+57
          1378.49790	         7.95218e+57
          1379.30420	         7.12798e+57
          1380.11050	         8.53047e+57
          1380.91680	         8.72445e+57
          1381.72310	         8.41204e+57
          1382.52940	         8.64318e+57
          1383.33570	         8.67996e+57
          1384.14200	         1.04052e+58
          1384.94830	         1.10275e+58
          1385.75460	         1.06686e+58
          1386.56090	         9.94029e+57
          1387.36720	         9.97771e+57
          1388.17350	         1.23537e+58
          1388.97980	         1.04769e+58
          1389.78610	         8.47146e+57
          1390.59240	         8.21595e+57
          1391.39870	         6.03201e+57
          1392.20500	         7.73086e+57
          1393.01130	         8.89480e+57
          1393.81760	         7.06475e+57
          1394.62390	         6.76228e+57
          1395.43020	         7.47412e+57
          1396.23650	         7.01518e+57
          1397.04280	         6.37618e+57
          1397.84910	         8.26419e+57
          1398.65540	         9.64498e+57
          1399.46170	         1.15769e+58
          1400.26800	         1.06383e+58
          1401.07430	         7.63086e+57
          1401.88060	         7.27024e+57
          1402.68690	         8.78013e+57
          1403.49320	         9.64200e+57
          1404.29950	         9.30115e+57
          1405.10580	         1.00552e+58
          1405.91210	         1.02990e+58
          1406.71840	         1.07343e+58
          1407.52470	         1.03165e+58
          1408.33100	         9.02792e+57
          1409.13730	         1.00004e+58
          1409.94360	         1.22169e+58
          1410.74990	         1.22634e+58
          1411.55620	         1.08478e+58
          1412.36250	         9.66836e+57
          1413.16880	         9.49397e+57
          1413.97510	         7.74624e+57
          1414.78140	         7.70406e+57
          1415.58770	         9.46563e+57
          1416.39400	         9.99303e+57
          1417.20030	         1.11715e+58
          1418.00660	         1.06410e+58
          1418.81290	         1.01970e+58
          1419.61920	         1.01147e+58
          1420.42550	         1.29582e+58
          1421.23180	         1.43299e+58
          1422.03810	         1.24922e+58
          1422.84440	         1.15845e+58
          1423.65070	         1.22644e+58
          1424.45700	         1.06813e+58
          1425.26330	         8.74581e+57
          1426.06960	         8.18662e+57
          1426.87590	         9.93183e+57
          1427.68220	         1.03651e+58
          1428.48850	         1.05485e+58
          1429.29480	         9.69891e+57
          1430.10110	         8.99612e+57
          1430.90740	         8.39818e+57
          1431.71370	         7.41655e+57
          1432.52000	         7.45380e+57
          1433.32630	         7.51369e+57
          1434.13260	         7.90063e+57
          1434.93890	         8.40365e+57
          1435.74520	         9.54370e+57
          1436.55150	         9.19647e+57
          1437.35780	         8.69552e+57
          1438.16410	         9.00650e+57
          1438.97040	         8.85646e+57
          1439.77670	         9.47039e+57
          1440.58300	         1.02502e+58
          1441.38930	         1.04969e+58
          1442.19560	         9.37992e+57
          1443.00190	         9.18343e+57
          1443.80820	         1.09452e+58
          1444.61450	         1.03347e+58
          1445.42080	         9.08398e+57
          1446.22710	         1.06955e+58
          1447.03340	         9.55641e+57
          1447.83970	         1.01594e+58
          1448.64600	         1.10647e+58
          1449.45230	         9.61029e+57
          1450.25860	         9.49510e+57
          1451.06490	         7.88495e+57
          1451.87120	         7.27066e+57
          1452.67750	         7.92988e+57
          1453.48380	         8.65560e+57
          1454.29010	         8.07865e+57
          1455.09640	         8.35469e+57
          1455.90270	         9.14323e+57
          1456.70900	         7.94765e+57
          1457.51530	         8.72101e+57
          1458.32160	         1.12558e+58
          1459.12790	         1.11664e+58
          1459.93420	         1.06069e+58
          1460.74050	         8.69512e+57
          1461.54680	         8.20641e+57
          1462.35310	         8.66254e+57
          1463.15940	         9.70301e+57
          1463.96570	         1.16921e+58
          1464.77200	         1.12032e+58
          1465.57830	         1.03316e+58
          1466.38460	         9.66943e+57
          1467.19090	         9.04756e+57
          1467.99720	         8.97447e+57
          1468.80350	         8.61315e+57
          1469.60980	         9.41611e+57
          1470.41610	         9.94188e+57
          1471.22240	         9.87663e+57
          1472.02870	         1.04248e+58
          1472.83500	         9.89357e+57
          1473.64130	         9.59030e+57
          1474.44760	         9.01707e+57
          1475.25390	         9.00282e+57
          1476.06020	         8.85064e+57
          1476.86650	         7.40613e+57
          1477.67280	         7.82577e+57
          1478.47910	         8.21707e+57
          1479.28540	         7.30760e+57
          1480.09170	         8.74140e+57
          1480.89800	         9.67632e+57
          1481.70430	         8.83020e+57
          1482.51060	         7.46318e+57
          1483.31690	         8.07273e+57
          1484.12320	         8.06028e+57
          1484.92950	         8.25529e+57
          1485.73580	         9.58371e+57
          1486.54210	         9.83090e+57
          1487.34840	         1.04890e+58
          1488.15470	         8.90553e+57
          1488.96100	         7.63869e+57
          1489.76730	         7.89396e+57
