#sample_357_stacked_spectrum_rest_UV-bands_median_H-alpha_noDC.txt
#median Lum: 1.67852e+42
#Rest-frame wavelength (A) | Luminosity (erg/s/A)
#
          1110.00000	         0.00000e+00
          1110.80630	        -2.55052e+59
          1111.61260	         2.15975e+58
          1112.41890	         3.78441e+59
          1113.22520	         2.18606e+59
          1114.03150	        -5.68592e+58
          1114.83780	         6.59387e+58
          1115.64410	         2.00277e+58
          1116.45040	         4.44487e+58
          1117.25670	        -1.23767e+59
          1118.06300	         4.63464e+58
          1118.86930	         2.18765e+58
          1119.67560	         1.25464e+59
          1120.48190	         3.06381e+58
          1121.28820	        -7.28606e+58
          1122.09450	        -2.14128e+58
          1122.90080	         4.87325e+58
          1123.70710	         6.65847e+58
          1124.51340	         1.23508e+59
          1125.31970	         3.35037e+58
          1126.12600	        -2.81515e+58
          1126.93230	        -5.27725e+58
          1127.73860	        -5.65997e+58
          1128.54490	         1.17947e+58
          1129.35120	         1.17618e+58
          1130.15750	        -3.08151e+58
          1130.96380	        -5.78934e+58
          1131.77010	         5.86003e+58
          1132.57640	         4.62849e+58
          1133.38270	         6.33886e+57
          1134.18900	         2.44955e+58
          1134.99530	         2.44101e+58
          1135.80160	         1.70646e+58
          1136.60790	         1.16661e+58
          1137.41420	         9.05475e+57
          1138.22050	         4.09728e+58
          1139.02680	         3.01057e+58
          1139.83310	         7.84174e+57
          1140.63940	        -2.29265e+57
          1141.44570	        -1.88553e+58
          1142.25200	        -1.86083e+58
          1143.05830	         5.93455e+56
          1143.86460	         2.91650e+58
          1144.67090	         1.05711e+58
          1145.47720	         5.09763e+57
          1146.28350	         1.32187e+58
          1147.08980	         1.23511e+58
          1147.89610	         1.84352e+58
          1148.70240	         2.31141e+58
          1149.50870	         2.39712e+58
          1150.31500	         9.42230e+57
          1151.12130	         2.31457e+57
          1151.92760	         3.07254e+57
          1152.73390	         8.64026e+57
          1153.54020	         1.09746e+58
          1154.34650	         2.90772e+58
          1155.15280	         2.32872e+58
          1155.95910	         8.73075e+57
          1156.76540	         8.86488e+57
          1157.57170	         7.37683e+57
          1158.37800	         1.39776e+57
          1159.18430	        -1.25472e+57
          1159.99060	         8.41314e+57
          1160.79690	         7.93698e+57
          1161.60320	         1.36931e+58
          1162.40950	         1.47862e+58
          1163.21580	         8.81213e+57
          1164.02210	         1.26713e+58
          1164.82840	         5.13642e+57
          1165.63470	         1.87328e+58
          1166.44100	         3.08937e+58
          1167.24730	         1.65947e+58
          1168.05360	         8.30527e+57
          1168.85990	         8.52821e+57
          1169.66620	         1.03039e+58
          1170.47250	         8.83344e+57
          1171.27880	         9.28324e+57
          1172.08510	         1.39371e+58
          1172.89140	         1.26134e+58
          1173.69770	         5.25432e+57
          1174.50400	         1.29348e+58
          1175.31030	         1.61260e+58
          1176.11660	         1.44161e+58
          1176.92290	         1.36447e+58
          1177.72920	         1.31944e+58
          1178.53550	         8.50213e+57
          1179.34180	         2.60366e+57
          1180.14810	         1.23633e+58
          1180.95440	         1.95747e+58
          1181.76070	         1.12710e+58
          1182.56700	         8.41009e+57
          1183.37330	         1.09368e+58
          1184.17960	         1.48652e+58
          1184.98590	         1.23153e+58
          1185.79220	         5.52284e+57
          1186.59850	         9.59754e+57
          1187.40480	         8.59178e+57
          1188.21110	         1.21968e+58
          1189.01740	         1.15975e+58
          1189.82370	         6.65168e+57
          1190.63000	         4.72789e+57
          1191.43630	         1.07707e+58
          1192.24260	         9.30434e+57
          1193.04890	         1.03338e+58
          1193.85520	         6.67045e+57
          1194.66150	         1.09509e+57
          1195.46780	         1.00883e+58
          1196.27410	         1.38781e+58
          1197.08040	         8.22326e+57
          1197.88670	         1.32016e+58
          1198.69300	         1.57194e+58
          1199.49930	         1.38502e+58
          1200.30560	         1.05843e+58
          1201.11190	         1.22700e+58
          1201.91820	         1.35751e+58
          1202.72450	         1.15920e+58
          1203.53080	         1.63867e+58
          1204.33710	         8.21567e+57
          1205.14340	         6.99757e+57
          1205.94970	         7.17886e+57
          1206.75600	         1.04099e+58
          1207.56230	         7.28118e+57
          1208.36860	         7.21838e+57
          1209.17490	         2.05708e+57
          1209.98120	         2.85796e+57
          1210.78750	         8.87274e+57
          1211.59380	         1.15406e+58
          1212.40010	         1.48589e+58
          1213.20640	         2.00274e+58
          1214.01270	         1.90714e+58
          1214.81900	         2.50711e+58
          1215.62530	         4.57870e+58
          1216.43160	         9.24951e+58
          1217.23790	         1.52926e+59
          1218.04420	         1.12809e+59
          1218.85050	         8.19421e+58
          1219.65680	         5.27066e+58
          1220.46310	         3.18424e+58
          1221.26940	         2.09240e+58
          1222.07570	         1.43104e+58
          1222.88200	         1.15255e+58
          1223.68830	         8.53275e+57
          1224.49460	         8.06508e+57
          1225.30090	         8.42687e+57
          1226.10720	         8.50096e+57
          1226.91350	         7.04258e+57
          1227.71980	         8.88583e+57
          1228.52610	         9.05784e+57
          1229.33240	         8.63543e+57
          1230.13870	         7.54853e+57
          1230.94500	         7.53459e+57
          1231.75130	         5.03492e+57
          1232.55760	         9.70494e+57
          1233.36390	         9.92853e+57
          1234.17020	         8.67435e+57
          1234.97650	         7.97015e+57
          1235.78280	         1.01546e+58
          1236.58910	         9.49781e+57
          1237.39540	         1.23426e+58
          1238.20170	         1.38932e+58
          1239.00800	         1.31919e+58
          1239.81430	         1.43493e+58
          1240.62060	         1.24530e+58
          1241.42690	         1.18200e+58
          1242.23320	         1.18973e+58
          1243.03950	         1.07059e+58
          1243.84580	         1.09197e+58
          1244.65210	         1.19653e+58
          1245.45840	         9.79692e+57
          1246.26470	         8.08462e+57
          1247.07100	         7.48985e+57
          1247.87730	         7.27028e+57
          1248.68360	         4.25326e+57
          1249.48990	         7.19499e+57
          1250.29620	         9.57981e+57
          1251.10250	         1.09283e+58
          1251.90880	         8.53304e+57
          1252.71510	         6.47256e+57
          1253.52140	         6.81964e+57
          1254.32770	         8.69836e+57
          1255.13400	         1.34857e+58
          1255.94030	         1.23788e+58
          1256.74660	         9.46390e+57
          1257.55290	         1.01361e+58
          1258.35920	         8.82597e+57
          1259.16550	         6.52041e+57
          1259.97180	         4.21648e+57
          1260.77810	         7.28362e+57
          1261.58440	         9.57795e+57
          1262.39070	         6.32726e+57
          1263.19700	         6.40365e+57
          1264.00330	         8.25139e+57
          1264.80960	         1.13613e+58
          1265.61590	         1.24312e+58
          1266.42220	         1.13715e+58
          1267.22850	         9.74440e+57
          1268.03480	         1.18611e+58
          1268.84110	         1.44523e+58
          1269.64740	         1.34876e+58
          1270.45370	         1.26134e+58
          1271.26000	         1.16281e+58
          1272.06630	         1.17612e+58
          1272.87260	         1.29807e+58
          1273.67890	         1.36960e+58
          1274.48520	         1.16729e+58
          1275.29150	         1.09375e+58
          1276.09780	         9.93629e+57
          1276.90410	         1.32325e+58
          1277.71040	         1.33912e+58
          1278.51670	         1.24068e+58
          1279.32300	         1.29509e+58
          1280.12930	         1.22595e+58
          1280.93560	         1.25851e+58
          1281.74190	         1.39052e+58
          1282.54820	         1.31153e+58
          1283.35450	         1.27890e+58
          1284.16080	         1.23497e+58
          1284.96710	         1.38292e+58
          1285.77340	         1.28336e+58
          1286.57970	         1.20484e+58
          1287.38600	         1.49541e+58
          1288.19230	         1.67374e+58
          1288.99860	         1.32585e+58
          1289.80490	         9.19370e+57
          1290.61120	         1.35187e+58
          1291.41750	         1.61168e+58
          1292.22380	         1.41798e+58
          1293.03010	         1.27299e+58
          1293.83640	         1.29907e+58
          1294.64270	         8.99679e+57
          1295.44900	         6.59090e+57
          1296.25530	         9.32437e+57
          1297.06160	         1.21307e+58
          1297.86790	         1.17793e+58
          1298.67420	         7.49651e+57
          1299.48050	         8.29701e+57
          1300.28680	         1.05373e+58
          1301.09310	         7.84302e+57
          1301.89940	         3.44208e+57
          1302.70570	         6.48053e+57
          1303.51200	         8.58906e+57
          1304.31830	         1.01858e+58
          1305.12460	         1.08367e+58
          1305.93090	         1.15050e+58
          1306.73720	         1.25861e+58
          1307.54350	         1.34193e+58
          1308.34980	         1.37456e+58
          1309.15610	         1.52667e+58
          1309.96240	         1.43137e+58
          1310.76870	         1.37197e+58
          1311.57500	         1.03792e+58
          1312.38130	         9.71887e+57
          1313.18760	         1.33979e+58
          1313.99390	         1.56558e+58
          1314.80020	         1.53384e+58
          1315.60650	         1.41385e+58
          1316.41280	         1.31194e+58
          1317.21910	         1.23553e+58
          1318.02540	         1.23322e+58
          1318.83170	         1.37113e+58
          1319.63800	         1.19098e+58
          1320.44430	         1.17293e+58
          1321.25060	         1.22445e+58
          1322.05690	         1.13154e+58
          1322.86320	         1.13926e+58
          1323.66950	         1.06823e+58
          1324.47580	         8.30186e+57
          1325.28210	         1.00372e+58
          1326.08840	         1.05032e+58
          1326.89470	         1.20036e+58
          1327.70100	         1.05924e+58
          1328.50730	         7.01795e+57
          1329.31360	         8.41150e+57
          1330.11990	         8.36345e+57
          1330.92620	         8.99437e+57
          1331.73250	         1.09760e+58
          1332.53880	         1.11878e+58
          1333.34510	         1.11924e+58
          1334.15140	         9.43307e+57
          1334.95770	         8.64151e+57
          1335.76400	         1.01935e+58
          1336.57030	         1.05718e+58
          1337.37660	         1.06587e+58
          1338.18290	         1.09097e+58
          1338.98920	         1.19635e+58
          1339.79550	         1.09213e+58
          1340.60180	         1.12590e+58
          1341.40810	         1.27164e+58
          1342.21440	         1.13298e+58
          1343.02070	         1.13675e+58
          1343.82700	         1.29637e+58
          1344.63330	         1.22482e+58
          1345.43960	         1.34944e+58
          1346.24590	         1.24160e+58
          1347.05220	         1.24790e+58
          1347.85850	         1.11116e+58
          1348.66480	         1.03167e+58
          1349.47110	         1.11448e+58
          1350.27740	         1.19831e+58
          1351.08370	         1.13270e+58
          1351.89000	         1.24952e+58
          1352.69630	         1.36887e+58
          1353.50260	         1.20600e+58
          1354.30890	         1.01770e+58
          1355.11520	         1.06503e+58
          1355.92150	         1.08370e+58
          1356.72780	         1.04436e+58
          1357.53410	         1.16329e+58
          1358.34040	         1.19086e+58
          1359.14670	         1.06814e+58
          1359.95300	         1.04222e+58
          1360.75930	         1.18381e+58
          1361.56560	         1.12615e+58
          1362.37190	         1.24852e+58
          1363.17820	         1.23150e+58
          1363.98450	         1.15553e+58
          1364.79080	         1.35017e+58
          1365.59710	         1.47425e+58
          1366.40340	         1.36904e+58
          1367.20970	         1.20332e+58
          1368.01600	         1.05811e+58
          1368.82230	         9.80183e+57
          1369.62860	         9.58089e+57
          1370.43490	         8.65546e+57
          1371.24120	         8.84284e+57
          1372.04750	         9.20461e+57
          1372.85380	         1.13723e+58
          1373.66010	         1.09500e+58
          1374.46640	         9.93010e+57
          1375.27270	         1.09863e+58
          1376.07900	         9.40523e+57
          1376.88530	         7.46461e+57
          1377.69160	         8.52733e+57
          1378.49790	         7.81022e+57
          1379.30420	         7.64668e+57
          1380.11050	         8.89489e+57
          1380.91680	         6.30706e+57
          1381.72310	         5.81581e+57
          1382.52940	         7.71419e+57
          1383.33570	         8.19151e+57
          1384.14200	         1.02838e+58
          1384.94830	         1.12229e+58
          1385.75460	         9.31882e+57
          1386.56090	         1.00157e+58
          1387.36720	         1.07369e+58
          1388.17350	         1.34895e+58
          1388.97980	         1.34223e+58
          1389.78610	         9.87915e+57
          1390.59240	         8.89196e+57
          1391.39870	         7.65847e+57
          1392.20500	         8.12944e+57
          1393.01130	         8.20840e+57
          1393.81760	         8.44521e+57
          1394.62390	         9.15451e+57
          1395.43020	         7.08736e+57
          1396.23650	         7.04802e+57
          1397.04280	         8.58797e+57
          1397.84910	         8.42086e+57
          1398.65540	         8.14296e+57
          1399.46170	         9.13705e+57
          1400.26800	         8.69181e+57
          1401.07430	         7.81495e+57
          1401.88060	         6.60995e+57
          1402.68690	         7.95019e+57
          1403.49320	         9.35002e+57
          1404.29950	         9.88697e+57
          1405.10580	         1.11163e+58
          1405.91210	         1.11023e+58
          1406.71840	         9.67192e+57
          1407.52470	         9.42603e+57
          1408.33100	         1.05820e+58
          1409.13730	         1.23969e+58
          1409.94360	         1.27560e+58
          1410.74990	         1.22808e+58
          1411.55620	         1.08885e+58
          1412.36250	         9.41412e+57
          1413.16880	         9.03350e+57
          1413.97510	         8.12732e+57
          1414.78140	         8.09575e+57
          1415.58770	         1.01799e+58
          1416.39400	         1.11165e+58
          1417.20030	         1.15139e+58
          1418.00660	         1.03760e+58
          1418.81290	         9.56296e+57
          1419.61920	         1.03748e+58
          1420.42550	         1.40493e+58
          1421.23180	         1.54351e+58
          1422.03810	         1.18528e+58
          1422.84440	         1.16731e+58
          1423.65070	         1.29293e+58
          1424.45700	         1.00753e+58
          1425.26330	         6.59907e+57
          1426.06960	         7.70645e+57
          1426.87590	         1.01365e+58
          1427.68220	         9.96164e+57
          1428.48850	         1.01800e+58
          1429.29480	         1.09303e+58
          1430.10110	         1.04926e+58
          1430.90740	         8.13695e+57
          1431.71370	         8.31222e+57
          1432.52000	         8.28179e+57
          1433.32630	         7.43096e+57
          1434.13260	         8.11051e+57
          1434.93890	         7.66433e+57
          1435.74520	         8.74197e+57
          1436.55150	         9.70050e+57
          1437.35780	         8.93599e+57
          1438.16410	         1.00250e+58
          1438.97040	         9.57107e+57
          1439.77670	         9.36041e+57
          1440.58300	         9.68022e+57
          1441.38930	         9.04718e+57
          1442.19560	         1.00370e+58
          1443.00190	         1.05528e+58
          1443.80820	         1.10873e+58
          1444.61450	         9.53817e+57
          1445.42080	         7.82043e+57
          1446.22710	         9.68358e+57
          1447.03340	         9.15301e+57
          1447.83970	         9.93181e+57
          1448.64600	         1.09675e+58
          1449.45230	         1.07912e+58
          1450.25860	         9.95366e+57
          1451.06490	         8.71396e+57
          1451.87120	         7.82406e+57
          1452.67750	         7.97952e+57
          1453.48380	         9.35899e+57
          1454.29010	         8.06935e+57
          1455.09640	         6.71025e+57
          1455.90270	         8.61916e+57
          1456.70900	         8.65951e+57
          1457.51530	         9.82393e+57
          1458.32160	         1.28047e+58
          1459.12790	         1.18514e+58
          1459.93420	         9.61650e+57
          1460.74050	         8.31808e+57
          1461.54680	         8.35999e+57
          1462.35310	         7.81860e+57
          1463.15940	         1.07591e+58
          1463.96570	         1.24430e+58
          1464.77200	         1.19063e+58
          1465.57830	         1.03785e+58
          1466.38460	         9.23574e+57
          1467.19090	         9.00894e+57
          1467.99720	         8.22682e+57
          1468.80350	         8.33425e+57
          1469.60980	         8.54283e+57
          1470.41610	         9.96824e+57
          1471.22240	         1.05266e+58
          1472.02870	         1.05670e+58
          1472.83500	         1.02526e+58
          1473.64130	         9.35151e+57
          1474.44760	         8.10716e+57
          1475.25390	         8.08418e+57
          1476.06020	         8.59042e+57
          1476.86650	         8.26408e+57
          1477.67280	         7.37291e+57
          1478.47910	         7.25291e+57
          1479.28540	         7.67182e+57
          1480.09170	         8.45336e+57
          1480.89800	         8.33319e+57
          1481.70430	         8.35765e+57
          1482.51060	         8.13492e+57
          1483.31690	         7.87943e+57
          1484.12320	         7.27310e+57
          1484.92950	         7.91224e+57
          1485.73580	         8.45256e+57
          1486.54210	         8.72670e+57
          1487.34840	         8.45351e+57
          1488.15470	         7.96912e+57
          1488.96100	         7.72132e+57
          1489.76730	         8.58857e+57
