#sample_113_stacked_spectrum_rest_UV-bands_median_H-alpha_noDC.txt
#median Lum: 1.69519e+42
#Rest-frame wavelength (A) | Luminosity (erg/s/A)
#
          1110.00000	         0.00000e+00
          1110.80630	         4.62069e+59
          1111.61260	         3.61085e+59
          1112.41890	         2.10676e+59
          1113.22520	        -1.97352e+59
          1114.03150	        -6.23464e+58
          1114.83780	         1.24610e+59
          1115.64410	        -5.76613e+58
          1116.45040	         2.50586e+59
          1117.25670	         1.43280e+59
          1118.06300	         1.65991e+59
          1118.86930	        -3.27571e+58
          1119.67560	         8.04387e+58
          1120.48190	         1.20826e+58
          1121.28820	        -7.46959e+58
          1122.09450	        -7.87364e+58
          1122.90080	        -3.58672e+58
          1123.70710	         7.99695e+58
          1124.51340	         1.17874e+59
          1125.31970	         1.52408e+58
          1126.12600	         4.43797e+58
          1126.93230	        -3.38548e+57
          1127.73860	        -4.20919e+57
          1128.54490	        -3.94571e+58
          1129.35120	        -5.94082e+57
          1130.15750	        -3.98808e+58
          1130.96380	        -2.72808e+58
          1131.77010	         5.40289e+58
          1132.57640	         4.36741e+58
          1133.38270	         3.13708e+58
          1134.18900	         3.82575e+57
          1134.99530	        -1.64315e+58
          1135.80160	        -1.74586e+58
          1136.60790	         9.72683e+57
          1137.41420	        -1.60728e+58
          1138.22050	         2.26425e+58
          1139.02680	         4.41817e+58
          1139.83310	         3.39497e+58
          1140.63940	         1.63293e+58
          1141.44570	        -7.75216e+57
          1142.25200	        -7.59874e+57
          1143.05830	         1.57452e+58
          1143.86460	         3.85631e+58
          1144.67090	         3.50432e+58
          1145.47720	         1.85865e+58
          1146.28350	         1.66423e+58
          1147.08980	         1.32041e+58
          1147.89610	         1.07813e+58
          1148.70240	         3.11802e+58
          1149.50870	         2.61985e+58
          1150.31500	         1.00653e+58
          1151.12130	         1.24077e+58
          1151.92760	         4.00740e+57
          1152.73390	        -1.44460e+55
          1153.54020	         6.18407e+57
          1154.34650	         2.28208e+58
          1155.15280	         2.16740e+58
          1155.95910	         1.86979e+57
          1156.76540	         4.13493e+57
          1157.57170	         3.70285e+57
          1158.37800	         1.14240e+58
          1159.18430	         1.02354e+58
          1159.99060	         8.47734e+57
          1160.79690	        -1.01446e+57
          1161.60320	         9.19892e+57
          1162.40950	         1.22496e+58
          1163.21580	         2.20369e+58
          1164.02210	         1.34451e+58
          1164.82840	         9.50128e+57
          1165.63470	         1.54360e+58
          1166.44100	         2.66972e+58
          1167.24730	         1.70753e+58
          1168.05360	         1.04146e+58
          1168.85990	         7.03258e+57
          1169.66620	         9.94868e+57
          1170.47250	         1.17091e+58
          1171.27880	         6.19158e+57
          1172.08510	         1.36485e+58
          1172.89140	         1.03743e+58
          1173.69770	         7.28831e+57
          1174.50400	         8.80187e+57
          1175.31030	         1.19607e+58
          1176.11660	         1.67993e+58
          1176.92290	         1.61935e+58
          1177.72920	         1.84629e+58
          1178.53550	         8.30619e+57
          1179.34180	         7.20271e+57
          1180.14810	         9.35876e+57
          1180.95440	         1.23513e+58
          1181.76070	         8.99166e+57
          1182.56700	         6.70953e+57
          1183.37330	         4.63266e+57
          1184.17960	         7.66542e+57
          1184.98590	         9.87703e+57
          1185.79220	         9.05358e+57
          1186.59850	         1.27578e+58
          1187.40480	         7.91987e+57
          1188.21110	         1.28362e+58
          1189.01740	         8.30684e+57
          1189.82370	         1.23584e+58
          1190.63000	         1.50170e+58
          1191.43630	         1.75448e+58
          1192.24260	         8.38754e+57
          1193.04890	         9.49562e+57
          1193.85520	         1.40726e+58
          1194.66150	         9.00245e+57
          1195.46780	         1.11926e+58
          1196.27410	         1.77354e+58
          1197.08040	         1.71578e+58
          1197.88670	         1.20354e+58
          1198.69300	         1.25543e+58
          1199.49930	         1.14858e+58
          1200.30560	         7.07035e+57
          1201.11190	         8.44797e+57
          1201.91820	         8.78534e+57
          1202.72450	         7.79993e+57
          1203.53080	         1.33104e+58
          1204.33710	         6.78938e+57
          1205.14340	         5.20965e+57
          1205.94970	         2.51092e+57
          1206.75600	         6.95334e+57
          1207.56230	         7.54223e+57
          1208.36860	         9.24651e+57
          1209.17490	         3.67191e+57
          1209.98120	         2.63441e+57
          1210.78750	         1.43659e+57
          1211.59380	         9.11701e+57
          1212.40010	         1.92684e+58
          1213.20640	         1.89966e+58
          1214.01270	         2.16476e+58
          1214.81900	         2.82861e+58
          1215.62530	         4.80378e+58
          1216.43160	         9.17680e+58
          1217.23790	         1.50848e+59
          1218.04420	         1.13068e+59
          1218.85050	         8.62412e+58
          1219.65680	         5.64666e+58
          1220.46310	         3.33057e+58
          1221.26940	         2.43726e+58
          1222.07570	         1.61965e+58
          1222.88200	         9.39989e+57
          1223.68830	         7.16243e+57
          1224.49460	         8.59605e+57
          1225.30090	         4.07101e+57
          1226.10720	         4.28712e+57
          1226.91350	         9.18036e+57
          1227.71980	         9.91386e+57
          1228.52610	         8.90941e+57
          1229.33240	         5.92558e+57
          1230.13870	         6.52296e+57
          1230.94500	         1.06346e+58
          1231.75130	         5.13513e+57
          1232.55760	         6.75653e+57
          1233.36390	         7.76435e+57
          1234.17020	         8.05756e+57
          1234.97650	         7.03057e+57
          1235.78280	         6.37744e+57
          1236.58910	         8.54036e+57
          1237.39540	         8.79231e+57
          1238.20170	         6.71287e+57
          1239.00800	         1.12590e+58
          1239.81430	         1.42035e+58
          1240.62060	         7.77675e+57
          1241.42690	         8.17402e+57
          1242.23320	         1.05674e+58
          1243.03950	         6.08303e+57
          1243.84580	         6.72876e+57
          1244.65210	         8.20862e+57
          1245.45840	         6.28503e+57
          1246.26470	         7.20988e+57
          1247.07100	         6.47606e+57
          1247.87730	         6.01262e+57
          1248.68360	         6.12376e+57
          1249.48990	         7.81788e+57
          1250.29620	         1.10941e+58
          1251.10250	         5.09381e+57
          1251.90880	         6.44608e+57
          1252.71510	         1.02496e+58
          1253.52140	         8.12364e+57
          1254.32770	         9.80529e+57
          1255.13400	         1.22676e+58
          1255.94030	         1.13368e+58
          1256.74660	         1.11101e+58
          1257.55290	         1.22425e+58
          1258.35920	         9.69080e+57
          1259.16550	         7.32843e+57
          1259.97180	         6.27197e+57
          1260.77810	         9.11683e+57
          1261.58440	         1.29454e+58
          1262.39070	         9.95221e+57
          1263.19700	         9.58743e+57
          1264.00330	         1.19023e+58
          1264.80960	         1.20819e+58
          1265.61590	         1.05638e+58
          1266.42220	         1.15362e+58
          1267.22850	         1.25919e+58
          1268.03480	         1.53804e+58
          1268.84110	         1.64972e+58
          1269.64740	         1.32652e+58
          1270.45370	         1.10764e+58
          1271.26000	         1.12866e+58
          1272.06630	         1.12761e+58
          1272.87260	         1.15084e+58
          1273.67890	         1.17542e+58
          1274.48520	         1.14086e+58
          1275.29150	         1.31330e+58
          1276.09780	         1.17951e+58
          1276.90410	         1.41184e+58
          1277.71040	         1.36710e+58
          1278.51670	         1.10998e+58
          1279.32300	         1.30334e+58
          1280.12930	         1.16967e+58
          1280.93560	         9.56696e+57
          1281.74190	         1.04299e+58
          1282.54820	         1.15972e+58
          1283.35450	         1.03578e+58
          1284.16080	         1.22548e+58
          1284.96710	         1.45518e+58
          1285.77340	         1.24466e+58
          1286.57970	         1.12295e+58
          1287.38600	         1.37869e+58
          1288.19230	         1.68071e+58
          1288.99860	         1.33370e+58
          1289.80490	         1.01887e+58
          1290.61120	         1.17842e+58
          1291.41750	         1.25214e+58
          1292.22380	         1.22450e+58
          1293.03010	         1.17325e+58
          1293.83640	         1.29954e+58
          1294.64270	         1.09512e+58
          1295.44900	         6.97837e+57
          1296.25530	         7.51213e+57
          1297.06160	         1.02945e+58
          1297.86790	         1.15224e+58
          1298.67420	         8.51498e+57
          1299.48050	         8.66784e+57
          1300.28680	         1.13791e+58
          1301.09310	         9.55197e+57
          1301.89940	         3.63862e+57
          1302.70570	         6.51529e+57
          1303.51200	         7.74399e+57
          1304.31830	         9.45754e+57
          1305.12460	         1.16233e+58
          1305.93090	         1.25997e+58
          1306.73720	         1.44405e+58
          1307.54350	         1.41883e+58
          1308.34980	         1.36485e+58
          1309.15610	         1.40305e+58
          1309.96240	         1.39965e+58
          1310.76870	         1.29358e+58
          1311.57500	         1.06025e+58
          1312.38130	         1.14283e+58
          1313.18760	         1.46520e+58
          1313.99390	         1.52764e+58
          1314.80020	         1.48198e+58
          1315.60650	         1.60639e+58
          1316.41280	         1.31854e+58
          1317.21910	         1.10395e+58
          1318.02540	         1.08312e+58
          1318.83170	         1.12226e+58
          1319.63800	         1.10978e+58
          1320.44430	         1.02967e+58
          1321.25060	         1.31211e+58
          1322.05690	         1.24624e+58
          1322.86320	         1.12255e+58
          1323.66950	         1.09617e+58
          1324.47580	         9.14139e+57
          1325.28210	         1.01299e+58
          1326.08840	         1.25595e+58
          1326.89470	         1.28647e+58
          1327.70100	         1.05597e+58
          1328.50730	         7.99690e+57
          1329.31360	         8.84311e+57
          1330.11990	         9.49118e+57
          1330.92620	         9.78662e+57
          1331.73250	         1.18988e+58
          1332.53880	         1.06433e+58
          1333.34510	         8.62415e+57
          1334.15140	         8.60423e+57
          1334.95770	         9.30211e+57
          1335.76400	         1.00706e+58
          1336.57030	         1.17766e+58
          1337.37660	         1.16821e+58
          1338.18290	         1.11596e+58
          1338.98920	         1.18397e+58
          1339.79550	         1.13145e+58
          1340.60180	         1.10399e+58
          1341.40810	         1.31302e+58
          1342.21440	         1.09865e+58
          1343.02070	         9.85443e+57
          1343.82700	         1.26496e+58
          1344.63330	         1.31730e+58
          1345.43960	         1.31777e+58
          1346.24590	         1.15496e+58
          1347.05220	         1.24502e+58
          1347.85850	         1.17918e+58
          1348.66480	         1.21725e+58
          1349.47110	         1.10353e+58
          1350.27740	         1.05633e+58
          1351.08370	         1.20456e+58
          1351.89000	         1.23610e+58
          1352.69630	         1.21804e+58
          1353.50260	         1.16828e+58
          1354.30890	         1.14702e+58
          1355.11520	         1.17939e+58
          1355.92150	         1.20608e+58
          1356.72780	         1.10114e+58
          1357.53410	         1.02991e+58
          1358.34040	         1.14879e+58
          1359.14670	         1.14605e+58
          1359.95300	         1.16239e+58
          1360.75930	         1.24860e+58
          1361.56560	         1.17798e+58
          1362.37190	         1.16588e+58
          1363.17820	         1.13854e+58
          1363.98450	         1.23196e+58
          1364.79080	         1.31546e+58
          1365.59710	         1.32370e+58
          1366.40340	         1.13921e+58
          1367.20970	         1.05957e+58
          1368.01600	         1.03459e+58
          1368.82230	         9.27877e+57
          1369.62860	         1.01443e+58
          1370.43490	         8.16500e+57
          1371.24120	         8.24596e+57
          1372.04750	         8.08725e+57
          1372.85380	         1.03820e+58
          1373.66010	         1.14383e+58
          1374.46640	         1.21548e+58
          1375.27270	         1.06647e+58
          1376.07900	         7.34106e+57
          1376.88530	         8.17502e+57
          1377.69160	         8.70139e+57
          1378.49790	         6.78988e+57
          1379.30420	         7.01639e+57
          1380.11050	         9.29395e+57
          1380.91680	         8.81163e+57
          1381.72310	         9.49014e+57
          1382.52940	         8.09213e+57
          1383.33570	         7.45277e+57
          1384.14200	         9.27898e+57
          1384.94830	         9.50122e+57
          1385.75460	         1.06484e+58
          1386.56090	         1.06833e+58
          1387.36720	         1.03001e+58
          1388.17350	         1.33605e+58
          1388.97980	         9.94624e+57
          1389.78610	         7.98238e+57
          1390.59240	         8.36568e+57
          1391.39870	         5.99529e+57
          1392.20500	         8.83040e+57
          1393.01130	         8.70863e+57
          1393.81760	         8.73203e+57
          1394.62390	         8.21849e+57
          1395.43020	         5.98530e+57
          1396.23650	         5.71602e+57
          1397.04280	         6.55999e+57
          1397.84910	         8.16767e+57
          1398.65540	         9.53722e+57
          1399.46170	         1.08891e+58
          1400.26800	         9.64752e+57
          1401.07430	         7.40807e+57
          1401.88060	         8.04124e+57
          1402.68690	         9.55688e+57
          1403.49320	         9.18812e+57
          1404.29950	         8.77194e+57
          1405.10580	         1.06448e+58
          1405.91210	         1.21092e+58
          1406.71840	         1.05021e+58
          1407.52470	         1.00355e+58
          1408.33100	         1.14179e+58
          1409.13730	         1.21976e+58
          1409.94360	         1.24727e+58
          1410.74990	         1.16657e+58
          1411.55620	         1.10316e+58
          1412.36250	         1.00883e+58
          1413.16880	         8.18447e+57
          1413.97510	         7.58861e+57
          1414.78140	         9.51277e+57
          1415.58770	         1.07445e+58
          1416.39400	         1.08588e+58
          1417.20030	         1.08865e+58
          1418.00660	         9.21588e+57
          1418.81290	         1.03806e+58
          1419.61920	         1.11631e+58
          1420.42550	         1.19358e+58
          1421.23180	         1.24062e+58
          1422.03810	         1.20241e+58
          1422.84440	         1.13218e+58
          1423.65070	         1.38980e+58
          1424.45700	         1.19016e+58
          1425.26330	         8.36181e+57
          1426.06960	         8.45335e+57
          1426.87590	         9.38075e+57
          1427.68220	         1.03647e+58
          1428.48850	         1.06734e+58
          1429.29480	         1.03185e+58
          1430.10110	         9.62606e+57
          1430.90740	         7.30767e+57
          1431.71370	         7.78831e+57
          1432.52000	         8.21492e+57
          1433.32630	         8.09232e+57
          1434.13260	         8.48217e+57
          1434.93890	         8.53515e+57
          1435.74520	         9.40329e+57
          1436.55150	         1.00039e+58
          1437.35780	         9.29842e+57
          1438.16410	         8.78632e+57
          1438.97040	         8.79972e+57
          1439.77670	         8.89513e+57
          1440.58300	         9.66631e+57
          1441.38930	         9.65896e+57
          1442.19560	         9.60224e+57
          1443.00190	         9.49888e+57
          1443.80820	         1.07786e+58
          1444.61450	         1.09369e+58
          1445.42080	         9.30345e+57
          1446.22710	         1.09252e+58
          1447.03340	         1.06869e+58
          1447.83970	         1.05339e+58
          1448.64600	         1.07230e+58
          1449.45230	         1.01571e+58
          1450.25860	         1.11438e+58
          1451.06490	         9.02088e+57
          1451.87120	         6.79313e+57
          1452.67750	         7.40620e+57
          1453.48380	         7.45796e+57
          1454.29010	         6.37199e+57
          1455.09640	         6.61363e+57
          1455.90270	         7.85826e+57
          1456.70900	         8.78363e+57
          1457.51530	         1.05118e+58
          1458.32160	         1.27331e+58
          1459.12790	         1.27087e+58
          1459.93420	         1.12168e+58
          1460.74050	         8.65457e+57
          1461.54680	         9.11536e+57
          1462.35310	         7.99175e+57
          1463.15940	         8.20398e+57
          1463.96570	         1.09835e+58
          1464.77200	         1.19928e+58
          1465.57830	         1.01007e+58
          1466.38460	         9.18139e+57
          1467.19090	         8.26139e+57
          1467.99720	         8.22688e+57
          1468.80350	         8.26149e+57
          1469.60980	         9.04417e+57
          1470.41610	         1.03084e+58
          1471.22240	         9.71207e+57
          1472.02870	         1.01556e+58
          1472.83500	         9.64885e+57
          1473.64130	         8.13852e+57
          1474.44760	         9.46656e+57
          1475.25390	         9.12944e+57
          1476.06020	         8.49739e+57
          1476.86650	         8.26824e+57
          1477.67280	         7.46620e+57
          1478.47910	         7.10258e+57
          1479.28540	         7.38280e+57
          1480.09170	         8.16443e+57
          1480.89800	         8.60283e+57
          1481.70430	         9.01690e+57
          1482.51060	         9.00369e+57
          1483.31690	         7.34913e+57
          1484.12320	         6.24641e+57
          1484.92950	         7.42960e+57
          1485.73580	         9.02048e+57
          1486.54210	         9.73822e+57
          1487.34840	         9.68294e+57
          1488.15470	         9.29458e+57
          1488.96100	         9.23937e+57
          1489.76730	         9.62609e+57
