#sample_488_stacked_spectrum_rest_UV-bands_median_H-alpha_noDC.txt
#median Lum: 1.68619e+42
#Rest-frame wavelength (A) | Luminosity (erg/s/A)
#
          1110.00000	         0.00000e+00
          1110.80630	         1.11099e+59
          1111.61260	        -3.34802e+57
          1112.41890	        -3.21413e+58
          1113.22520	        -8.59063e+58
          1114.03150	        -4.97942e+58
          1114.83780	        -7.36924e+58
          1115.64410	         3.31277e+57
          1116.45040	         7.53445e+58
          1117.25670	         1.15100e+59
          1118.06300	         1.87302e+59
          1118.86930	        -2.26580e+57
          1119.67560	         1.23375e+59
          1120.48190	        -6.19603e+58
          1121.28820	        -9.90422e+58
          1122.09450	        -8.15484e+57
          1122.90080	         8.83005e+57
          1123.70710	         9.68456e+58
          1124.51340	         5.86636e+58
          1125.31970	         7.90252e+58
          1126.12600	         9.88191e+58
          1126.93230	        -3.19558e+58
          1127.73860	        -7.62804e+58
          1128.54490	        -1.93909e+58
          1129.35120	        -2.53137e+58
          1130.15750	        -3.02205e+58
          1130.96380	        -1.25439e+58
          1131.77010	         8.43481e+58
          1132.57640	         3.52218e+58
          1133.38270	        -1.69702e+58
          1134.18900	         3.44517e+57
          1134.99530	         5.96306e+58
          1135.80160	         1.55454e+58
          1136.60790	         1.36989e+58
          1137.41420	        -2.71634e+56
          1138.22050	         4.14741e+58
          1139.02680	         3.14647e+58
          1139.83310	         1.62760e+58
          1140.63940	         1.24854e+58
          1141.44570	        -3.36882e+58
          1142.25200	        -4.50467e+56
          1143.05830	         2.42604e+58
          1143.86460	         2.06573e+58
          1144.67090	         3.21075e+58
          1145.47720	         2.02817e+58
          1146.28350	         1.33951e+58
          1147.08980	         8.67523e+57
          1147.89610	         2.49259e+58
          1148.70240	         2.03702e+58
          1149.50870	         2.11528e+58
          1150.31500	         1.48341e+58
          1151.12130	         8.96430e+57
          1151.92760	         6.59775e+57
          1152.73390	        -5.26992e+57
          1153.54020	        -9.74480e+56
          1154.34650	         2.01086e+58
          1155.15280	         2.31219e+58
          1155.95910	         2.52488e+58
          1156.76540	         7.79366e+57
          1157.57170	         3.58486e+57
          1158.37800	        -4.66675e+56
          1159.18430	         5.42650e+57
          1159.99060	         1.75654e+58
          1160.79690	         1.33186e+58
          1161.60320	         1.30692e+58
          1162.40950	         8.60157e+57
          1163.21580	         8.53108e+57
          1164.02210	         1.20135e+58
          1164.82840	         1.03878e+58
          1165.63470	         2.51922e+58
          1166.44100	         2.34928e+58
          1167.24730	         1.84286e+58
          1168.05360	         3.89958e+57
          1168.85990	         2.87085e+57
          1169.66620	         5.69979e+57
          1170.47250	         1.50244e+58
          1171.27880	         2.15995e+58
          1172.08510	         1.78533e+58
          1172.89140	         4.58692e+57
          1173.69770	         8.25816e+57
          1174.50400	         5.13599e+57
          1175.31030	         1.56016e+58
          1176.11660	         1.76175e+58
          1176.92290	         1.44350e+58
          1177.72920	         1.13666e+58
          1178.53550	         1.10057e+58
          1179.34180	         5.60276e+57
          1180.14810	         1.11979e+58
          1180.95440	         1.49176e+58
          1181.76070	         6.41524e+57
          1182.56700	         3.93527e+57
          1183.37330	         4.32123e+57
          1184.17960	         1.28050e+58
          1184.98590	         1.42025e+58
          1185.79220	         1.07979e+58
          1186.59850	         1.45210e+58
          1187.40480	         1.18649e+58
          1188.21110	         1.08210e+58
          1189.01740	         7.44998e+57
          1189.82370	         7.65472e+57
          1190.63000	         1.52998e+58
          1191.43630	         1.61129e+58
          1192.24260	         8.96062e+57
          1193.04890	         1.45424e+58
          1193.85520	         1.33982e+58
          1194.66150	         6.84437e+57
          1195.46780	         8.61345e+57
          1196.27410	         1.41117e+58
          1197.08040	         8.52521e+57
          1197.88670	         1.16805e+58
          1198.69300	         1.58075e+58
          1199.49930	         1.69343e+58
          1200.30560	         1.48461e+58
          1201.11190	         1.28528e+58
          1201.91820	         7.47060e+57
          1202.72450	         1.04712e+58
          1203.53080	         1.68507e+58
          1204.33710	         7.42863e+57
          1205.14340	         8.91017e+57
          1205.94970	         1.06334e+58
          1206.75600	         7.01124e+57
          1207.56230	         5.72044e+57
          1208.36860	         9.56528e+57
          1209.17490	         6.26519e+57
          1209.98120	         7.56438e+57
          1210.78750	         6.36194e+57
          1211.59380	         8.61000e+57
          1212.40010	         1.54698e+58
          1213.20640	         1.95820e+58
          1214.01270	         2.00991e+58
          1214.81900	         2.77865e+58
          1215.62530	         4.59644e+58
          1216.43160	         9.14544e+58
          1217.23790	         1.55161e+59
          1218.04420	         1.13589e+59
          1218.85050	         8.23929e+58
          1219.65680	         5.59140e+58
          1220.46310	         3.20538e+58
          1221.26940	         2.10504e+58
          1222.07570	         1.42715e+58
          1222.88200	         9.69229e+57
          1223.68830	         8.26167e+57
          1224.49460	         8.03401e+57
          1225.30090	         5.17391e+57
          1226.10720	         4.06328e+57
          1226.91350	         6.02558e+57
          1227.71980	         7.41333e+57
          1228.52610	         1.00067e+58
          1229.33240	         9.55404e+57
          1230.13870	         9.96583e+57
          1230.94500	         9.20384e+57
          1231.75130	         5.68850e+57
          1232.55760	         7.87848e+57
          1233.36390	         9.52292e+57
          1234.17020	         8.80952e+57
          1234.97650	         9.69569e+57
          1235.78280	         9.00131e+57
          1236.58910	         8.79779e+57
          1237.39540	         1.18447e+58
          1238.20170	         1.08237e+58
          1239.00800	         1.09580e+58
          1239.81430	         1.28634e+58
          1240.62060	         1.06429e+58
          1241.42690	         1.25988e+58
          1242.23320	         1.43458e+58
          1243.03950	         7.59117e+57
          1243.84580	         7.04711e+57
          1244.65210	         7.62085e+57
          1245.45840	         7.69998e+57
          1246.26470	         6.99295e+57
          1247.07100	         7.63009e+57
          1247.87730	         3.04711e+57
          1248.68360	         1.58330e+57
          1249.48990	         8.73891e+57
          1250.29620	         1.08047e+58
          1251.10250	         1.03409e+58
          1251.90880	         6.73796e+57
          1252.71510	         6.44432e+57
          1253.52140	         8.47480e+57
          1254.32770	         1.06239e+58
          1255.13400	         1.33002e+58
          1255.94030	         1.18812e+58
          1256.74660	         1.06547e+58
          1257.55290	         1.03855e+58
          1258.35920	         5.48047e+57
          1259.16550	         2.59119e+57
          1259.97180	         3.11601e+57
          1260.77810	         7.88849e+57
          1261.58440	         9.62199e+57
          1262.39070	         6.77279e+57
          1263.19700	         7.90708e+57
          1264.00330	         9.10879e+57
          1264.80960	         1.20926e+58
          1265.61590	         1.30708e+58
          1266.42220	         1.18850e+58
          1267.22850	         1.03093e+58
          1268.03480	         1.33599e+58
          1268.84110	         1.53604e+58
          1269.64740	         1.30808e+58
          1270.45370	         1.25974e+58
          1271.26000	         1.12297e+58
          1272.06630	         1.15143e+58
          1272.87260	         1.16357e+58
          1273.67890	         1.21720e+58
          1274.48520	         1.30829e+58
          1275.29150	         1.07717e+58
          1276.09780	         9.85086e+57
          1276.90410	         1.26975e+58
          1277.71040	         1.33535e+58
          1278.51670	         1.14006e+58
          1279.32300	         1.42372e+58
          1280.12930	         1.37483e+58
          1280.93560	         1.12720e+58
          1281.74190	         1.11455e+58
          1282.54820	         1.06251e+58
          1283.35450	         1.03010e+58
          1284.16080	         9.22399e+57
          1284.96710	         1.08643e+58
          1285.77340	         9.91519e+57
          1286.57970	         9.64902e+57
          1287.38600	         1.32362e+58
          1288.19230	         1.64397e+58
          1288.99860	         1.44523e+58
          1289.80490	         9.99393e+57
          1290.61120	         1.35588e+58
          1291.41750	         1.47089e+58
          1292.22380	         1.23012e+58
          1293.03010	         1.03275e+58
          1293.83640	         1.25573e+58
          1294.64270	         1.13669e+58
          1295.44900	         6.58743e+57
          1296.25530	         7.55817e+57
          1297.06160	         1.08114e+58
          1297.86790	         1.13016e+58
          1298.67420	         9.50511e+57
          1299.48050	         9.52402e+57
          1300.28680	         9.95692e+57
          1301.09310	         7.07735e+57
          1301.89940	         4.69832e+57
          1302.70570	         6.01891e+57
          1303.51200	         8.22737e+57
          1304.31830	         9.98912e+57
          1305.12460	         1.00891e+58
          1305.93090	         1.12800e+58
          1306.73720	         1.20353e+58
          1307.54350	         1.39068e+58
          1308.34980	         1.48089e+58
          1309.15610	         1.49881e+58
          1309.96240	         1.51951e+58
          1310.76870	         1.09556e+58
          1311.57500	         9.65285e+57
          1312.38130	         1.25395e+58
          1313.18760	         1.37316e+58
          1313.99390	         1.57014e+58
          1314.80020	         1.62485e+58
          1315.60650	         1.46695e+58
          1316.41280	         1.39796e+58
          1317.21910	         1.13584e+58
          1318.02540	         1.11317e+58
          1318.83170	         1.21751e+58
          1319.63800	         1.26313e+58
          1320.44430	         1.24037e+58
          1321.25060	         1.24840e+58
          1322.05690	         1.23628e+58
          1322.86320	         1.16057e+58
          1323.66950	         1.01986e+58
          1324.47580	         9.31199e+57
          1325.28210	         1.08189e+58
          1326.08840	         1.27995e+58
          1326.89470	         1.34982e+58
          1327.70100	         1.02812e+58
          1328.50730	         7.96558e+57
          1329.31360	         9.37812e+57
          1330.11990	         1.01012e+58
          1330.92620	         9.55323e+57
          1331.73250	         1.21825e+58
          1332.53880	         1.07976e+58
          1333.34510	         8.94000e+57
          1334.15140	         8.07300e+57
          1334.95770	         8.16650e+57
          1335.76400	         1.05729e+58
          1336.57030	         1.07386e+58
          1337.37660	         9.28520e+57
          1338.18290	         1.06017e+58
          1338.98920	         1.23471e+58
          1339.79550	         1.08149e+58
          1340.60180	         1.05528e+58
          1341.40810	         1.28892e+58
          1342.21440	         1.20981e+58
          1343.02070	         1.23817e+58
          1343.82700	         1.35124e+58
          1344.63330	         1.21311e+58
          1345.43960	         1.26019e+58
          1346.24590	         1.17402e+58
          1347.05220	         1.23275e+58
          1347.85850	         1.29420e+58
          1348.66480	         1.34812e+58
          1349.47110	         1.31137e+58
          1350.27740	         1.03119e+58
          1351.08370	         1.11346e+58
          1351.89000	         1.21395e+58
          1352.69630	         1.11414e+58
          1353.50260	         1.07722e+58
          1354.30890	         1.11962e+58
          1355.11520	         1.23544e+58
          1355.92150	         1.15614e+58
          1356.72780	         1.02277e+58
          1357.53410	         9.41122e+57
          1358.34040	         1.05201e+58
          1359.14670	         1.08765e+58
          1359.95300	         1.10516e+58
          1360.75930	         1.19053e+58
          1361.56560	         1.20515e+58
          1362.37190	         1.24146e+58
          1363.17820	         1.15964e+58
          1363.98450	         1.18280e+58
          1364.79080	         1.21420e+58
          1365.59710	         1.30355e+58
          1366.40340	         1.25796e+58
          1367.20970	         1.06994e+58
          1368.01600	         9.61182e+57
          1368.82230	         9.64822e+57
          1369.62860	         1.11862e+58
          1370.43490	         1.06854e+58
          1371.24120	         1.04747e+58
          1372.04750	         8.46156e+57
          1372.85380	         9.95491e+57
          1373.66010	         1.11833e+58
          1374.46640	         9.70487e+57
          1375.27270	         1.08692e+58
          1376.07900	         9.70223e+57
          1376.88530	         8.15203e+57
          1377.69160	         8.56829e+57
          1378.49790	         6.79320e+57
          1379.30420	         7.07861e+57
          1380.11050	         9.39893e+57
          1380.91680	         9.70202e+57
          1381.72310	         8.81854e+57
          1382.52940	         8.74579e+57
          1383.33570	         9.48928e+57
          1384.14200	         1.12206e+58
          1384.94830	         1.15674e+58
          1385.75460	         1.06657e+58
          1386.56090	         1.02107e+58
          1387.36720	         9.45097e+57
          1388.17350	         1.20763e+58
          1388.97980	         1.21239e+58
          1389.78610	         9.77550e+57
          1390.59240	         7.63553e+57
          1391.39870	         6.39003e+57
          1392.20500	         7.08747e+57
          1393.01130	         7.56525e+57
          1393.81760	         7.21396e+57
          1394.62390	         7.91268e+57
          1395.43020	         5.83519e+57
          1396.23650	         5.30779e+57
          1397.04280	         6.74774e+57
          1397.84910	         9.07803e+57
          1398.65540	         8.95520e+57
          1399.46170	         8.71117e+57
          1400.26800	         6.98586e+57
          1401.07430	         6.63503e+57
          1401.88060	         7.36847e+57
          1402.68690	         8.64038e+57
          1403.49320	         8.75417e+57
          1404.29950	         9.30498e+57
          1405.10580	         1.10657e+58
          1405.91210	         1.10159e+58
          1406.71840	         9.77822e+57
          1407.52470	         9.56654e+57
          1408.33100	         9.22936e+57
          1409.13730	         1.05542e+58
          1409.94360	         1.20404e+58
          1410.74990	         1.08622e+58
          1411.55620	         1.00903e+58
          1412.36250	         8.65061e+57
          1413.16880	         8.64749e+57
          1413.97510	         8.51007e+57
          1414.78140	         8.79889e+57
          1415.58770	         1.08436e+58
          1416.39400	         1.08071e+58
          1417.20030	         1.11210e+58
          1418.00660	         1.11186e+58
          1418.81290	         1.05980e+58
          1419.61920	         1.04998e+58
          1420.42550	         1.11695e+58
          1421.23180	         1.37919e+58
          1422.03810	         1.27138e+58
          1422.84440	         1.08395e+58
          1423.65070	         1.35282e+58
          1424.45700	         1.15289e+58
          1425.26330	         8.37551e+57
          1426.06960	         8.21886e+57
          1426.87590	         9.52322e+57
          1427.68220	         1.03329e+58
          1428.48850	         1.09452e+58
          1429.29480	         9.96750e+57
          1430.10110	         9.53532e+57
          1430.90740	         9.39005e+57
          1431.71370	         9.89496e+57
          1432.52000	         8.96720e+57
          1433.32630	         7.73186e+57
          1434.13260	         7.65053e+57
          1434.93890	         7.53322e+57
          1435.74520	         8.14987e+57
          1436.55150	         9.10888e+57
          1437.35780	         7.83525e+57
          1438.16410	         8.68149e+57
          1438.97040	         9.23959e+57
          1439.77670	         8.63076e+57
          1440.58300	         8.54146e+57
          1441.38930	         9.14390e+57
          1442.19560	         8.79175e+57
          1443.00190	         8.59179e+57
          1443.80820	         1.06482e+58
          1444.61450	         9.39725e+57
          1445.42080	         8.48704e+57
          1446.22710	         1.05859e+58
          1447.03340	         1.06399e+58
          1447.83970	         1.05975e+58
          1448.64600	         1.04682e+58
          1449.45230	         1.01158e+58
          1450.25860	         1.08533e+58
          1451.06490	         9.84162e+57
          1451.87120	         8.85790e+57
          1452.67750	         8.33483e+57
          1453.48380	         8.95056e+57
          1454.29010	         8.15821e+57
          1455.09640	         8.23214e+57
          1455.90270	         8.71808e+57
          1456.70900	         8.12331e+57
          1457.51530	         9.54365e+57
          1458.32160	         1.24175e+58
          1459.12790	         1.16755e+58
          1459.93420	         1.02243e+58
          1460.74050	         8.25528e+57
          1461.54680	         7.54370e+57
          1462.35310	         7.54272e+57
          1463.15940	         1.09110e+58
          1463.96570	         1.14348e+58
          1464.77200	         1.12894e+58
          1465.57830	         1.11125e+58
          1466.38460	         1.02231e+58
          1467.19090	         9.08536e+57
          1467.99720	         9.27631e+57
          1468.80350	         9.66711e+57
          1469.60980	         9.19190e+57
          1470.41610	         1.04722e+58
          1471.22240	         9.70074e+57
          1472.02870	         9.12946e+57
          1472.83500	         8.52290e+57
          1473.64130	         9.25899e+57
          1474.44760	         1.01493e+58
          1475.25390	         8.50401e+57
          1476.06020	         7.92652e+57
          1476.86650	         7.68534e+57
          1477.67280	         6.76737e+57
          1478.47910	         6.27330e+57
          1479.28540	         5.75934e+57
          1480.09170	         7.94760e+57
          1480.89800	         9.04817e+57
          1481.70430	         8.75454e+57
          1482.51060	         8.50033e+57
          1483.31690	         8.09641e+57
          1484.12320	         6.17637e+57
          1484.92950	         6.93906e+57
          1485.73580	         8.74781e+57
          1486.54210	         9.47454e+57
          1487.34840	         8.23347e+57
          1488.15470	         7.66930e+57
          1488.96100	         8.46962e+57
          1489.76730	         9.86107e+57
