#sample_390_stacked_spectrum_rest_UV-bands_median_H-alpha_noDC.txt
#median Lum: 1.69885e+42
#Rest-frame wavelength (A) | Luminosity (erg/s/A)
#
          1110.00000	         0.00000e+00
          1110.80630	        -1.90897e+59
          1111.61260	        -1.16459e+59
          1112.41890	         1.15150e+59
          1113.22520	        -4.96270e+57
          1114.03150	        -7.08601e+58
          1114.83780	         3.04027e+59
          1115.64410	        -3.32690e+58
          1116.45040	         1.51854e+59
          1117.25670	         8.24460e+57
          1118.06300	        -9.85219e+58
          1118.86930	        -1.40866e+58
          1119.67560	         7.03487e+58
          1120.48190	        -1.01344e+59
          1121.28820	        -1.33648e+59
          1122.09450	        -3.01008e+58
          1122.90080	         6.04581e+58
          1123.70710	         8.42852e+58
          1124.51340	         1.44064e+58
          1125.31970	        -6.66738e+58
          1126.12600	         2.61636e+57
          1126.93230	        -6.40542e+58
          1127.73860	        -7.07043e+58
          1128.54490	         3.74168e+58
          1129.35120	        -7.24323e+56
          1130.15750	        -3.63824e+58
          1130.96380	         2.39615e+58
          1131.77010	         5.87334e+58
          1132.57640	         2.04740e+58
          1133.38270	         1.72952e+58
          1134.18900	         1.43909e+58
          1134.99530	        -8.58214e+57
          1135.80160	         2.99723e+58
          1136.60790	         7.57998e+57
          1137.41420	         5.63314e+57
          1138.22050	         4.64234e+58
          1139.02680	         3.38022e+58
          1139.83310	         3.18118e+58
          1140.63940	         2.11165e+58
          1141.44570	        -1.17658e+58
          1142.25200	        -3.33865e+57
          1143.05830	         1.75905e+58
          1143.86460	         1.72070e+58
          1144.67090	         3.19371e+58
          1145.47720	         7.33508e+57
          1146.28350	         9.00299e+57
          1147.08980	         1.58191e+58
          1147.89610	         1.96248e+58
          1148.70240	         1.59751e+58
          1149.50870	         2.28453e+58
          1150.31500	         1.90636e+58
          1151.12130	         9.47341e+57
          1151.92760	        -2.80541e+57
          1152.73390	         1.25375e+58
          1153.54020	         1.45020e+58
          1154.34650	         2.29631e+58
          1155.15280	         2.68486e+58
          1155.95910	         2.04021e+58
          1156.76540	         8.64764e+57
          1157.57170	         7.73866e+57
          1158.37800	         2.35868e+57
          1159.18430	        -7.80553e+57
          1159.99060	         3.76264e+57
          1160.79690	         9.77028e+57
          1161.60320	         1.92080e+58
          1162.40950	         7.84698e+57
          1163.21580	         2.34011e+58
          1164.02210	         7.46343e+57
          1164.82840	         1.52746e+58
          1165.63470	         2.19556e+58
          1166.44100	         2.85897e+58
          1167.24730	         2.16659e+58
          1168.05360	         5.51419e+57
          1168.85990	         1.11052e+58
          1169.66620	         1.25376e+58
          1170.47250	         1.01918e+58
          1171.27880	         8.14346e+57
          1172.08510	         1.04937e+58
          1172.89140	         5.05856e+57
          1173.69770	         3.85190e+57
          1174.50400	         9.42403e+57
          1175.31030	         2.01069e+58
          1176.11660	         1.98495e+58
          1176.92290	         1.36491e+58
          1177.72920	         1.19560e+58
          1178.53550	         6.68456e+57
          1179.34180	         5.24625e+57
          1180.14810	         8.09373e+57
          1180.95440	         9.47102e+57
          1181.76070	         1.03248e+58
          1182.56700	         7.37218e+57
          1183.37330	         2.76228e+57
          1184.17960	         1.15940e+58
          1184.98590	         1.12430e+58
          1185.79220	         8.53723e+57
          1186.59850	         1.08090e+58
          1187.40480	         6.83506e+57
          1188.21110	         1.30712e+58
          1189.01740	         8.18698e+57
          1189.82370	         9.93795e+57
          1190.63000	         1.37913e+58
          1191.43630	         1.40783e+58
          1192.24260	         1.02372e+58
          1193.04890	         1.32721e+58
          1193.85520	         1.56637e+58
          1194.66150	         8.45530e+57
          1195.46780	         1.62144e+58
          1196.27410	         1.73638e+58
          1197.08040	         8.93009e+57
          1197.88670	         1.43363e+58
          1198.69300	         1.49373e+58
          1199.49930	         1.32620e+58
          1200.30560	         1.11691e+58
          1201.11190	         8.77742e+57
          1201.91820	         6.53327e+57
          1202.72450	         8.19265e+57
          1203.53080	         1.48791e+58
          1204.33710	         8.94096e+57
          1205.14340	         6.47061e+57
          1205.94970	         4.76734e+57
          1206.75600	         5.17826e+57
          1207.56230	         2.49420e+57
          1208.36860	         8.85704e+57
          1209.17490	         5.15405e+57
          1209.98120	         5.51909e+57
          1210.78750	         1.04087e+58
          1211.59380	         1.22963e+58
          1212.40010	         1.84342e+58
          1213.20640	         1.87590e+58
          1214.01270	         1.72834e+58
          1214.81900	         2.22997e+58
          1215.62530	         4.61642e+58
          1216.43160	         9.58782e+58
          1217.23790	         1.47001e+59
          1218.04420	         1.12567e+59
          1218.85050	         8.75922e+58
          1219.65680	         5.72582e+58
          1220.46310	         3.35520e+58
          1221.26940	         2.22901e+58
          1222.07570	         1.31244e+58
          1222.88200	         1.17634e+58
          1223.68830	         1.13598e+58
          1224.49460	         6.27443e+57
          1225.30090	         7.95540e+57
          1226.10720	         4.69095e+57
          1226.91350	         5.40277e+57
          1227.71980	         9.19682e+57
          1228.52610	         1.01120e+58
          1229.33240	         7.20393e+57
          1230.13870	         3.95010e+57
          1230.94500	         7.66631e+57
          1231.75130	         4.84106e+57
          1232.55760	         5.86053e+57
          1233.36390	         8.71497e+57
          1234.17020	         9.84480e+57
          1234.97650	         7.99198e+57
          1235.78280	         6.98405e+57
          1236.58910	         8.63757e+57
          1237.39540	         1.11766e+58
          1238.20170	         1.12840e+58
          1239.00800	         1.00024e+58
          1239.81430	         1.20271e+58
          1240.62060	         9.35861e+57
          1241.42690	         9.28199e+57
          1242.23320	         1.03657e+58
          1243.03950	         9.54112e+57
          1243.84580	         8.97963e+57
          1244.65210	         8.68662e+57
          1245.45840	         8.67729e+57
          1246.26470	         7.48742e+57
          1247.07100	         6.69818e+57
          1247.87730	         6.06939e+57
          1248.68360	         3.15853e+57
          1249.48990	         8.48836e+57
          1250.29620	         1.06148e+58
          1251.10250	         8.76427e+57
          1251.90880	         6.53031e+57
          1252.71510	         7.81613e+57
          1253.52140	         5.69563e+57
          1254.32770	         8.60239e+57
          1255.13400	         1.47434e+58
          1255.94030	         1.40590e+58
          1256.74660	         1.09176e+58
          1257.55290	         9.43857e+57
          1258.35920	         7.56893e+57
          1259.16550	         6.46653e+57
          1259.97180	         6.90699e+57
          1260.77810	         8.35276e+57
          1261.58440	         1.12173e+58
          1262.39070	         8.66311e+57
          1263.19700	         7.36203e+57
          1264.00330	         1.07374e+58
          1264.80960	         1.41484e+58
          1265.61590	         1.28622e+58
          1266.42220	         1.17664e+58
          1267.22850	         1.04104e+58
          1268.03480	         1.27251e+58
          1268.84110	         1.37469e+58
          1269.64740	         1.33826e+58
          1270.45370	         1.45588e+58
          1271.26000	         1.27868e+58
          1272.06630	         1.28425e+58
          1272.87260	         1.36125e+58
          1273.67890	         1.37460e+58
          1274.48520	         1.32157e+58
          1275.29150	         1.43910e+58
          1276.09780	         1.24333e+58
          1276.90410	         1.39569e+58
          1277.71040	         1.19624e+58
          1278.51670	         1.13916e+58
          1279.32300	         1.52060e+58
          1280.12930	         1.49401e+58
          1280.93560	         1.08353e+58
          1281.74190	         1.26609e+58
          1282.54820	         1.50459e+58
          1283.35450	         1.32335e+58
          1284.16080	         1.36676e+58
          1284.96710	         1.43319e+58
          1285.77340	         1.24133e+58
          1286.57970	         1.01862e+58
          1287.38600	         1.41558e+58
          1288.19230	         1.68695e+58
          1288.99860	         1.37185e+58
          1289.80490	         1.11686e+58
          1290.61120	         1.12941e+58
          1291.41750	         1.26104e+58
          1292.22380	         1.11751e+58
          1293.03010	         1.00037e+58
          1293.83640	         1.04565e+58
          1294.64270	         1.00162e+58
          1295.44900	         7.06920e+57
          1296.25530	         7.66202e+57
          1297.06160	         9.11166e+57
          1297.86790	         9.48668e+57
          1298.67420	         1.09723e+58
          1299.48050	         9.57216e+57
          1300.28680	         1.03029e+58
          1301.09310	         8.03151e+57
          1301.89940	         5.09856e+57
          1302.70570	         6.94522e+57
          1303.51200	         7.38696e+57
          1304.31830	         9.79034e+57
          1305.12460	         9.16556e+57
          1305.93090	         9.41306e+57
          1306.73720	         1.26284e+58
          1307.54350	         1.48766e+58
          1308.34980	         1.42706e+58
          1309.15610	         1.44414e+58
          1309.96240	         1.30800e+58
          1310.76870	         1.14571e+58
          1311.57500	         1.00523e+58
          1312.38130	         1.12078e+58
          1313.18760	         1.33312e+58
          1313.99390	         1.36399e+58
          1314.80020	         1.55681e+58
          1315.60650	         1.37511e+58
          1316.41280	         1.06685e+58
          1317.21910	         1.00541e+58
          1318.02540	         1.15634e+58
          1318.83170	         1.24109e+58
          1319.63800	         1.11793e+58
          1320.44430	         9.82769e+57
          1321.25060	         1.22184e+58
          1322.05690	         1.36290e+58
          1322.86320	         1.17856e+58
          1323.66950	         1.07949e+58
          1324.47580	         8.77329e+57
          1325.28210	         8.69465e+57
          1326.08840	         1.07217e+58
          1326.89470	         1.19292e+58
          1327.70100	         1.05275e+58
          1328.50730	         7.94693e+57
          1329.31360	         8.50751e+57
          1330.11990	         1.01498e+58
          1330.92620	         9.88242e+57
          1331.73250	         1.03576e+58
          1332.53880	         9.06675e+57
          1333.34510	         9.79004e+57
          1334.15140	         1.05602e+58
          1334.95770	         9.22706e+57
          1335.76400	         9.49383e+57
          1336.57030	         1.07941e+58
          1337.37660	         1.09756e+58
          1338.18290	         1.10487e+58
          1338.98920	         1.18054e+58
          1339.79550	         1.16040e+58
          1340.60180	         1.17580e+58
          1341.40810	         1.31724e+58
          1342.21440	         1.26137e+58
          1343.02070	         1.27322e+58
          1343.82700	         1.33147e+58
          1344.63330	         1.14314e+58
          1345.43960	         1.27679e+58
          1346.24590	         1.25512e+58
          1347.05220	         1.28335e+58
          1347.85850	         1.15229e+58
          1348.66480	         1.31046e+58
          1349.47110	         1.28152e+58
          1350.27740	         1.21609e+58
          1351.08370	         1.14921e+58
          1351.89000	         1.14578e+58
          1352.69630	         1.19555e+58
          1353.50260	         1.26483e+58
          1354.30890	         1.28557e+58
          1355.11520	         1.15480e+58
          1355.92150	         1.07029e+58
          1356.72780	         9.32845e+57
          1357.53410	         9.90864e+57
          1358.34040	         1.07893e+58
          1359.14670	         1.09817e+58
          1359.95300	         1.11931e+58
          1360.75930	         1.14644e+58
          1361.56560	         1.11949e+58
          1362.37190	         1.18215e+58
          1363.17820	         1.09292e+58
          1363.98450	         1.16389e+58
          1364.79080	         1.13005e+58
          1365.59710	         1.03084e+58
          1366.40340	         1.05853e+58
          1367.20970	         1.03953e+58
          1368.01600	         9.40596e+57
          1368.82230	         9.86971e+57
          1369.62860	         1.07479e+58
          1370.43490	         9.70805e+57
          1371.24120	         1.00812e+58
          1372.04750	         9.13803e+57
          1372.85380	         1.00891e+58
          1373.66010	         1.08591e+58
          1374.46640	         1.06082e+58
          1375.27270	         1.08624e+58
          1376.07900	         1.02848e+58
          1376.88530	         9.89604e+57
          1377.69160	         9.08514e+57
          1378.49790	         7.25656e+57
          1379.30420	         7.35852e+57
          1380.11050	         1.00577e+58
          1380.91680	         9.90013e+57
          1381.72310	         8.19643e+57
          1382.52940	         8.65831e+57
          1383.33570	         7.39129e+57
          1384.14200	         8.46053e+57
          1384.94830	         1.02515e+58
          1385.75460	         9.80935e+57
          1386.56090	         9.88993e+57
          1387.36720	         1.06429e+58
          1388.17350	         1.22177e+58
          1388.97980	         1.09455e+58
          1389.78610	         7.94510e+57
          1390.59240	         6.90513e+57
          1391.39870	         6.81613e+57
          1392.20500	         8.78356e+57
          1393.01130	         8.21134e+57
          1393.81760	         6.07051e+57
          1394.62390	         5.96085e+57
          1395.43020	         5.94282e+57
          1396.23650	         6.80735e+57
          1397.04280	         8.19056e+57
          1397.84910	         8.35419e+57
          1398.65540	         9.35460e+57
          1399.46170	         9.44053e+57
          1400.26800	         7.50452e+57
          1401.07430	         6.91278e+57
          1401.88060	         7.04850e+57
          1402.68690	         8.51623e+57
          1403.49320	         9.26026e+57
          1404.29950	         8.72510e+57
          1405.10580	         9.19750e+57
          1405.91210	         1.00817e+58
          1406.71840	         1.00800e+58
          1407.52470	         1.04074e+58
          1408.33100	         1.10345e+58
          1409.13730	         1.10886e+58
          1409.94360	         1.18307e+58
          1410.74990	         1.23776e+58
          1411.55620	         1.10041e+58
          1412.36250	         8.53285e+57
          1413.16880	         8.05319e+57
          1413.97510	         8.18966e+57
          1414.78140	         8.80462e+57
          1415.58770	         1.06490e+58
          1416.39400	         1.05620e+58
          1417.20030	         1.08420e+58
          1418.00660	         1.01162e+58
          1418.81290	         8.55387e+57
          1419.61920	         9.50612e+57
          1420.42550	         1.13988e+58
          1421.23180	         1.21352e+58
          1422.03810	         1.14621e+58
          1422.84440	         1.02505e+58
          1423.65070	         1.14117e+58
          1424.45700	         1.23464e+58
          1425.26330	         8.20955e+57
          1426.06960	         8.39907e+57
          1426.87590	         1.09367e+58
          1427.68220	         1.12030e+58
          1428.48850	         1.10031e+58
          1429.29480	         1.09627e+58
          1430.10110	         9.21699e+57
          1430.90740	         7.80008e+57
          1431.71370	         8.48794e+57
          1432.52000	         8.39520e+57
          1433.32630	         8.90688e+57
          1434.13260	         9.30252e+57
          1434.93890	         8.76077e+57
          1435.74520	         8.68907e+57
          1436.55150	         8.60990e+57
          1437.35780	         8.75368e+57
          1438.16410	         1.00279e+58
          1438.97040	         9.63449e+57
          1439.77670	         8.36539e+57
          1440.58300	         8.47792e+57
          1441.38930	         9.81648e+57
          1442.19560	         9.33766e+57
          1443.00190	         9.34323e+57
          1443.80820	         1.11975e+58
          1444.61450	         9.90700e+57
          1445.42080	         7.98202e+57
          1446.22710	         9.51484e+57
          1447.03340	         1.00491e+58
          1447.83970	         1.02200e+58
          1448.64600	         1.01445e+58
          1449.45230	         9.16319e+57
          1450.25860	         1.00394e+58
          1451.06490	         9.40497e+57
          1451.87120	         7.30046e+57
          1452.67750	         7.94378e+57
          1453.48380	         9.21758e+57
          1454.29010	         8.04618e+57
          1455.09640	         6.60921e+57
          1455.90270	         7.96920e+57
          1456.70900	         8.39138e+57
          1457.51530	         1.01706e+58
          1458.32160	         1.16101e+58
          1459.12790	         1.04133e+58
          1459.93420	         9.06246e+57
          1460.74050	         7.38554e+57
          1461.54680	         8.69509e+57
          1462.35310	         9.06452e+57
          1463.15940	         9.46695e+57
          1463.96570	         1.10737e+58
          1464.77200	         1.31840e+58
          1465.57830	         1.13570e+58
          1466.38460	         9.09434e+57
          1467.19090	         8.75107e+57
          1467.99720	         9.06030e+57
          1468.80350	         8.43019e+57
          1469.60980	         1.00027e+58
          1470.41610	         1.06434e+58
          1471.22240	         8.94918e+57
          1472.02870	         9.32283e+57
          1472.83500	         9.52115e+57
          1473.64130	         9.77716e+57
          1474.44760	         1.01325e+58
          1475.25390	         8.52780e+57
          1476.06020	         7.95131e+57
          1476.86650	         8.90313e+57
          1477.67280	         8.26250e+57
          1478.47910	         6.38374e+57
          1479.28540	         7.05778e+57
          1480.09170	         9.12283e+57
          1480.89800	         9.42177e+57
          1481.70430	         9.05633e+57
          1482.51060	         7.95389e+57
          1483.31690	         7.73954e+57
          1484.12320	         7.54200e+57
          1484.92950	         7.01499e+57
          1485.73580	         7.97764e+57
          1486.54210	         9.16697e+57
          1487.34840	         9.24459e+57
          1488.15470	         8.68393e+57
          1488.96100	         8.89088e+57
          1489.76730	         9.62832e+57
