#sample_372_stacked_spectrum_rest_UV-bands_median_H-alpha_noDC.txt
#median Lum: 1.70490e+42
#Rest-frame wavelength (A) | Luminosity (erg/s/A)
#
          1110.00000	         0.00000e+00
          1110.80630	        -2.03243e+59
          1111.61260	        -4.21290e+58
          1112.41890	        -2.31856e+58
          1113.22520	        -4.94904e+58
          1114.03150	        -1.51343e+59
          1114.83780	         7.95228e+58
          1115.64410	        -3.88709e+57
          1116.45040	        -9.58135e+58
          1117.25670	         8.56999e+58
          1118.06300	         1.55169e+59
          1118.86930	         3.34185e+58
          1119.67560	         1.45277e+59
          1120.48190	         6.92586e+58
          1121.28820	        -1.06896e+59
          1122.09450	        -5.58453e+58
          1122.90080	         1.74583e+57
          1123.70710	         8.61401e+58
          1124.51340	         1.35159e+59
          1125.31970	        -4.41242e+58
          1126.12600	         1.05787e+57
          1126.93230	        -3.22271e+58
          1127.73860	        -6.42615e+58
          1128.54490	         3.81207e+58
          1129.35120	         1.20787e+57
          1130.15750	        -1.51866e+58
          1130.96380	        -2.21553e+58
          1131.77010	         2.16338e+58
          1132.57640	         5.00766e+58
          1133.38270	         5.20632e+58
          1134.18900	         2.17949e+58
          1134.99530	         1.70392e+58
          1135.80160	         5.28635e+58
          1136.60790	         3.77684e+58
          1137.41420	        -3.58784e+57
          1138.22050	         2.36615e+58
          1139.02680	         2.28813e+58
          1139.83310	         1.83950e+58
          1140.63940	         1.57108e+58
          1141.44570	        -2.32330e+58
          1142.25200	        -6.79155e+57
          1143.05830	         2.23336e+58
          1143.86460	         4.06246e+58
          1144.67090	         3.12154e+58
          1145.47720	         7.48285e+57
          1146.28350	         9.51461e+57
          1147.08980	         1.84291e+58
          1147.89610	         9.29242e+57
          1148.70240	         8.81871e+57
          1149.50870	         1.79803e+58
          1150.31500	         1.14152e+58
          1151.12130	        -6.22293e+57
          1151.92760	        -1.05048e+57
          1152.73390	         7.67570e+57
          1153.54020	         4.83300e+57
          1154.34650	         2.11297e+58
          1155.15280	         1.68578e+58
          1155.95910	         1.62879e+58
          1156.76540	         1.29768e+58
          1157.57170	         1.16663e+58
          1158.37800	         8.47521e+57
          1159.18430	         7.05077e+56
          1159.99060	         9.00515e+57
          1160.79690	         1.75568e+58
          1161.60320	         1.99248e+58
          1162.40950	         1.64533e+58
          1163.21580	         2.49897e+58
          1164.02210	         1.37398e+58
          1164.82840	         6.07569e+57
          1165.63470	         1.58491e+58
          1166.44100	         2.86385e+58
          1167.24730	         2.09742e+58
          1168.05360	         4.72851e+57
          1168.85990	         1.19958e+58
          1169.66620	         9.77750e+57
          1170.47250	         1.61074e+58
          1171.27880	         1.65432e+58
          1172.08510	         1.69891e+58
          1172.89140	         7.03245e+57
          1173.69770	         5.55142e+57
          1174.50400	         1.47717e+58
          1175.31030	         1.53188e+58
          1176.11660	         1.83817e+58
          1176.92290	         1.45843e+58
          1177.72920	         1.30650e+58
          1178.53550	         5.23124e+57
          1179.34180	         4.20068e+56
          1180.14810	         8.29275e+57
          1180.95440	         9.82846e+57
          1181.76070	         6.35655e+57
          1182.56700	         5.90980e+57
          1183.37330	         5.40043e+57
          1184.17960	         1.09963e+58
          1184.98590	         6.54357e+57
          1185.79220	         5.51061e+57
          1186.59850	         1.12367e+58
          1187.40480	         8.55571e+57
          1188.21110	         1.05753e+58
          1189.01740	         1.06871e+58
          1189.82370	         5.12134e+57
          1190.63000	         1.42574e+58
          1191.43630	         1.57914e+58
          1192.24260	         5.15273e+57
          1193.04890	         6.85290e+57
          1193.85520	         9.04400e+57
          1194.66150	         5.60411e+57
          1195.46780	         1.07685e+58
          1196.27410	         1.25555e+58
          1197.08040	         1.12668e+58
          1197.88670	         1.48930e+58
          1198.69300	         1.54994e+58
          1199.49930	         1.53272e+58
          1200.30560	         9.50258e+57
          1201.11190	         7.92601e+57
          1201.91820	         1.15112e+58
          1202.72450	         9.09809e+57
          1203.53080	         1.64330e+58
          1204.33710	         7.30602e+57
          1205.14340	         6.01299e+57
          1205.94970	         5.82683e+57
          1206.75600	         8.70746e+57
          1207.56230	         4.45515e+57
          1208.36860	         8.78535e+57
          1209.17490	         5.47546e+57
          1209.98120	         4.33341e+57
          1210.78750	         1.21092e+58
          1211.59380	         1.41185e+58
          1212.40010	         1.87161e+58
          1213.20640	         1.73778e+58
          1214.01270	         1.88608e+58
          1214.81900	         2.83281e+58
          1215.62530	         4.67385e+58
          1216.43160	         9.35251e+58
          1217.23790	         1.53112e+59
          1218.04420	         1.17165e+59
          1218.85050	         8.82740e+58
          1219.65680	         5.65242e+58
          1220.46310	         3.24215e+58
          1221.26940	         2.25824e+58
          1222.07570	         1.56842e+58
          1222.88200	         1.32988e+58
          1223.68830	         9.26919e+57
          1224.49460	         7.25778e+57
          1225.30090	         6.44408e+57
          1226.10720	         5.80755e+57
          1226.91350	         6.65775e+57
          1227.71980	         7.91684e+57
          1228.52610	         1.14338e+58
          1229.33240	         7.61112e+57
          1230.13870	         7.20529e+57
          1230.94500	         8.08490e+57
          1231.75130	         5.96426e+57
          1232.55760	         8.09275e+57
          1233.36390	         1.04652e+58
          1234.17020	         1.05513e+58
          1234.97650	         8.36776e+57
          1235.78280	         7.57263e+57
          1236.58910	         1.04197e+58
          1237.39540	         1.11815e+58
          1238.20170	         9.84902e+57
          1239.00800	         1.18171e+58
          1239.81430	         1.59827e+58
          1240.62060	         1.13186e+58
          1241.42690	         9.86342e+57
          1242.23320	         1.26648e+58
          1243.03950	         9.29568e+57
          1243.84580	         5.81451e+57
          1244.65210	         9.27299e+57
          1245.45840	         1.10720e+58
          1246.26470	         9.04936e+57
          1247.07100	         6.94153e+57
          1247.87730	         6.30397e+57
          1248.68360	         2.93776e+57
          1249.48990	         7.84677e+57
          1250.29620	         1.11041e+58
          1251.10250	         9.02228e+57
          1251.90880	         6.93791e+57
          1252.71510	         8.64907e+57
          1253.52140	         7.69403e+57
          1254.32770	         1.01748e+58
          1255.13400	         1.25487e+58
          1255.94030	         1.20030e+58
          1256.74660	         9.35955e+57
          1257.55290	         8.87860e+57
          1258.35920	         6.84958e+57
          1259.16550	         4.90071e+57
          1259.97180	         4.88646e+57
          1260.77810	         8.06701e+57
          1261.58440	         1.14562e+58
          1262.39070	         9.26558e+57
          1263.19700	         8.72317e+57
          1264.00330	         9.64060e+57
          1264.80960	         1.17337e+58
          1265.61590	         1.48290e+58
          1266.42220	         1.36239e+58
          1267.22850	         1.16667e+58
          1268.03480	         1.28037e+58
          1268.84110	         1.43635e+58
          1269.64740	         1.17961e+58
          1270.45370	         1.06675e+58
          1271.26000	         9.77798e+57
          1272.06630	         8.91225e+57
          1272.87260	         1.08627e+58
          1273.67890	         1.10419e+58
          1274.48520	         1.20314e+58
          1275.29150	         1.30478e+58
          1276.09780	         1.12340e+58
          1276.90410	         1.58368e+58
          1277.71040	         1.60228e+58
          1278.51670	         1.42682e+58
          1279.32300	         1.48034e+58
          1280.12930	         1.29971e+58
          1280.93560	         1.09790e+58
          1281.74190	         1.12357e+58
          1282.54820	         1.23156e+58
          1283.35450	         1.10934e+58
          1284.16080	         9.72023e+57
          1284.96710	         1.21633e+58
          1285.77340	         1.29614e+58
          1286.57970	         1.24739e+58
          1287.38600	         1.39900e+58
          1288.19230	         1.65479e+58
          1288.99860	         1.77987e+58
          1289.80490	         1.20412e+58
          1290.61120	         1.35500e+58
          1291.41750	         1.70046e+58
          1292.22380	         1.35076e+58
          1293.03010	         1.08231e+58
          1293.83640	         1.16939e+58
          1294.64270	         1.05499e+58
          1295.44900	         7.39619e+57
          1296.25530	         8.43304e+57
          1297.06160	         1.15326e+58
          1297.86790	         1.03503e+58
          1298.67420	         9.01592e+57
          1299.48050	         1.07774e+58
          1300.28680	         1.15501e+58
          1301.09310	         1.01354e+58
          1301.89940	         4.45490e+57
          1302.70570	         6.05542e+57
          1303.51200	         8.98758e+57
          1304.31830	         1.11831e+58
          1305.12460	         1.09537e+58
          1305.93090	         1.06193e+58
          1306.73720	         1.25596e+58
          1307.54350	         1.48572e+58
          1308.34980	         1.47166e+58
          1309.15610	         1.63441e+58
          1309.96240	         1.67847e+58
          1310.76870	         1.37265e+58
          1311.57500	         1.16824e+58
          1312.38130	         1.28524e+58
          1313.18760	         1.26947e+58
          1313.99390	         1.53142e+58
          1314.80020	         1.74141e+58
          1315.60650	         1.49409e+58
          1316.41280	         1.18340e+58
          1317.21910	         1.01870e+58
          1318.02540	         1.18963e+58
          1318.83170	         1.28645e+58
          1319.63800	         1.13676e+58
          1320.44430	         1.18517e+58
          1321.25060	         1.27571e+58
          1322.05690	         1.27665e+58
          1322.86320	         1.23244e+58
          1323.66950	         1.09826e+58
          1324.47580	         9.17909e+57
          1325.28210	         8.49302e+57
          1326.08840	         9.72330e+57
          1326.89470	         1.25090e+58
          1327.70100	         1.00377e+58
          1328.50730	         7.50133e+57
          1329.31360	         1.10937e+58
          1330.11990	         1.11736e+58
          1330.92620	         1.00316e+58
          1331.73250	         1.10803e+58
          1332.53880	         1.05117e+58
          1333.34510	         9.12195e+57
          1334.15140	         8.76875e+57
          1334.95770	         9.11473e+57
          1335.76400	         9.63160e+57
          1336.57030	         1.09346e+58
          1337.37660	         1.04644e+58
          1338.18290	         1.03268e+58
          1338.98920	         1.12979e+58
          1339.79550	         1.01157e+58
          1340.60180	         1.12021e+58
          1341.40810	         1.34505e+58
          1342.21440	         1.24956e+58
          1343.02070	         1.35616e+58
          1343.82700	         1.52342e+58
          1344.63330	         1.23691e+58
          1345.43960	         1.08602e+58
          1346.24590	         1.11862e+58
          1347.05220	         1.18554e+58
          1347.85850	         1.18195e+58
          1348.66480	         1.35964e+58
          1349.47110	         1.48010e+58
          1350.27740	         1.23175e+58
          1351.08370	         1.19637e+58
          1351.89000	         1.18431e+58
          1352.69630	         1.21247e+58
          1353.50260	         1.33171e+58
          1354.30890	         1.14371e+58
          1355.11520	         1.13670e+58
          1355.92150	         1.04838e+58
          1356.72780	         9.37197e+57
          1357.53410	         1.07322e+58
          1358.34040	         1.19337e+58
          1359.14670	         1.10341e+58
          1359.95300	         1.16777e+58
          1360.75930	         1.28088e+58
          1361.56560	         1.14839e+58
          1362.37190	         1.16149e+58
          1363.17820	         1.04295e+58
          1363.98450	         1.15168e+58
          1364.79080	         1.36546e+58
          1365.59710	         1.40530e+58
          1366.40340	         1.45614e+58
          1367.20970	         1.08283e+58
          1368.01600	         8.90053e+57
          1368.82230	         8.65478e+57
          1369.62860	         8.17310e+57
          1370.43490	         8.41818e+57
          1371.24120	         8.82023e+57
          1372.04750	         8.28275e+57
          1372.85380	         1.08478e+58
          1373.66010	         1.08852e+58
          1374.46640	         9.57129e+57
          1375.27270	         9.77366e+57
          1376.07900	         9.82064e+57
          1376.88530	         8.82309e+57
          1377.69160	         7.58141e+57
          1378.49790	         6.55818e+57
          1379.30420	         6.18139e+57
          1380.11050	         6.27271e+57
          1380.91680	         6.18483e+57
          1381.72310	         6.82506e+57
          1382.52940	         7.55111e+57
          1383.33570	         8.37016e+57
          1384.14200	         1.00169e+58
          1384.94830	         1.06786e+58
          1385.75460	         1.04615e+58
          1386.56090	         1.18020e+58
          1387.36720	         1.05510e+58
          1388.17350	         1.14413e+58
          1388.97980	         1.13814e+58
          1389.78610	         9.27240e+57
          1390.59240	         8.43026e+57
          1391.39870	         6.87856e+57
          1392.20500	         8.41102e+57
          1393.01130	         8.02272e+57
          1393.81760	         7.68471e+57
          1394.62390	         8.43600e+57
          1395.43020	         7.84008e+57
          1396.23650	         6.39863e+57
          1397.04280	         7.58008e+57
          1397.84910	         8.51115e+57
          1398.65540	         7.91968e+57
          1399.46170	         8.38988e+57
          1400.26800	         8.31131e+57
          1401.07430	         7.81711e+57
          1401.88060	         7.60208e+57
          1402.68690	         8.36394e+57
          1403.49320	         1.01766e+58
          1404.29950	         9.58119e+57
          1405.10580	         9.37602e+57
          1405.91210	         1.10092e+58
          1406.71840	         1.16102e+58
          1407.52470	         1.12935e+58
          1408.33100	         1.11596e+58
          1409.13730	         1.11726e+58
          1409.94360	         1.05482e+58
          1410.74990	         1.11764e+58
          1411.55620	         1.07947e+58
          1412.36250	         9.33858e+57
          1413.16880	         9.43053e+57
          1413.97510	         9.22618e+57
          1414.78140	         8.84413e+57
          1415.58770	         1.01254e+58
          1416.39400	         1.03400e+58
          1417.20030	         1.10112e+58
          1418.00660	         9.78044e+57
          1418.81290	         9.34180e+57
          1419.61920	         9.94379e+57
          1420.42550	         1.15358e+58
          1421.23180	         1.37932e+58
          1422.03810	         1.43283e+58
          1422.84440	         1.20943e+58
          1423.65070	         1.31733e+58
          1424.45700	         1.14754e+58
          1425.26330	         8.36074e+57
          1426.06960	         9.21091e+57
          1426.87590	         1.05806e+58
          1427.68220	         1.10295e+58
          1428.48850	         1.14758e+58
          1429.29480	         1.11780e+58
          1430.10110	         9.63502e+57
          1430.90740	         8.69077e+57
          1431.71370	         9.33163e+57
          1432.52000	         9.52568e+57
          1433.32630	         8.45844e+57
          1434.13260	         7.74514e+57
          1434.93890	         8.04802e+57
          1435.74520	         8.91058e+57
          1436.55150	         9.78846e+57
          1437.35780	         1.00489e+58
          1438.16410	         9.22901e+57
          1438.97040	         9.30906e+57
          1439.77670	         9.30682e+57
          1440.58300	         8.53924e+57
          1441.38930	         8.78100e+57
          1442.19560	         9.42973e+57
          1443.00190	         9.19075e+57
          1443.80820	         9.61323e+57
          1444.61450	         9.23738e+57
          1445.42080	         8.32129e+57
          1446.22710	         9.40862e+57
          1447.03340	         1.07091e+58
          1447.83970	         1.10040e+58
          1448.64600	         1.06021e+58
          1449.45230	         1.04049e+58
          1450.25860	         1.04589e+58
          1451.06490	         9.20115e+57
          1451.87120	         7.10497e+57
          1452.67750	         6.83045e+57
          1453.48380	         8.24245e+57
          1454.29010	         8.18194e+57
          1455.09640	         6.92782e+57
          1455.90270	         7.34027e+57
          1456.70900	         7.74305e+57
          1457.51530	         9.03463e+57
          1458.32160	         1.17675e+58
          1459.12790	         1.16375e+58
          1459.93420	         9.55215e+57
          1460.74050	         7.38781e+57
          1461.54680	         6.13828e+57
          1462.35310	         7.21044e+57
          1463.15940	         1.03937e+58
          1463.96570	         1.14887e+58
          1464.77200	         1.27901e+58
          1465.57830	         9.99573e+57
          1466.38460	         9.15456e+57
          1467.19090	         7.53819e+57
          1467.99720	         8.03630e+57
          1468.80350	         9.14903e+57
          1469.60980	         8.79570e+57
          1470.41610	         8.65450e+57
          1471.22240	         8.67479e+57
          1472.02870	         9.81334e+57
          1472.83500	         1.01448e+58
          1473.64130	         1.02396e+58
          1474.44760	         1.02843e+58
          1475.25390	         1.05180e+58
          1476.06020	         9.60292e+57
          1476.86650	         8.75963e+57
          1477.67280	         8.49722e+57
          1478.47910	         6.65333e+57
          1479.28540	         6.22548e+57
          1480.09170	         9.51130e+57
          1480.89800	         9.13063e+57
          1481.70430	         7.32390e+57
          1482.51060	         7.15878e+57
          1483.31690	         7.01404e+57
          1484.12320	         5.97087e+57
          1484.92950	         6.96908e+57
          1485.73580	         8.22745e+57
          1486.54210	         8.65817e+57
          1487.34840	         8.05398e+57
          1488.15470	         7.26774e+57
          1488.96100	         8.35330e+57
          1489.76730	         9.50186e+57
