#sample_26_stacked_spectrum_rest_UV-bands_median_H-alpha_noDC.txt
#median Lum: 1.70427e+42
#Rest-frame wavelength (A) | Luminosity (erg/s/A)
#
          1110.00000	         0.00000e+00
          1110.80630	        -1.32227e+58
          1111.61260	        -1.35647e+59
          1112.41890	        -1.80270e+59
          1113.22520	        -4.55340e+58
          1114.03150	        -2.84985e+59
          1114.83780	        -3.60732e+57
          1115.64410	         5.53218e+58
          1116.45040	         1.32856e+59
          1117.25670	        -5.63635e+58
          1118.06300	         8.27829e+58
          1118.86930	        -2.80342e+58
          1119.67560	         1.54915e+59
          1120.48190	         5.49634e+58
          1121.28820	        -7.88577e+58
          1122.09450	         1.92664e+58
          1122.90080	         4.00501e+58
          1123.70710	         7.06305e+58
          1124.51340	         7.66181e+58
          1125.31970	         3.69567e+57
          1126.12600	        -5.09933e+57
          1126.93230	        -6.81484e+58
          1127.73860	        -4.37156e+58
          1128.54490	         2.21414e+58
          1129.35120	         5.75862e+58
          1130.15750	        -2.25411e+58
          1130.96380	        -2.68097e+58
          1131.77010	         7.92105e+58
          1132.57640	         3.40262e+58
          1133.38270	         3.66270e+58
          1134.18900	         3.71973e+58
          1134.99530	         3.15916e+58
          1135.80160	         3.64078e+58
          1136.60790	         2.36886e+58
          1137.41420	        -9.90532e+57
          1138.22050	         4.24178e+58
          1139.02680	         3.06474e+58
          1139.83310	         1.80411e+58
          1140.63940	         2.37972e+58
          1141.44570	        -3.04842e+57
          1142.25200	        -7.41295e+57
          1143.05830	         2.06065e+58
          1143.86460	         2.28286e+58
          1144.67090	         1.62320e+58
          1145.47720	         1.45303e+58
          1146.28350	         1.31477e+58
          1147.08980	         1.57373e+58
          1147.89610	         1.41661e+58
          1148.70240	         2.88918e+58
          1149.50870	         1.71991e+58
          1150.31500	         1.36050e+58
          1151.12130	         1.53215e+58
          1151.92760	         1.07732e+58
          1152.73390	         9.18083e+57
          1153.54020	         8.29455e+57
          1154.34650	         2.29227e+58
          1155.15280	         1.85809e+58
          1155.95910	         4.42017e+57
          1156.76540	         5.68649e+57
          1157.57170	         1.10722e+58
          1158.37800	         7.11763e+57
          1159.18430	         8.70670e+57
          1159.99060	         1.15974e+58
          1160.79690	         9.21403e+57
          1161.60320	         1.33237e+58
          1162.40950	         5.56124e+57
          1163.21580	         1.06398e+58
          1164.02210	         8.30364e+57
          1164.82840	         1.45104e+58
          1165.63470	         1.28985e+58
          1166.44100	         2.77503e+58
          1167.24730	         2.68442e+58
          1168.05360	         1.04208e+58
          1168.85990	         8.00619e+57
          1169.66620	         4.42768e+57
          1170.47250	         2.45931e+57
          1171.27880	        -3.15544e+56
          1172.08510	         9.76557e+57
          1172.89140	         8.60731e+57
          1173.69770	         8.10952e+57
          1174.50400	         1.15139e+58
          1175.31030	         1.46664e+58
          1176.11660	         2.12167e+58
          1176.92290	         1.30534e+58
          1177.72920	         1.05448e+58
          1178.53550	         9.47776e+57
          1179.34180	         7.69496e+57
          1180.14810	         8.87393e+57
          1180.95440	         9.94251e+57
          1181.76070	         4.21032e+57
          1182.56700	         4.02800e+57
          1183.37330	         6.16805e+57
          1184.17960	         1.30217e+58
          1184.98590	         1.53068e+58
          1185.79220	         8.86953e+57
          1186.59850	         9.75208e+57
          1187.40480	         8.85025e+57
          1188.21110	         1.38980e+58
          1189.01740	         1.16745e+58
          1189.82370	         1.08959e+58
          1190.63000	         7.83474e+57
          1191.43630	         9.12911e+57
          1192.24260	         1.14274e+58
          1193.04890	         1.38107e+58
          1193.85520	         1.08861e+58
          1194.66150	         2.38747e+57
          1195.46780	         9.26449e+57
          1196.27410	         1.34165e+58
          1197.08040	         1.11516e+58
          1197.88670	         1.06914e+58
          1198.69300	         1.27329e+58
          1199.49930	         1.72363e+58
          1200.30560	         1.38310e+58
          1201.11190	         1.05826e+58
          1201.91820	         1.11733e+58
          1202.72450	         9.13026e+57
          1203.53080	         1.63950e+58
          1204.33710	         9.32473e+57
          1205.14340	         4.40582e+57
          1205.94970	         8.36633e+57
          1206.75600	         9.87628e+57
          1207.56230	         6.00257e+57
          1208.36860	         1.26794e+58
          1209.17490	         6.29771e+57
          1209.98120	         8.01148e+57
          1210.78750	         5.13264e+57
          1211.59380	         9.17640e+57
          1212.40010	         1.62904e+58
          1213.20640	         1.98816e+58
          1214.01270	         1.90147e+58
          1214.81900	         2.38796e+58
          1215.62530	         4.56976e+58
          1216.43160	         9.38239e+58
          1217.23790	         1.52830e+59
          1218.04420	         1.15033e+59
          1218.85050	         8.59535e+58
          1219.65680	         5.34359e+58
          1220.46310	         2.98992e+58
          1221.26940	         2.07059e+58
          1222.07570	         1.31254e+58
          1222.88200	         1.21989e+58
          1223.68830	         9.37978e+57
          1224.49460	         6.50585e+57
          1225.30090	         7.02806e+57
          1226.10720	         6.79419e+57
          1226.91350	         5.57203e+57
          1227.71980	         8.45521e+57
          1228.52610	         1.16863e+58
          1229.33240	         6.27594e+57
          1230.13870	         6.67705e+57
          1230.94500	         6.81901e+57
          1231.75130	         6.78618e+57
          1232.55760	         9.56884e+57
          1233.36390	         1.07478e+58
          1234.17020	         1.00388e+58
          1234.97650	         7.83506e+57
          1235.78280	         7.57018e+57
          1236.58910	         1.10726e+58
          1237.39540	         1.28814e+58
          1238.20170	         1.25289e+58
          1239.00800	         1.44245e+58
          1239.81430	         1.29907e+58
          1240.62060	         9.47989e+57
          1241.42690	         1.08067e+58
          1242.23320	         1.16909e+58
          1243.03950	         1.05452e+58
          1243.84580	         1.12828e+58
          1244.65210	         9.63210e+57
          1245.45840	         8.17240e+57
          1246.26470	         6.40737e+57
          1247.07100	         7.97000e+57
          1247.87730	         8.11910e+57
          1248.68360	         4.57272e+57
          1249.48990	         6.07342e+57
          1250.29620	         8.28109e+57
          1251.10250	         8.57122e+57
          1251.90880	         8.29619e+57
          1252.71510	         5.03316e+57
          1253.52140	         6.32611e+57
          1254.32770	         9.93398e+57
          1255.13400	         1.38228e+58
          1255.94030	         1.17184e+58
          1256.74660	         7.96391e+57
          1257.55290	         1.08125e+58
          1258.35920	         8.77746e+57
          1259.16550	         5.31038e+57
          1259.97180	         5.12895e+57
          1260.77810	         6.81690e+57
          1261.58440	         1.03633e+58
          1262.39070	         6.76151e+57
          1263.19700	         8.58338e+57
          1264.00330	         8.41982e+57
          1264.80960	         1.02593e+58
          1265.61590	         1.14147e+58
          1266.42220	         1.13045e+58
          1267.22850	         1.05568e+58
          1268.03480	         1.19230e+58
          1268.84110	         1.49165e+58
          1269.64740	         1.18147e+58
          1270.45370	         1.15014e+58
          1271.26000	         1.19762e+58
          1272.06630	         1.14046e+58
          1272.87260	         1.22693e+58
          1273.67890	         1.25732e+58
          1274.48520	         1.18016e+58
          1275.29150	         1.43828e+58
          1276.09780	         1.37520e+58
          1276.90410	         1.54178e+58
          1277.71040	         1.40989e+58
          1278.51670	         1.27076e+58
          1279.32300	         1.37303e+58
          1280.12930	         1.33859e+58
          1280.93560	         1.10580e+58
          1281.74190	         1.13059e+58
          1282.54820	         1.18598e+58
          1283.35450	         1.02942e+58
          1284.16080	         1.23749e+58
          1284.96710	         1.35271e+58
          1285.77340	         1.29664e+58
          1286.57970	         1.30917e+58
          1287.38600	         1.60058e+58
          1288.19230	         1.65396e+58
          1288.99860	         1.54447e+58
          1289.80490	         1.35627e+58
          1290.61120	         1.28755e+58
          1291.41750	         1.25885e+58
          1292.22380	         1.00391e+58
          1293.03010	         1.03252e+58
          1293.83640	         1.18310e+58
          1294.64270	         1.00022e+58
          1295.44900	         6.96938e+57
          1296.25530	         7.79948e+57
          1297.06160	         9.70576e+57
          1297.86790	         1.00075e+58
          1298.67420	         9.15879e+57
          1299.48050	         7.81181e+57
          1300.28680	         9.41752e+57
          1301.09310	         7.73731e+57
          1301.89940	         4.45995e+57
          1302.70570	         6.27179e+57
          1303.51200	         7.13115e+57
          1304.31830	         8.79594e+57
          1305.12460	         9.90477e+57
          1305.93090	         1.16890e+58
          1306.73720	         1.20789e+58
          1307.54350	         1.42791e+58
          1308.34980	         1.61470e+58
          1309.15610	         1.59364e+58
          1309.96240	         1.47723e+58
          1310.76870	         1.17328e+58
          1311.57500	         1.00918e+58
          1312.38130	         1.11838e+58
          1313.18760	         1.29912e+58
          1313.99390	         1.52582e+58
          1314.80020	         1.74823e+58
          1315.60650	         1.49716e+58
          1316.41280	         1.17693e+58
          1317.21910	         9.40649e+57
          1318.02540	         1.04054e+58
          1318.83170	         1.26374e+58
          1319.63800	         1.24587e+58
          1320.44430	         1.09519e+58
          1321.25060	         1.29182e+58
          1322.05690	         1.40004e+58
          1322.86320	         1.28406e+58
          1323.66950	         1.18097e+58
          1324.47580	         1.04488e+58
          1325.28210	         1.13334e+58
          1326.08840	         1.23087e+58
          1326.89470	         1.16266e+58
          1327.70100	         1.03223e+58
          1328.50730	         7.82803e+57
          1329.31360	         8.02577e+57
          1330.11990	         1.00392e+58
          1330.92620	         9.42823e+57
          1331.73250	         1.11135e+58
          1332.53880	         1.11853e+58
          1333.34510	         8.55110e+57
          1334.15140	         9.29007e+57
          1334.95770	         8.59684e+57
          1335.76400	         1.08076e+58
          1336.57030	         1.18536e+58
          1337.37660	         1.03638e+58
          1338.18290	         1.08569e+58
          1338.98920	         1.23950e+58
          1339.79550	         1.25576e+58
          1340.60180	         1.35039e+58
          1341.40810	         1.40903e+58
          1342.21440	         1.11758e+58
          1343.02070	         1.08178e+58
          1343.82700	         1.23596e+58
          1344.63330	         1.24146e+58
          1345.43960	         1.10592e+58
          1346.24590	         1.08290e+58
          1347.05220	         1.27799e+58
          1347.85850	         1.13906e+58
          1348.66480	         1.20572e+58
          1349.47110	         1.25752e+58
          1350.27740	         1.13589e+58
          1351.08370	         1.03811e+58
          1351.89000	         1.09240e+58
          1352.69630	         1.17177e+58
          1353.50260	         1.08917e+58
          1354.30890	         1.11392e+58
          1355.11520	         1.13263e+58
          1355.92150	         1.11555e+58
          1356.72780	         1.11855e+58
          1357.53410	         1.03830e+58
          1358.34040	         1.01013e+58
          1359.14670	         1.02038e+58
          1359.95300	         1.05023e+58
          1360.75930	         1.15935e+58
          1361.56560	         1.12749e+58
          1362.37190	         1.07596e+58
          1363.17820	         1.04249e+58
          1363.98450	         1.05310e+58
          1364.79080	         1.21074e+58
          1365.59710	         1.24574e+58
          1366.40340	         1.31654e+58
          1367.20970	         1.11810e+58
          1368.01600	         1.01882e+58
          1368.82230	         1.10643e+58
          1369.62860	         1.24056e+58
          1370.43490	         1.07203e+58
          1371.24120	         1.02036e+58
          1372.04750	         1.00574e+58
          1372.85380	         1.07162e+58
          1373.66010	         9.67962e+57
          1374.46640	         1.01997e+58
          1375.27270	         1.06347e+58
          1376.07900	         9.37715e+57
          1376.88530	         9.38348e+57
          1377.69160	         9.18594e+57
          1378.49790	         7.27408e+57
          1379.30420	         8.39865e+57
          1380.11050	         1.06498e+58
          1380.91680	         9.50127e+57
          1381.72310	         7.03934e+57
          1382.52940	         7.39319e+57
          1383.33570	         7.24364e+57
          1384.14200	         9.04845e+57
          1384.94830	         1.08607e+58
          1385.75460	         1.11140e+58
          1386.56090	         1.25256e+58
          1387.36720	         1.26245e+58
          1388.17350	         1.40072e+58
          1388.97980	         1.23488e+58
          1389.78610	         8.64219e+57
          1390.59240	         7.80785e+57
          1391.39870	         7.38362e+57
          1392.20500	         8.51345e+57
          1393.01130	         7.80586e+57
          1393.81760	         6.97060e+57
          1394.62390	         6.23079e+57
          1395.43020	         4.69938e+57
          1396.23650	         5.78870e+57
          1397.04280	         7.04740e+57
          1397.84910	         8.54051e+57
          1398.65540	         8.66488e+57
          1399.46170	         9.66174e+57
          1400.26800	         8.72308e+57
          1401.07430	         7.43257e+57
          1401.88060	         8.46959e+57
          1402.68690	         9.85716e+57
          1403.49320	         1.01655e+58
          1404.29950	         1.01425e+58
          1405.10580	         1.11057e+58
          1405.91210	         1.19531e+58
          1406.71840	         1.19575e+58
          1407.52470	         1.01937e+58
          1408.33100	         1.06941e+58
          1409.13730	         1.13027e+58
          1409.94360	         1.09417e+58
          1410.74990	         1.16418e+58
          1411.55620	         1.11556e+58
          1412.36250	         8.34256e+57
          1413.16880	         7.38645e+57
          1413.97510	         7.54079e+57
          1414.78140	         8.19292e+57
          1415.58770	         9.65182e+57
          1416.39400	         1.08383e+58
          1417.20030	         1.17800e+58
          1418.00660	         1.09086e+58
          1418.81290	         1.09682e+58
          1419.61920	         1.16581e+58
          1420.42550	         1.28369e+58
          1421.23180	         1.24437e+58
          1422.03810	         1.16864e+58
          1422.84440	         1.21433e+58
          1423.65070	         1.36931e+58
          1424.45700	         1.10768e+58
          1425.26330	         8.75161e+57
          1426.06960	         8.73777e+57
          1426.87590	         1.03729e+58
          1427.68220	         9.61490e+57
          1428.48850	         1.03120e+58
          1429.29480	         1.05123e+58
          1430.10110	         9.44435e+57
          1430.90740	         8.65344e+57
          1431.71370	         8.35806e+57
          1432.52000	         7.63695e+57
          1433.32630	         8.04296e+57
          1434.13260	         8.67974e+57
          1434.93890	         9.27859e+57
          1435.74520	         1.00386e+58
          1436.55150	         1.02131e+58
          1437.35780	         9.28808e+57
          1438.16410	         8.88934e+57
          1438.97040	         8.85678e+57
          1439.77670	         9.55114e+57
          1440.58300	         9.64407e+57
          1441.38930	         1.00093e+58
          1442.19560	         9.88457e+57
          1443.00190	         9.47815e+57
          1443.80820	         1.08378e+58
          1444.61450	         9.26437e+57
          1445.42080	         7.77701e+57
          1446.22710	         1.03114e+58
          1447.03340	         1.09008e+58
          1447.83970	         1.15566e+58
          1448.64600	         1.13045e+58
          1449.45230	         1.03526e+58
          1450.25860	         9.77826e+57
          1451.06490	         7.99622e+57
          1451.87120	         7.49142e+57
          1452.67750	         8.46040e+57
          1453.48380	         9.34971e+57
          1454.29010	         7.99012e+57
          1455.09640	         8.10914e+57
          1455.90270	         9.94574e+57
          1456.70900	         9.12617e+57
          1457.51530	         1.03592e+58
          1458.32160	         1.24176e+58
          1459.12790	         1.10148e+58
          1459.93420	         9.44703e+57
          1460.74050	         8.54126e+57
          1461.54680	         9.32192e+57
          1462.35310	         9.83190e+57
          1463.15940	         9.14520e+57
          1463.96570	         9.90932e+57
          1464.77200	         1.09352e+58
          1465.57830	         1.03447e+58
          1466.38460	         9.63333e+57
          1467.19090	         9.09814e+57
          1467.99720	         9.76873e+57
          1468.80350	         9.02559e+57
          1469.60980	         9.75257e+57
          1470.41610	         9.60120e+57
          1471.22240	         8.95012e+57
          1472.02870	         9.81205e+57
          1472.83500	         1.07056e+58
          1473.64130	         9.45383e+57
          1474.44760	         8.59884e+57
          1475.25390	         1.02009e+58
          1476.06020	         9.08310e+57
          1476.86650	         7.93698e+57
          1477.67280	         7.15820e+57
          1478.47910	         6.71184e+57
          1479.28540	         7.86242e+57
          1480.09170	         9.10913e+57
          1480.89800	         8.13250e+57
          1481.70430	         8.13710e+57
          1482.51060	         9.38897e+57
          1483.31690	         8.01687e+57
          1484.12320	         7.33205e+57
          1484.92950	         8.01952e+57
          1485.73580	         8.84700e+57
          1486.54210	         9.65470e+57
          1487.34840	         9.02393e+57
          1488.15470	         8.66633e+57
          1488.96100	         8.77110e+57
          1489.76730	         9.65296e+57
