#sample_325_stacked_spectrum_rest_UV-bands_median_H-alpha_noDC.txt
#median Lum: 1.68270e+42
#Rest-frame wavelength (A) | Luminosity (erg/s/A)
#
          1110.00000	         0.00000e+00
          1110.80630	         2.66288e+59
          1111.61260	         1.60426e+59
          1112.41890	         1.02970e+59
          1113.22520	         2.42394e+58
          1114.03150	        -1.91248e+59
          1114.83780	         8.09323e+58
          1115.64410	         8.05927e+58
          1116.45040	        -1.06570e+59
          1117.25670	         8.39681e+58
          1118.06300	         1.47550e+59
          1118.86930	        -7.00818e+58
          1119.67560	         1.94169e+58
          1120.48190	        -2.60052e+58
          1121.28820	        -1.88433e+59
          1122.09450	        -5.58944e+58
          1122.90080	         1.23394e+59
          1123.70710	         1.37190e+59
          1124.51340	         1.18709e+58
          1125.31970	         4.46132e+56
          1126.12600	         1.35732e+58
          1126.93230	        -6.60576e+58
          1127.73860	        -3.50247e+58
          1128.54490	        -2.61516e+58
          1129.35120	        -3.58204e+58
          1130.15750	        -2.73540e+58
          1130.96380	         2.92418e+58
          1131.77010	         6.27520e+58
          1132.57640	         2.81949e+58
          1133.38270	         3.35919e+58
          1134.18900	         2.04205e+58
          1134.99530	         2.89757e+58
          1135.80160	         1.89663e+58
          1136.60790	         1.20903e+58
          1137.41420	        -1.19080e+57
          1138.22050	         4.07594e+58
          1139.02680	         3.61174e+58
          1139.83310	         9.06247e+57
          1140.63940	         2.00174e+58
          1141.44570	        -8.82892e+57
          1142.25200	        -4.53298e+57
          1143.05830	         2.91630e+58
          1143.86460	         4.13185e+58
          1144.67090	         2.43117e+58
          1145.47720	         1.72468e+58
          1146.28350	         9.96819e+57
          1147.08980	         3.70934e+57
          1147.89610	         1.70476e+58
          1148.70240	         2.92029e+58
          1149.50870	         2.36188e+58
          1150.31500	         2.03826e+58
          1151.12130	         8.15276e+57
          1151.92760	         4.65969e+57
          1152.73390	        -6.98568e+57
          1153.54020	         1.05570e+58
          1154.34650	         2.32171e+58
          1155.15280	         2.36413e+58
          1155.95910	         1.54376e+58
          1156.76540	         1.90889e+58
          1157.57170	         2.73968e+57
          1158.37800	        -1.10709e+57
          1159.18430	        -5.53756e+57
          1159.99060	         8.21096e+56
          1160.79690	         1.62351e+57
          1161.60320	         1.10201e+58
          1162.40950	         2.59706e+58
          1163.21580	         2.38548e+58
          1164.02210	         1.42368e+58
          1164.82840	         1.28692e+58
          1165.63470	         2.15562e+58
          1166.44100	         3.22365e+58
          1167.24730	         1.91085e+58
          1168.05360	         7.19176e+57
          1168.85990	         7.50925e+57
          1169.66620	         6.74066e+57
          1170.47250	         2.81589e+57
          1171.27880	         6.04104e+57
          1172.08510	         7.90465e+57
          1172.89140	         6.11885e+57
          1173.69770	         8.57674e+57
          1174.50400	         1.27455e+58
          1175.31030	         1.33806e+58
          1176.11660	         1.59154e+58
          1176.92290	         1.36053e+58
          1177.72920	         1.18662e+58
          1178.53550	         5.47489e+57
          1179.34180	         4.68988e+57
          1180.14810	         8.12316e+57
          1180.95440	         9.17221e+57
          1181.76070	         8.14860e+57
          1182.56700	         9.79327e+57
          1183.37330	         9.69299e+57
          1184.17960	         1.18216e+58
          1184.98590	         8.86726e+57
          1185.79220	         7.18162e+57
          1186.59850	         1.11621e+58
          1187.40480	         9.66275e+57
          1188.21110	         1.64821e+58
          1189.01740	         8.95891e+57
          1189.82370	         1.44208e+58
          1190.63000	         1.08887e+58
          1191.43630	         8.45559e+57
          1192.24260	         1.09699e+58
          1193.04890	         1.64154e+58
          1193.85520	         1.07338e+58
          1194.66150	         3.50813e+57
          1195.46780	         8.36430e+57
          1196.27410	         1.46324e+58
          1197.08040	         1.33030e+58
          1197.88670	         1.72764e+58
          1198.69300	         1.67227e+58
          1199.49930	         1.97765e+58
          1200.30560	         1.25662e+58
          1201.11190	         1.51707e+58
          1201.91820	         1.40532e+58
          1202.72450	         9.23152e+57
          1203.53080	         1.26758e+58
          1204.33710	         1.02692e+58
          1205.14340	         9.49058e+57
          1205.94970	         9.98955e+57
          1206.75600	         1.02936e+58
          1207.56230	         6.20546e+57
          1208.36860	         1.04589e+58
          1209.17490	         5.40082e+57
          1209.98120	         6.58077e+57
          1210.78750	         6.38569e+57
          1211.59380	         9.48344e+57
          1212.40010	         1.60289e+58
          1213.20640	         1.75981e+58
          1214.01270	         2.34541e+58
          1214.81900	         2.93794e+58
          1215.62530	         4.48149e+58
          1216.43160	         9.15045e+58
          1217.23790	         1.52640e+59
          1218.04420	         1.13692e+59
          1218.85050	         8.56785e+58
          1219.65680	         5.85076e+58
          1220.46310	         3.42465e+58
          1221.26940	         2.50065e+58
          1222.07570	         1.60417e+58
          1222.88200	         1.17620e+58
          1223.68830	         1.19904e+58
          1224.49460	         7.90539e+57
          1225.30090	         4.91506e+57
          1226.10720	         4.98407e+57
          1226.91350	         7.27561e+57
          1227.71980	         1.03081e+58
          1228.52610	         1.13483e+58
          1229.33240	         1.01826e+58
          1230.13870	         1.02942e+58
          1230.94500	         7.00768e+57
          1231.75130	         9.62570e+57
          1232.55760	         1.11402e+58
          1233.36390	         8.42013e+57
          1234.17020	         8.11288e+57
          1234.97650	         6.09213e+57
          1235.78280	         6.26118e+57
          1236.58910	         6.99387e+57
          1237.39540	         1.00556e+58
          1238.20170	         1.04927e+58
          1239.00800	         1.24409e+58
          1239.81430	         1.48128e+58
          1240.62060	         1.28102e+58
          1241.42690	         1.10645e+58
          1242.23320	         1.12026e+58
          1243.03950	         7.92671e+57
          1243.84580	         7.42250e+57
          1244.65210	         1.04026e+58
          1245.45840	         1.02182e+58
          1246.26470	         8.13909e+57
          1247.07100	         5.92101e+57
          1247.87730	         4.64696e+57
          1248.68360	         5.31921e+57
          1249.48990	         1.09457e+58
          1250.29620	         1.11568e+58
          1251.10250	         7.78460e+57
          1251.90880	         5.46513e+57
          1252.71510	         6.03797e+57
          1253.52140	         1.04508e+58
          1254.32770	         1.11893e+58
          1255.13400	         1.42779e+58
          1255.94030	         1.22958e+58
          1256.74660	         1.06832e+58
          1257.55290	         1.00642e+58
          1258.35920	         8.91848e+57
          1259.16550	         8.38066e+57
          1259.97180	         5.65779e+57
          1260.77810	         6.96725e+57
          1261.58440	         9.82362e+57
          1262.39070	         1.01670e+58
          1263.19700	         9.36501e+57
          1264.00330	         8.17673e+57
          1264.80960	         8.57163e+57
          1265.61590	         1.23066e+58
          1266.42220	         1.12909e+58
          1267.22850	         1.04673e+58
          1268.03480	         1.34087e+58
          1268.84110	         1.37526e+58
          1269.64740	         1.24508e+58
          1270.45370	         1.22520e+58
          1271.26000	         1.12816e+58
          1272.06630	         1.06945e+58
          1272.87260	         1.00087e+58
          1273.67890	         1.02338e+58
          1274.48520	         1.20379e+58
          1275.29150	         1.22171e+58
          1276.09780	         1.10400e+58
          1276.90410	         1.35133e+58
          1277.71040	         1.25999e+58
          1278.51670	         1.25076e+58
          1279.32300	         1.39975e+58
          1280.12930	         1.26884e+58
          1280.93560	         1.09005e+58
          1281.74190	         1.20130e+58
          1282.54820	         1.27616e+58
          1283.35450	         9.54883e+57
          1284.16080	         9.75329e+57
          1284.96710	         1.49453e+58
          1285.77340	         1.27657e+58
          1286.57970	         1.03894e+58
          1287.38600	         1.27390e+58
          1288.19230	         1.64396e+58
          1288.99860	         1.60195e+58
          1289.80490	         1.10525e+58
          1290.61120	         1.22066e+58
          1291.41750	         1.22966e+58
          1292.22380	         1.23084e+58
          1293.03010	         1.22805e+58
          1293.83640	         1.23818e+58
          1294.64270	         9.02135e+57
          1295.44900	         4.78361e+57
          1296.25530	         6.47283e+57
          1297.06160	         1.03172e+58
          1297.86790	         9.91163e+57
          1298.67420	         8.95582e+57
          1299.48050	         1.03261e+58
          1300.28680	         1.15640e+58
          1301.09310	         9.27079e+57
          1301.89940	         4.07886e+57
          1302.70570	         7.14511e+57
          1303.51200	         8.59361e+57
          1304.31830	         9.83992e+57
          1305.12460	         1.15289e+58
          1305.93090	         1.13143e+58
          1306.73720	         1.12524e+58
          1307.54350	         1.44637e+58
          1308.34980	         1.43857e+58
          1309.15610	         1.41762e+58
          1309.96240	         1.56477e+58
          1310.76870	         1.46194e+58
          1311.57500	         1.05871e+58
          1312.38130	         1.05390e+58
          1313.18760	         1.21878e+58
          1313.99390	         1.41666e+58
          1314.80020	         1.51339e+58
          1315.60650	         1.35221e+58
          1316.41280	         1.09131e+58
          1317.21910	         1.10608e+58
          1318.02540	         1.10731e+58
          1318.83170	         1.19364e+58
          1319.63800	         1.09213e+58
          1320.44430	         1.27065e+58
          1321.25060	         1.27311e+58
          1322.05690	         1.13134e+58
          1322.86320	         1.24972e+58
          1323.66950	         1.12426e+58
          1324.47580	         1.01744e+58
          1325.28210	         1.01523e+58
          1326.08840	         9.91761e+57
          1326.89470	         1.06301e+58
          1327.70100	         8.90512e+57
          1328.50730	         7.38180e+57
          1329.31360	         9.64435e+57
          1330.11990	         9.24041e+57
          1330.92620	         8.96588e+57
          1331.73250	         1.05762e+58
          1332.53880	         1.02847e+58
          1333.34510	         1.03846e+58
          1334.15140	         9.40927e+57
          1334.95770	         9.17596e+57
          1335.76400	         1.05029e+58
          1336.57030	         1.14779e+58
          1337.37660	         1.08527e+58
          1338.18290	         1.08677e+58
          1338.98920	         1.16566e+58
          1339.79550	         1.05511e+58
          1340.60180	         9.84044e+57
          1341.40810	         1.17335e+58
          1342.21440	         1.26920e+58
          1343.02070	         1.25753e+58
          1343.82700	         1.25324e+58
          1344.63330	         1.13514e+58
          1345.43960	         1.26350e+58
          1346.24590	         1.25513e+58
          1347.05220	         1.20386e+58
          1347.85850	         1.14094e+58
          1348.66480	         1.29269e+58
          1349.47110	         1.28355e+58
          1350.27740	         1.32099e+58
          1351.08370	         1.20371e+58
          1351.89000	         1.09227e+58
          1352.69630	         1.21323e+58
          1353.50260	         1.38367e+58
          1354.30890	         1.37059e+58
          1355.11520	         1.24164e+58
          1355.92150	         1.08101e+58
          1356.72780	         1.10041e+58
          1357.53410	         1.13012e+58
          1358.34040	         1.08513e+58
          1359.14670	         1.09552e+58
          1359.95300	         1.16192e+58
          1360.75930	         1.19296e+58
          1361.56560	         1.06029e+58
          1362.37190	         1.15542e+58
          1363.17820	         1.34659e+58
          1363.98450	         1.26744e+58
          1364.79080	         1.15773e+58
          1365.59710	         1.28411e+58
          1366.40340	         1.27434e+58
          1367.20970	         9.46289e+57
          1368.01600	         9.01391e+57
          1368.82230	         9.79851e+57
          1369.62860	         1.06650e+58
          1370.43490	         9.32097e+57
          1371.24120	         8.28267e+57
          1372.04750	         6.72752e+57
          1372.85380	         9.81655e+57
          1373.66010	         1.16880e+58
          1374.46640	         9.37493e+57
          1375.27270	         9.00092e+57
          1376.07900	         8.28866e+57
          1376.88530	         7.91010e+57
          1377.69160	         8.56011e+57
          1378.49790	         7.84819e+57
          1379.30420	         7.41412e+57
          1380.11050	         9.69612e+57
          1380.91680	         8.66200e+57
          1381.72310	         7.74793e+57
          1382.52940	         8.40562e+57
          1383.33570	         7.62673e+57
          1384.14200	         8.90258e+57
          1384.94830	         1.02228e+58
          1385.75460	         1.05925e+58
          1386.56090	         1.28101e+58
          1387.36720	         8.97041e+57
          1388.17350	         9.87792e+57
          1388.97980	         1.14991e+58
          1389.78610	         9.84365e+57
          1390.59240	         8.00295e+57
          1391.39870	         6.10608e+57
          1392.20500	         7.98845e+57
          1393.01130	         7.70009e+57
          1393.81760	         6.79219e+57
          1394.62390	         7.02156e+57
          1395.43020	         6.00691e+57
          1396.23650	         5.11493e+57
          1397.04280	         6.15019e+57
          1397.84910	         9.01217e+57
          1398.65540	         9.29378e+57
          1399.46170	         8.95391e+57
          1400.26800	         8.07151e+57
          1401.07430	         7.83683e+57
          1401.88060	         8.62642e+57
          1402.68690	         9.51899e+57
          1403.49320	         9.51629e+57
          1404.29950	         8.96530e+57
          1405.10580	         1.05263e+58
          1405.91210	         1.14966e+58
          1406.71840	         1.05118e+58
          1407.52470	         1.09018e+58
          1408.33100	         1.06108e+58
          1409.13730	         1.08150e+58
          1409.94360	         1.08653e+58
          1410.74990	         1.08976e+58
          1411.55620	         9.17715e+57
          1412.36250	         9.26590e+57
          1413.16880	         9.98412e+57
          1413.97510	         7.44826e+57
          1414.78140	         7.47297e+57
          1415.58770	         1.04601e+58
          1416.39400	         1.08013e+58
          1417.20030	         1.06787e+58
          1418.00660	         9.37667e+57
          1418.81290	         1.03814e+58
          1419.61920	         1.10516e+58
          1420.42550	         1.14966e+58
          1421.23180	         1.28936e+58
          1422.03810	         1.14266e+58
          1422.84440	         1.11061e+58
          1423.65070	         1.38543e+58
          1424.45700	         1.28941e+58
          1425.26330	         1.05635e+58
          1426.06960	         1.02517e+58
          1426.87590	         1.05972e+58
          1427.68220	         1.05580e+58
          1428.48850	         1.00056e+58
          1429.29480	         8.73115e+57
          1430.10110	         9.02579e+57
          1430.90740	         9.10537e+57
          1431.71370	         9.47837e+57
          1432.52000	         9.36965e+57
          1433.32630	         8.29477e+57
          1434.13260	         7.36766e+57
          1434.93890	         7.31792e+57
          1435.74520	         9.14548e+57
          1436.55150	         9.28181e+57
          1437.35780	         9.38846e+57
          1438.16410	         1.00262e+58
          1438.97040	         9.13633e+57
          1439.77670	         9.24208e+57
          1440.58300	         9.47867e+57
          1441.38930	         9.58665e+57
          1442.19560	         1.00522e+58
          1443.00190	         9.82989e+57
          1443.80820	         1.03238e+58
          1444.61450	         1.00424e+58
          1445.42080	         8.65822e+57
          1446.22710	         1.00746e+58
          1447.03340	         1.14524e+58
          1447.83970	         1.13969e+58
          1448.64600	         1.17179e+58
          1449.45230	         1.20696e+58
          1450.25860	         1.06485e+58
          1451.06490	         8.90447e+57
          1451.87120	         7.94618e+57
          1452.67750	         7.74188e+57
          1453.48380	         9.02041e+57
          1454.29010	         8.35212e+57
          1455.09640	         7.58920e+57
          1455.90270	         8.80598e+57
          1456.70900	         9.28580e+57
          1457.51530	         9.86276e+57
          1458.32160	         1.24711e+58
          1459.12790	         1.18324e+58
          1459.93420	         9.39849e+57
          1460.74050	         8.32843e+57
          1461.54680	         8.35737e+57
          1462.35310	         7.29148e+57
          1463.15940	         9.67603e+57
          1463.96570	         1.14508e+58
          1464.77200	         1.19169e+58
          1465.57830	         1.14512e+58
          1466.38460	         9.85942e+57
          1467.19090	         8.59401e+57
          1467.99720	         8.18221e+57
          1468.80350	         9.10800e+57
          1469.60980	         9.29285e+57
          1470.41610	         9.85814e+57
          1471.22240	         9.80807e+57
          1472.02870	         1.05616e+58
          1472.83500	         9.93895e+57
          1473.64130	         9.46417e+57
          1474.44760	         9.58843e+57
          1475.25390	         9.92054e+57
          1476.06020	         9.75471e+57
          1476.86650	         9.43192e+57
          1477.67280	         7.85161e+57
          1478.47910	         6.87630e+57
          1479.28540	         7.50354e+57
          1480.09170	         8.64259e+57
          1480.89800	         8.55774e+57
          1481.70430	         9.30739e+57
          1482.51060	         9.11173e+57
          1483.31690	         7.50652e+57
          1484.12320	         8.14798e+57
          1484.92950	         9.10889e+57
          1485.73580	         8.36475e+57
          1486.54210	         7.70969e+57
          1487.34840	         8.82292e+57
          1488.15470	         8.75600e+57
          1488.96100	         8.16775e+57
          1489.76730	         9.08040e+57
