#sample_383_stacked_spectrum_rest_UV-bands_median_H-alpha_noDC.txt
#median Lum: 1.69296e+42
#Rest-frame wavelength (A) | Luminosity (erg/s/A)
#
          1110.00000	         0.00000e+00
          1110.80630	         9.59504e+58
          1111.61260	         3.60141e+59
          1112.41890	         1.40328e+59
          1113.22520	        -9.99658e+57
          1114.03150	         4.78724e+58
          1114.83780	         2.40518e+59
          1115.64410	        -4.95587e+58
          1116.45040	         3.34846e+58
          1117.25670	         1.50645e+59
          1118.06300	         1.31093e+59
          1118.86930	         4.91682e+58
          1119.67560	         1.69093e+59
          1120.48190	         7.25082e+58
          1121.28820	        -1.19550e+59
          1122.09450	        -5.59843e+58
          1122.90080	         4.17956e+58
          1123.70710	         7.34378e+58
          1124.51340	         1.26147e+59
          1125.31970	        -1.08551e+58
          1126.12600	        -1.20610e+58
          1126.93230	        -5.58965e+58
          1127.73860	        -1.71832e+58
          1128.54490	        -2.28260e+58
          1129.35120	         1.97813e+58
          1130.15750	        -2.79852e+58
          1130.96380	        -2.93303e+58
          1131.77010	         7.05384e+57
          1132.57640	         4.92561e+58
          1133.38270	         3.41982e+58
          1134.18900	         2.85403e+58
          1134.99530	         3.34960e+58
          1135.80160	         3.36973e+58
          1136.60790	         4.06849e+57
          1137.41420	         3.31913e+56
          1138.22050	         4.36179e+58
          1139.02680	         3.77124e+58
          1139.83310	         3.52921e+58
          1140.63940	         2.74635e+58
          1141.44570	        -6.32634e+57
          1142.25200	        -8.08125e+57
          1143.05830	         7.42114e+57
          1143.86460	         2.34343e+58
          1144.67090	         2.54932e+58
          1145.47720	         2.13668e+58
          1146.28350	         7.63752e+57
          1147.08980	         1.18434e+58
          1147.89610	         1.00389e+58
          1148.70240	         1.08578e+58
          1149.50870	         2.62175e+58
          1150.31500	         8.95054e+57
          1151.12130	         1.46764e+58
          1151.92760	         4.76060e+57
          1152.73390	         5.21348e+57
          1153.54020	         1.21796e+57
          1154.34650	         2.28644e+58
          1155.15280	         1.68285e+58
          1155.95910	         3.42422e+57
          1156.76540	         5.53138e+57
          1157.57170	         5.60524e+57
          1158.37800	         2.96133e+55
          1159.18430	        -7.22283e+57
          1159.99060	         1.35116e+58
          1160.79690	         1.52281e+58
          1161.60320	         1.27984e+58
          1162.40950	         2.07643e+58
          1163.21580	         1.18156e+58
          1164.02210	         1.47611e+58
          1164.82840	         5.44485e+57
          1165.63470	         2.04157e+58
          1166.44100	         2.74426e+58
          1167.24730	         2.04298e+58
          1168.05360	         1.39051e+58
          1168.85990	         1.09430e+58
          1169.66620	         4.88581e+57
          1170.47250	         1.01549e+58
          1171.27880	         1.12407e+58
          1172.08510	         4.76187e+57
          1172.89140	         8.06268e+57
          1173.69770	         1.22062e+58
          1174.50400	         1.42207e+58
          1175.31030	         1.32829e+58
          1176.11660	         8.48603e+57
          1176.92290	         1.38168e+58
          1177.72920	         1.11822e+58
          1178.53550	         1.17436e+58
          1179.34180	         5.23700e+57
          1180.14810	         3.72248e+56
          1180.95440	         3.29939e+57
          1181.76070	         1.04093e+58
          1182.56700	         9.99398e+57
          1183.37330	         6.48906e+57
          1184.17960	         1.03267e+58
          1184.98590	         1.29243e+58
          1185.79220	         1.60227e+58
          1186.59850	         1.84966e+58
          1187.40480	         1.49197e+58
          1188.21110	         1.57660e+58
          1189.01740	         5.75670e+57
          1189.82370	         6.20186e+57
          1190.63000	         1.04107e+58
          1191.43630	         1.41569e+58
          1192.24260	         9.87080e+57
          1193.04890	         1.15294e+58
          1193.85520	         7.58063e+57
          1194.66150	         2.55829e+57
          1195.46780	         6.79335e+57
          1196.27410	         1.18886e+58
          1197.08040	         8.45695e+57
          1197.88670	         1.25849e+58
          1198.69300	         1.34282e+58
          1199.49930	         1.70064e+58
          1200.30560	         1.10632e+58
          1201.11190	         7.83765e+57
          1201.91820	         6.38343e+57
          1202.72450	         6.96035e+57
          1203.53080	         1.19231e+58
          1204.33710	         8.49038e+57
          1205.14340	         6.66239e+57
          1205.94970	         7.14530e+57
          1206.75600	         4.76046e+57
          1207.56230	         6.91958e+57
          1208.36860	         9.34335e+57
          1209.17490	         4.77582e+57
          1209.98120	         4.10653e+57
          1210.78750	         5.02326e+57
          1211.59380	         1.03731e+58
          1212.40010	         1.86001e+58
          1213.20640	         1.98595e+58
          1214.01270	         2.05906e+58
          1214.81900	         2.46403e+58
          1215.62530	         4.45326e+58
          1216.43160	         8.86411e+58
          1217.23790	         1.45937e+59
          1218.04420	         1.19032e+59
          1218.85050	         8.70413e+58
          1219.65680	         6.17085e+58
          1220.46310	         4.16140e+58
          1221.26940	         2.29792e+58
          1222.07570	         1.94895e+58
          1222.88200	         1.34257e+58
          1223.68830	         8.10103e+57
          1224.49460	         1.06562e+58
          1225.30090	         9.53807e+57
          1226.10720	         8.69060e+57
          1226.91350	         8.62954e+57
          1227.71980	         6.49831e+57
          1228.52610	         1.01671e+58
          1229.33240	         9.51867e+57
          1230.13870	         9.64936e+57
          1230.94500	         6.45732e+57
          1231.75130	         5.32313e+57
          1232.55760	         1.05023e+58
          1233.36390	         1.05265e+58
          1234.17020	         7.20612e+57
          1234.97650	         7.65086e+57
          1235.78280	         7.13943e+57
          1236.58910	         8.16377e+57
          1237.39540	         1.02199e+58
          1238.20170	         9.87064e+57
          1239.00800	         1.27138e+58
          1239.81430	         1.40241e+58
          1240.62060	         1.06012e+58
          1241.42690	         9.81087e+57
          1242.23320	         1.16479e+58
          1243.03950	         8.49860e+57
          1243.84580	         8.18545e+57
          1244.65210	         8.51781e+57
          1245.45840	         8.43239e+57
          1246.26470	         8.10247e+57
          1247.07100	         6.59830e+57
          1247.87730	         6.53119e+57
          1248.68360	         2.98141e+57
          1249.48990	         9.60060e+57
          1250.29620	         1.25213e+58
          1251.10250	         5.95109e+57
          1251.90880	         5.98028e+57
          1252.71510	         8.47313e+57
          1253.52140	         9.83389e+57
          1254.32770	         1.12417e+58
          1255.13400	         1.26044e+58
          1255.94030	         1.33514e+58
          1256.74660	         1.16030e+58
          1257.55290	         9.99170e+57
          1258.35920	         8.51317e+57
          1259.16550	         6.53076e+57
          1259.97180	         6.71305e+57
          1260.77810	         9.54393e+57
          1261.58440	         1.15243e+58
          1262.39070	         8.62573e+57
          1263.19700	         7.34558e+57
          1264.00330	         9.43924e+57
          1264.80960	         1.01833e+58
          1265.61590	         1.09931e+58
          1266.42220	         1.18605e+58
          1267.22850	         1.20895e+58
          1268.03480	         1.47993e+58
          1268.84110	         1.69382e+58
          1269.64740	         1.48769e+58
          1270.45370	         1.28406e+58
          1271.26000	         1.08153e+58
          1272.06630	         9.62054e+57
          1272.87260	         1.18978e+58
          1273.67890	         1.31213e+58
          1274.48520	         1.37541e+58
          1275.29150	         1.48583e+58
          1276.09780	         1.35510e+58
          1276.90410	         1.66915e+58
          1277.71040	         1.55869e+58
          1278.51670	         1.38062e+58
          1279.32300	         1.57092e+58
          1280.12930	         1.28441e+58
          1280.93560	         9.31766e+57
          1281.74190	         9.90833e+57
          1282.54820	         1.22691e+58
          1283.35450	         1.21436e+58
          1284.16080	         1.19916e+58
          1284.96710	         1.24202e+58
          1285.77340	         1.04383e+58
          1286.57970	         1.02834e+58
          1287.38600	         1.52630e+58
          1288.19230	         1.72345e+58
          1288.99860	         1.47045e+58
          1289.80490	         1.01303e+58
          1290.61120	         1.18787e+58
          1291.41750	         1.29579e+58
          1292.22380	         1.20560e+58
          1293.03010	         1.15147e+58
          1293.83640	         1.14936e+58
          1294.64270	         1.01431e+58
          1295.44900	         7.10150e+57
          1296.25530	         7.01700e+57
          1297.06160	         8.97461e+57
          1297.86790	         9.49940e+57
          1298.67420	         1.01258e+58
          1299.48050	         1.04831e+58
          1300.28680	         9.90007e+57
          1301.09310	         7.61439e+57
          1301.89940	         4.31916e+57
          1302.70570	         5.50697e+57
          1303.51200	         8.35657e+57
          1304.31830	         9.48047e+57
          1305.12460	         9.43524e+57
          1305.93090	         1.11420e+58
          1306.73720	         1.32613e+58
          1307.54350	         1.29058e+58
          1308.34980	         1.40796e+58
          1309.15610	         1.53026e+58
          1309.96240	         1.62193e+58
          1310.76870	         1.38601e+58
          1311.57500	         1.10737e+58
          1312.38130	         1.15478e+58
          1313.18760	         1.33706e+58
          1313.99390	         1.33736e+58
          1314.80020	         1.59961e+58
          1315.60650	         1.68795e+58
          1316.41280	         1.35566e+58
          1317.21910	         1.25473e+58
          1318.02540	         1.35108e+58
          1318.83170	         1.32267e+58
          1319.63800	         1.19838e+58
          1320.44430	         1.12243e+58
          1321.25060	         1.33337e+58
          1322.05690	         1.45574e+58
          1322.86320	         1.22265e+58
          1323.66950	         1.17211e+58
          1324.47580	         9.97797e+57
          1325.28210	         1.19823e+58
          1326.08840	         1.38813e+58
          1326.89470	         1.26383e+58
          1327.70100	         1.05729e+58
          1328.50730	         8.74580e+57
          1329.31360	         9.53260e+57
          1330.11990	         9.41846e+57
          1330.92620	         9.10657e+57
          1331.73250	         1.20834e+58
          1332.53880	         1.16792e+58
          1333.34510	         1.03472e+58
          1334.15140	         9.46791e+57
          1334.95770	         9.40116e+57
          1335.76400	         1.02605e+58
          1336.57030	         1.07366e+58
          1337.37660	         1.06129e+58
          1338.18290	         1.12814e+58
          1338.98920	         1.34008e+58
          1339.79550	         1.30560e+58
          1340.60180	         1.31430e+58
          1341.40810	         1.34727e+58
          1342.21440	         1.25372e+58
          1343.02070	         1.27368e+58
          1343.82700	         1.17361e+58
          1344.63330	         1.23891e+58
          1345.43960	         1.67393e+58
          1346.24590	         1.52043e+58
          1347.05220	         1.09997e+58
          1347.85850	         1.03089e+58
          1348.66480	         1.29578e+58
          1349.47110	         1.10885e+58
          1350.27740	         9.39231e+57
          1351.08370	         1.09858e+58
          1351.89000	         1.32574e+58
          1352.69630	         1.25197e+58
          1353.50260	         1.22903e+58
          1354.30890	         1.29849e+58
          1355.11520	         1.13094e+58
          1355.92150	         9.72058e+57
          1356.72780	         1.04713e+58
          1357.53410	         1.10468e+58
          1358.34040	         1.14507e+58
          1359.14670	         1.13029e+58
          1359.95300	         1.16807e+58
          1360.75930	         1.08882e+58
          1361.56560	         1.05336e+58
          1362.37190	         1.22236e+58
          1363.17820	         1.13381e+58
          1363.98450	         1.13368e+58
          1364.79080	         1.25380e+58
          1365.59710	         1.25029e+58
          1366.40340	         1.26999e+58
          1367.20970	         1.23349e+58
          1368.01600	         1.03089e+58
          1368.82230	         9.38356e+57
          1369.62860	         1.17351e+58
          1370.43490	         1.21882e+58
          1371.24120	         1.15592e+58
          1372.04750	         1.06572e+58
          1372.85380	         1.18246e+58
          1373.66010	         1.29075e+58
          1374.46640	         1.21160e+58
          1375.27270	         1.24608e+58
          1376.07900	         8.46744e+57
          1376.88530	         8.30338e+57
          1377.69160	         8.55999e+57
          1378.49790	         6.11213e+57
          1379.30420	         7.29791e+57
          1380.11050	         9.24591e+57
          1380.91680	         9.87250e+57
          1381.72310	         9.22188e+57
          1382.52940	         1.00974e+58
          1383.33570	         1.05597e+58
          1384.14200	         1.14782e+58
          1384.94830	         1.19793e+58
          1385.75460	         1.23422e+58
          1386.56090	         1.14135e+58
          1387.36720	         1.14082e+58
          1388.17350	         1.26903e+58
          1388.97980	         1.00277e+58
          1389.78610	         8.07548e+57
          1390.59240	         7.49608e+57
          1391.39870	         6.91033e+57
          1392.20500	         8.46068e+57
          1393.01130	         8.77402e+57
          1393.81760	         6.83667e+57
          1394.62390	         6.46666e+57
          1395.43020	         6.72248e+57
          1396.23650	         7.08570e+57
          1397.04280	         7.15926e+57
          1397.84910	         8.06772e+57
          1398.65540	         9.15316e+57
          1399.46170	         9.83417e+57
          1400.26800	         8.89548e+57
          1401.07430	         7.34738e+57
          1401.88060	         8.63578e+57
          1402.68690	         9.32988e+57
          1403.49320	         9.43811e+57
          1404.29950	         9.50450e+57
          1405.10580	         1.03478e+58
          1405.91210	         1.11874e+58
          1406.71840	         1.13835e+58
          1407.52470	         1.08677e+58
          1408.33100	         9.70194e+57
          1409.13730	         1.13106e+58
          1409.94360	         1.13329e+58
          1410.74990	         1.18952e+58
          1411.55620	         1.06622e+58
          1412.36250	         1.01993e+58
          1413.16880	         9.81113e+57
          1413.97510	         8.70580e+57
          1414.78140	         9.06921e+57
          1415.58770	         1.07112e+58
          1416.39400	         1.15871e+58
          1417.20030	         1.11676e+58
          1418.00660	         9.41247e+57
          1418.81290	         1.00890e+58
          1419.61920	         1.18954e+58
          1420.42550	         1.27603e+58
          1421.23180	         1.49906e+58
          1422.03810	         1.42150e+58
          1422.84440	         1.25161e+58
          1423.65070	         1.19638e+58
          1424.45700	         1.10482e+58
          1425.26330	         7.82597e+57
          1426.06960	         8.53111e+57
          1426.87590	         1.05051e+58
          1427.68220	         1.04060e+58
          1428.48850	         1.21994e+58
          1429.29480	         1.18292e+58
          1430.10110	         1.13470e+58
          1430.90740	         1.04133e+58
          1431.71370	         1.01329e+58
          1432.52000	         9.57868e+57
          1433.32630	         8.23097e+57
          1434.13260	         7.27077e+57
          1434.93890	         8.31272e+57
          1435.74520	         9.08708e+57
          1436.55150	         9.82603e+57
          1437.35780	         9.15250e+57
          1438.16410	         9.84425e+57
          1438.97040	         8.98654e+57
          1439.77670	         9.09804e+57
          1440.58300	         9.89008e+57
          1441.38930	         1.01307e+58
          1442.19560	         9.77039e+57
          1443.00190	         9.60422e+57
          1443.80820	         1.10790e+58
          1444.61450	         1.08158e+58
          1445.42080	         8.62216e+57
          1446.22710	         9.90516e+57
          1447.03340	         1.00485e+58
          1447.83970	         1.05067e+58
          1448.64600	         1.06390e+58
          1449.45230	         9.58922e+57
          1450.25860	         1.04889e+58
          1451.06490	         9.38523e+57
          1451.87120	         7.33120e+57
          1452.67750	         7.74144e+57
          1453.48380	         8.78614e+57
          1454.29010	         8.44704e+57
          1455.09640	         8.34414e+57
          1455.90270	         9.23879e+57
          1456.70900	         1.02507e+58
          1457.51530	         1.06393e+58
          1458.32160	         1.20606e+58
          1459.12790	         1.21836e+58
          1459.93420	         9.88976e+57
          1460.74050	         8.74981e+57
          1461.54680	         8.80192e+57
          1462.35310	         7.63891e+57
          1463.15940	         9.62076e+57
          1463.96570	         1.17983e+58
          1464.77200	         1.22067e+58
          1465.57830	         1.14407e+58
          1466.38460	         9.68423e+57
          1467.19090	         9.35292e+57
          1467.99720	         9.06795e+57
          1468.80350	         9.92923e+57
          1469.60980	         1.05403e+58
          1470.41610	         1.09158e+58
          1471.22240	         1.02972e+58
          1472.02870	         1.03601e+58
          1472.83500	         1.09498e+58
          1473.64130	         1.00331e+58
          1474.44760	         9.32748e+57
          1475.25390	         9.66342e+57
          1476.06020	         9.62599e+57
          1476.86650	         8.55248e+57
          1477.67280	         7.52572e+57
          1478.47910	         7.57180e+57
          1479.28540	         8.31618e+57
          1480.09170	         8.92479e+57
          1480.89800	         8.58175e+57
          1481.70430	         9.31794e+57
          1482.51060	         9.33953e+57
          1483.31690	         8.57078e+57
          1484.12320	         8.00034e+57
          1484.92950	         8.14558e+57
          1485.73580	         8.27175e+57
          1486.54210	         9.02029e+57
          1487.34840	         9.70217e+57
          1488.15470	         9.04800e+57
          1488.96100	         9.55586e+57
          1489.76730	         9.54040e+57
