#sample_205_stacked_spectrum_rest_UV-bands_median_H-alpha_noDC.txt
#median Lum: 1.67440e+42
#Rest-frame wavelength (A) | Luminosity (erg/s/A)
#
          1110.00000	         0.00000e+00
          1110.80630	         1.90384e+59
          1111.61260	         1.98886e+58
          1112.41890	         2.51605e+58
          1113.22520	        -9.00605e+58
          1114.03150	         5.20865e+58
          1114.83780	        -5.31933e+58
          1115.64410	         1.69059e+59
          1116.45040	         6.82756e+58
          1117.25670	         1.67260e+59
          1118.06300	         6.89353e+58
          1118.86930	         9.44734e+58
          1119.67560	         6.84264e+58
          1120.48190	        -6.55805e+58
          1121.28820	        -9.04288e+58
          1122.09450	        -2.77455e+58
          1122.90080	        -4.69076e+58
          1123.70710	         2.68398e+58
          1124.51340	         5.25219e+58
          1125.31970	        -7.77158e+57
          1126.12600	         2.43970e+58
          1126.93230	        -4.87334e+58
          1127.73860	        -7.83200e+58
          1128.54490	         3.16964e+58
          1129.35120	         4.15765e+58
          1130.15750	        -1.47142e+58
          1130.96380	        -2.69532e+58
          1131.77010	         3.51650e+58
          1132.57640	         7.08115e+58
          1133.38270	         2.65283e+58
          1134.18900	         2.23588e+58
          1134.99530	         3.29376e+58
          1135.80160	         4.04918e+58
          1136.60790	         3.86957e+58
          1137.41420	         1.79861e+58
          1138.22050	         5.98011e+58
          1139.02680	         3.98290e+58
          1139.83310	         2.62220e+58
          1140.63940	         1.94274e+58
          1141.44570	        -2.58547e+58
          1142.25200	        -1.43817e+58
          1143.05830	         6.69195e+57
          1143.86460	         2.62187e+58
          1144.67090	         3.71532e+58
          1145.47720	         1.76481e+58
          1146.28350	         1.34549e+58
          1147.08980	         5.24911e+57
          1147.89610	         1.02102e+58
          1148.70240	         1.41238e+58
          1149.50870	         2.20889e+58
          1150.31500	         2.30937e+57
          1151.12130	         9.02177e+57
          1151.92760	         2.09589e+58
          1152.73390	         1.29874e+58
          1153.54020	        -1.85443e+57
          1154.34650	         1.52530e+58
          1155.15280	         1.66449e+58
          1155.95910	         1.53768e+57
          1156.76540	         8.02061e+56
          1157.57170	         6.01555e+57
          1158.37800	         8.75342e+57
          1159.18430	         7.26710e+57
          1159.99060	         6.23012e+57
          1160.79690	         5.76434e+57
          1161.60320	         6.47415e+57
          1162.40950	         1.36221e+58
          1163.21580	         3.00246e+57
          1164.02210	         1.09088e+58
          1164.82840	         1.36784e+58
          1165.63470	         1.55973e+58
          1166.44100	         3.53877e+58
          1167.24730	         2.70343e+58
          1168.05360	         7.49798e+57
          1168.85990	         9.60939e+57
          1169.66620	         1.32598e+58
          1170.47250	         1.49108e+58
          1171.27880	         1.67148e+58
          1172.08510	         1.48403e+58
          1172.89140	         1.32845e+58
          1173.69770	         8.89615e+57
          1174.50400	         9.88567e+57
          1175.31030	         1.43213e+58
          1176.11660	         2.07538e+58
          1176.92290	         1.60193e+58
          1177.72920	         1.15257e+58
          1178.53550	         2.21894e+57
          1179.34180	         1.13972e+57
          1180.14810	         8.49329e+57
          1180.95440	         1.33414e+58
          1181.76070	         6.37625e+57
          1182.56700	         5.21622e+57
          1183.37330	         6.70751e+57
          1184.17960	         1.33261e+58
          1184.98590	         1.15191e+58
          1185.79220	         8.75597e+57
          1186.59850	         1.16428e+58
          1187.40480	         1.26574e+58
          1188.21110	         1.95462e+58
          1189.01740	         1.44440e+58
          1189.82370	         1.96234e+58
          1190.63000	         1.46769e+58
          1191.43630	         7.93238e+57
          1192.24260	         7.71735e+57
          1193.04890	         1.33349e+58
          1193.85520	         1.37197e+58
          1194.66150	         4.58928e+57
          1195.46780	         8.67731e+57
          1196.27410	         1.55231e+58
          1197.08040	         1.80085e+58
          1197.88670	         1.85117e+58
          1198.69300	         1.34245e+58
          1199.49930	         1.43616e+58
          1200.30560	         9.49319e+57
          1201.11190	         7.91669e+57
          1201.91820	         1.16444e+58
          1202.72450	         6.96411e+57
          1203.53080	         1.30501e+58
          1204.33710	         6.47552e+57
          1205.14340	         6.29150e+57
          1205.94970	         6.39104e+57
          1206.75600	         9.32912e+57
          1207.56230	         7.49224e+57
          1208.36860	         8.27273e+57
          1209.17490	         8.89411e+57
          1209.98120	         8.64411e+57
          1210.78750	         8.69560e+57
          1211.59380	         1.01377e+58
          1212.40010	         1.97024e+58
          1213.20640	         1.77500e+58
          1214.01270	         2.09271e+58
          1214.81900	         2.78025e+58
          1215.62530	         4.63568e+58
          1216.43160	         9.06232e+58
          1217.23790	         1.51324e+59
          1218.04420	         1.14051e+59
          1218.85050	         8.28177e+58
          1219.65680	         5.44803e+58
          1220.46310	         3.33569e+58
          1221.26940	         2.36905e+58
          1222.07570	         1.54753e+58
          1222.88200	         1.26719e+58
          1223.68830	         9.48504e+57
          1224.49460	         8.88932e+57
          1225.30090	         8.14672e+57
          1226.10720	         6.65143e+57
          1226.91350	         6.91758e+57
          1227.71980	         8.79014e+57
          1228.52610	         1.40762e+58
          1229.33240	         1.01300e+58
          1230.13870	         6.74892e+57
          1230.94500	         9.51843e+57
          1231.75130	         6.33345e+57
          1232.55760	         9.01491e+57
          1233.36390	         8.24499e+57
          1234.17020	         1.09647e+58
          1234.97650	         8.92920e+57
          1235.78280	         7.69472e+57
          1236.58910	         1.06602e+58
          1237.39540	         1.15769e+58
          1238.20170	         1.11448e+58
          1239.00800	         1.16472e+58
          1239.81430	         1.45274e+58
          1240.62060	         1.37995e+58
          1241.42690	         1.05135e+58
          1242.23320	         1.21495e+58
          1243.03950	         7.35561e+57
          1243.84580	         6.93847e+57
          1244.65210	         1.02978e+58
          1245.45840	         1.19553e+58
          1246.26470	         1.07996e+58
          1247.07100	         7.41417e+57
          1247.87730	         5.54233e+57
          1248.68360	         3.03011e+57
          1249.48990	         8.18167e+57
          1250.29620	         7.22288e+57
          1251.10250	         2.38015e+57
          1251.90880	         2.52320e+57
          1252.71510	         4.56442e+57
          1253.52140	         8.19061e+57
          1254.32770	         9.87590e+57
          1255.13400	         1.04328e+58
          1255.94030	         1.03555e+58
          1256.74660	         1.07961e+58
          1257.55290	         1.10089e+58
          1258.35920	         8.60667e+57
          1259.16550	         5.35735e+57
          1259.97180	         6.33071e+57
          1260.77810	         1.03799e+58
          1261.58440	         1.28563e+58
          1262.39070	         1.04592e+58
          1263.19700	         1.01680e+58
          1264.00330	         9.59445e+57
          1264.80960	         1.09117e+58
          1265.61590	         1.36922e+58
          1266.42220	         1.36484e+58
          1267.22850	         1.03521e+58
          1268.03480	         1.30277e+58
          1268.84110	         1.46773e+58
          1269.64740	         1.25447e+58
          1270.45370	         1.16033e+58
          1271.26000	         1.11590e+58
          1272.06630	         1.12366e+58
          1272.87260	         1.22489e+58
          1273.67890	         1.28294e+58
          1274.48520	         1.26574e+58
          1275.29150	         1.06643e+58
          1276.09780	         1.04420e+58
          1276.90410	         1.48280e+58
          1277.71040	         1.25143e+58
          1278.51670	         9.59749e+57
          1279.32300	         1.41776e+58
          1280.12930	         1.26467e+58
          1280.93560	         9.22029e+57
          1281.74190	         1.08594e+58
          1282.54820	         1.19449e+58
          1283.35450	         1.11591e+58
          1284.16080	         1.15938e+58
          1284.96710	         1.35389e+58
          1285.77340	         1.23256e+58
          1286.57970	         1.11747e+58
          1287.38600	         1.46962e+58
          1288.19230	         1.70457e+58
          1288.99860	         1.66071e+58
          1289.80490	         1.27661e+58
          1290.61120	         1.30259e+58
          1291.41750	         1.42724e+58
          1292.22380	         1.40528e+58
          1293.03010	         1.29036e+58
          1293.83640	         1.12583e+58
          1294.64270	         9.15772e+57
          1295.44900	         7.03603e+57
          1296.25530	         6.80468e+57
          1297.06160	         7.13351e+57
          1297.86790	         7.22450e+57
          1298.67420	         6.04480e+57
          1299.48050	         7.27718e+57
          1300.28680	         1.09065e+58
          1301.09310	         8.32084e+57
          1301.89940	         3.25313e+57
          1302.70570	         5.64735e+57
          1303.51200	         9.06129e+57
          1304.31830	         9.77241e+57
          1305.12460	         1.04757e+58
          1305.93090	         1.13437e+58
          1306.73720	         1.29120e+58
          1307.54350	         1.44665e+58
          1308.34980	         1.52880e+58
          1309.15610	         1.47726e+58
          1309.96240	         1.40591e+58
          1310.76870	         1.30670e+58
          1311.57500	         9.47886e+57
          1312.38130	         7.14294e+57
          1313.18760	         1.05855e+58
          1313.99390	         1.40039e+58
          1314.80020	         1.67495e+58
          1315.60650	         1.56148e+58
          1316.41280	         1.26595e+58
          1317.21910	         1.09015e+58
          1318.02540	         1.25560e+58
          1318.83170	         1.24673e+58
          1319.63800	         1.20788e+58
          1320.44430	         1.17921e+58
          1321.25060	         1.21142e+58
          1322.05690	         1.22017e+58
          1322.86320	         1.30855e+58
          1323.66950	         1.18567e+58
          1324.47580	         9.80923e+57
          1325.28210	         1.00056e+58
          1326.08840	         1.28466e+58
          1326.89470	         1.41300e+58
          1327.70100	         1.16018e+58
          1328.50730	         1.06153e+58
          1329.31360	         1.07264e+58
          1330.11990	         1.00857e+58
          1330.92620	         8.92610e+57
          1331.73250	         9.04058e+57
          1332.53880	         9.04632e+57
          1333.34510	         9.40618e+57
          1334.15140	         9.82817e+57
          1334.95770	         9.58125e+57
          1335.76400	         1.01460e+58
          1336.57030	         1.12885e+58
          1337.37660	         1.06400e+58
          1338.18290	         1.02455e+58
          1338.98920	         1.14149e+58
          1339.79550	         1.25250e+58
          1340.60180	         1.33199e+58
          1341.40810	         1.47011e+58
          1342.21440	         1.25746e+58
          1343.02070	         1.15515e+58
          1343.82700	         1.36614e+58
          1344.63330	         1.47421e+58
          1345.43960	         1.53747e+58
          1346.24590	         1.28355e+58
          1347.05220	         1.24304e+58
          1347.85850	         1.03671e+58
          1348.66480	         1.09346e+58
          1349.47110	         1.25689e+58
          1350.27740	         1.25730e+58
          1351.08370	         1.16482e+58
          1351.89000	         1.27774e+58
          1352.69630	         1.22973e+58
          1353.50260	         1.07467e+58
          1354.30890	         1.20014e+58
          1355.11520	         1.10703e+58
          1355.92150	         1.04022e+58
          1356.72780	         1.03204e+58
          1357.53410	         1.05948e+58
          1358.34040	         1.03744e+58
          1359.14670	         1.04644e+58
          1359.95300	         1.16674e+58
          1360.75930	         1.13070e+58
          1361.56560	         1.03562e+58
          1362.37190	         1.11779e+58
          1363.17820	         1.13112e+58
          1363.98450	         1.05962e+58
          1364.79080	         1.11323e+58
          1365.59710	         1.33699e+58
          1366.40340	         1.24742e+58
          1367.20970	         8.99669e+57
          1368.01600	         9.22041e+57
          1368.82230	         1.08821e+58
          1369.62860	         9.84406e+57
          1370.43490	         8.48755e+57
          1371.24120	         9.23751e+57
          1372.04750	         9.58374e+57
          1372.85380	         1.22513e+58
          1373.66010	         1.09068e+58
          1374.46640	         9.52223e+57
          1375.27270	         1.10613e+58
          1376.07900	         9.62254e+57
          1376.88530	         8.61401e+57
          1377.69160	         9.06875e+57
          1378.49790	         8.09089e+57
          1379.30420	         7.33078e+57
          1380.11050	         7.96438e+57
          1380.91680	         7.31651e+57
          1381.72310	         8.04301e+57
          1382.52940	         9.51563e+57
          1383.33570	         9.61756e+57
          1384.14200	         9.13251e+57
          1384.94830	         1.09043e+58
          1385.75460	         1.13262e+58
          1386.56090	         1.08396e+58
          1387.36720	         1.01743e+58
          1388.17350	         1.22547e+58
          1388.97980	         1.06656e+58
          1389.78610	         9.17551e+57
          1390.59240	         8.23069e+57
          1391.39870	         6.95229e+57
          1392.20500	         8.75616e+57
          1393.01130	         8.30863e+57
          1393.81760	         8.17477e+57
          1394.62390	         8.15790e+57
          1395.43020	         7.09049e+57
          1396.23650	         6.88430e+57
          1397.04280	         6.45965e+57
          1397.84910	         8.16051e+57
          1398.65540	         8.51049e+57
          1399.46170	         9.22546e+57
          1400.26800	         8.90913e+57
          1401.07430	         8.96957e+57
          1401.88060	         9.06349e+57
          1402.68690	         8.89630e+57
          1403.49320	         9.38839e+57
          1404.29950	         8.92858e+57
          1405.10580	         1.04397e+58
          1405.91210	         1.12535e+58
          1406.71840	         1.18708e+58
          1407.52470	         1.03945e+58
          1408.33100	         9.84228e+57
          1409.13730	         1.08526e+58
          1409.94360	         1.11485e+58
          1410.74990	         1.06081e+58
          1411.55620	         1.02357e+58
          1412.36250	         9.20963e+57
          1413.16880	         8.64232e+57
          1413.97510	         8.00206e+57
          1414.78140	         8.53254e+57
          1415.58770	         9.32645e+57
          1416.39400	         1.06374e+58
          1417.20030	         1.20495e+58
          1418.00660	         1.05197e+58
          1418.81290	         8.94140e+57
          1419.61920	         1.01385e+58
          1420.42550	         1.19278e+58
          1421.23180	         1.22769e+58
          1422.03810	         1.11254e+58
          1422.84440	         1.03821e+58
          1423.65070	         1.28777e+58
          1424.45700	         1.06416e+58
          1425.26330	         9.26684e+57
          1426.06960	         8.95126e+57
          1426.87590	         1.05311e+58
          1427.68220	         1.03189e+58
          1428.48850	         1.04707e+58
          1429.29480	         1.18292e+58
          1430.10110	         1.06223e+58
          1430.90740	         8.16729e+57
          1431.71370	         8.19541e+57
          1432.52000	         8.36998e+57
          1433.32630	         6.96215e+57
          1434.13260	         7.59133e+57
          1434.93890	         8.57683e+57
          1435.74520	         9.22493e+57
          1436.55150	         9.44738e+57
          1437.35780	         8.62400e+57
          1438.16410	         9.44520e+57
          1438.97040	         9.66666e+57
          1439.77670	         8.90252e+57
          1440.58300	         8.98447e+57
          1441.38930	         1.01821e+58
          1442.19560	         9.90644e+57
          1443.00190	         8.87460e+57
          1443.80820	         1.09182e+58
          1444.61450	         1.03692e+58
          1445.42080	         8.46117e+57
          1446.22710	         9.70193e+57
          1447.03340	         8.94331e+57
          1447.83970	         8.55921e+57
          1448.64600	         1.04229e+58
          1449.45230	         1.08685e+58
          1450.25860	         1.10067e+58
          1451.06490	         9.56369e+57
          1451.87120	         7.59836e+57
          1452.67750	         7.09589e+57
          1453.48380	         7.42621e+57
          1454.29010	         8.25035e+57
          1455.09640	         8.52614e+57
          1455.90270	         9.09741e+57
          1456.70900	         8.50719e+57
          1457.51530	         9.28309e+57
          1458.32160	         1.22637e+58
          1459.12790	         1.11505e+58
          1459.93420	         8.65468e+57
          1460.74050	         7.67268e+57
          1461.54680	         9.23892e+57
          1462.35310	         7.64713e+57
          1463.15940	         8.39100e+57
          1463.96570	         1.14250e+58
          1464.77200	         1.31200e+58
          1465.57830	         1.13877e+58
          1466.38460	         9.17189e+57
          1467.19090	         9.04996e+57
          1467.99720	         9.29332e+57
          1468.80350	         9.68538e+57
          1469.60980	         8.67490e+57
          1470.41610	         9.40644e+57
          1471.22240	         9.45445e+57
          1472.02870	         1.02940e+58
          1472.83500	         1.02328e+58
          1473.64130	         9.40802e+57
          1474.44760	         9.42189e+57
          1475.25390	         9.68432e+57
          1476.06020	         9.85817e+57
          1476.86650	         9.41878e+57
          1477.67280	         8.75654e+57
          1478.47910	         7.34334e+57
          1479.28540	         6.84914e+57
          1480.09170	         8.84321e+57
          1480.89800	         9.51268e+57
          1481.70430	         8.69231e+57
          1482.51060	         8.03345e+57
          1483.31690	         8.09164e+57
          1484.12320	         8.80162e+57
          1484.92950	         8.90699e+57
          1485.73580	         9.27694e+57
          1486.54210	         9.18024e+57
          1487.34840	         9.46517e+57
          1488.15470	         8.86421e+57
          1488.96100	         8.86838e+57
          1489.76730	         1.01138e+58
