#sample_133_stacked_spectrum_rest_UV-bands_median_H-alpha_noDC.txt
#median Lum: 1.68327e+42
#Rest-frame wavelength (A) | Luminosity (erg/s/A)
#
          1110.00000	         0.00000e+00
          1110.80630	         1.12183e+59
          1111.61260	         2.30060e+58
          1112.41890	         2.20636e+56
          1113.22520	         1.11728e+59
          1114.03150	         2.12723e+59
          1114.83780	         3.90512e+59
          1115.64410	         2.48496e+59
          1116.45040	        -6.17060e+58
          1117.25670	        -2.92052e+58
          1118.06300	         1.47755e+59
          1118.86930	         1.21575e+59
          1119.67560	         1.18627e+59
          1120.48190	         6.03676e+58
          1121.28820	        -1.19930e+59
          1122.09450	         2.28536e+58
          1122.90080	         1.40016e+58
          1123.70710	         2.88642e+58
          1124.51340	         9.06295e+58
          1125.31970	         1.85876e+58
          1126.12600	        -1.23539e+58
          1126.93230	        -7.29489e+58
          1127.73860	        -4.89595e+58
          1128.54490	        -1.73516e+57
          1129.35120	        -1.95876e+58
          1130.15750	        -8.10564e+57
          1130.96380	         1.41376e+58
          1131.77010	         5.69027e+58
          1132.57640	         3.12898e+58
          1133.38270	         4.59943e+58
          1134.18900	         2.75649e+58
          1134.99530	        -6.92600e+56
          1135.80160	         8.40467e+57
          1136.60790	         9.65162e+57
          1137.41420	        -2.32069e+57
          1138.22050	         4.64776e+58
          1139.02680	         2.13502e+58
          1139.83310	         2.78414e+58
          1140.63940	         9.41122e+57
          1141.44570	        -1.25274e+58
          1142.25200	        -1.93208e+58
          1143.05830	         5.63975e+57
          1143.86460	         2.18767e+58
          1144.67090	         4.14570e+58
          1145.47720	         1.00103e+58
          1146.28350	         7.93826e+57
          1147.08980	         2.26864e+58
          1147.89610	         1.77345e+58
          1148.70240	         1.94218e+58
          1149.50870	         2.02282e+58
          1150.31500	         1.70588e+58
          1151.12130	         6.32949e+57
          1151.92760	         7.81757e+57
          1152.73390	         7.94988e+57
          1153.54020	         5.01703e+57
          1154.34650	         1.55199e+58
          1155.15280	         2.43248e+58
          1155.95910	         1.79051e+58
          1156.76540	         1.19052e+58
          1157.57170	        -1.40796e+57
          1158.37800	         1.29184e+57
          1159.18430	         3.04746e+57
          1159.99060	         2.85185e+56
          1160.79690	         6.71814e+57
          1161.60320	         7.44580e+57
          1162.40950	         1.35096e+58
          1163.21580	         2.37209e+58
          1164.02210	         1.21659e+58
          1164.82840	         1.50155e+58
          1165.63470	         2.07070e+58
          1166.44100	         3.06448e+58
          1167.24730	         1.56283e+58
          1168.05360	         1.27852e+58
          1168.85990	         1.35273e+58
          1169.66620	         1.28018e+58
          1170.47250	         9.85301e+57
          1171.27880	         2.43714e+57
          1172.08510	         9.97144e+57
          1172.89140	         9.97075e+57
          1173.69770	         1.88402e+58
          1174.50400	         1.48231e+58
          1175.31030	         1.78705e+58
          1176.11660	         1.63968e+58
          1176.92290	         1.61628e+58
          1177.72920	         1.13000e+58
          1178.53550	         6.33332e+57
          1179.34180	         1.59754e+57
          1180.14810	         1.96282e+57
          1180.95440	        -1.81465e+57
          1181.76070	        -2.58600e+56
          1182.56700	         8.38074e+57
          1183.37330	         1.03456e+58
          1184.17960	         1.38953e+58
          1184.98590	         1.38487e+58
          1185.79220	         6.16835e+57
          1186.59850	         1.02398e+58
          1187.40480	         1.07409e+58
          1188.21110	         1.88215e+58
          1189.01740	         1.24160e+58
          1189.82370	         8.75438e+57
          1190.63000	         1.12895e+58
          1191.43630	         9.85675e+57
          1192.24260	         8.12385e+57
          1193.04890	         1.17574e+58
          1193.85520	         1.20700e+58
          1194.66150	         1.23851e+58
          1195.46780	         1.22897e+58
          1196.27410	         1.04563e+58
          1197.08040	         7.93937e+57
          1197.88670	         1.27364e+58
          1198.69300	         1.54561e+58
          1199.49930	         1.68153e+58
          1200.30560	         1.02053e+58
          1201.11190	         1.14942e+58
          1201.91820	         1.06311e+58
          1202.72450	         9.98822e+57
          1203.53080	         1.47535e+58
          1204.33710	         8.93783e+57
          1205.14340	         6.18338e+57
          1205.94970	         6.87540e+57
          1206.75600	         5.63238e+57
          1207.56230	        -7.78435e+55
          1208.36860	         5.65901e+57
          1209.17490	         9.15043e+57
          1209.98120	         8.94419e+57
          1210.78750	         6.09851e+57
          1211.59380	         8.70921e+57
          1212.40010	         1.70006e+58
          1213.20640	         1.99082e+58
          1214.01270	         1.87836e+58
          1214.81900	         2.72035e+58
          1215.62530	         4.72786e+58
          1216.43160	         9.24230e+58
          1217.23790	         1.52387e+59
          1218.04420	         1.13259e+59
          1218.85050	         8.42393e+58
          1219.65680	         5.40963e+58
          1220.46310	         3.11424e+58
          1221.26940	         2.18091e+58
          1222.07570	         1.06687e+58
          1222.88200	         6.42506e+57
          1223.68830	         7.34390e+57
          1224.49460	         1.06020e+58
          1225.30090	         7.16224e+57
          1226.10720	         5.46318e+57
          1226.91350	         6.83286e+57
          1227.71980	         6.77711e+57
          1228.52610	         1.13167e+58
          1229.33240	         1.12704e+58
          1230.13870	         1.18815e+58
          1230.94500	         1.15462e+58
          1231.75130	         8.01556e+57
          1232.55760	         9.72718e+57
          1233.36390	         8.54466e+57
          1234.17020	         9.12729e+57
          1234.97650	         9.02832e+57
          1235.78280	         7.69718e+57
          1236.58910	         7.06014e+57
          1237.39540	         1.08923e+58
          1238.20170	         1.24687e+58
          1239.00800	         1.35131e+58
          1239.81430	         1.47407e+58
          1240.62060	         1.10008e+58
          1241.42690	         7.94439e+57
          1242.23320	         9.80620e+57
          1243.03950	         7.65147e+57
          1243.84580	         6.95427e+57
          1244.65210	         9.39841e+57
          1245.45840	         9.47298e+57
          1246.26470	         8.70704e+57
          1247.07100	         5.60494e+57
          1247.87730	         3.47635e+57
          1248.68360	         3.58328e+57
          1249.48990	         8.19919e+57
          1250.29620	         9.94678e+57
          1251.10250	         5.79878e+57
          1251.90880	         3.36068e+57
          1252.71510	         3.50245e+57
          1253.52140	         6.90446e+57
          1254.32770	         1.19204e+58
          1255.13400	         1.26723e+58
          1255.94030	         1.02477e+58
          1256.74660	         9.80320e+57
          1257.55290	         1.10666e+58
          1258.35920	         7.73010e+57
          1259.16550	         4.90978e+57
          1259.97180	         5.46994e+57
          1260.77810	         7.32661e+57
          1261.58440	         1.03162e+58
          1262.39070	         9.66175e+57
          1263.19700	         8.16832e+57
          1264.00330	         1.03148e+58
          1264.80960	         1.09770e+58
          1265.61590	         1.22432e+58
          1266.42220	         1.11022e+58
          1267.22850	         1.00266e+58
          1268.03480	         1.27881e+58
          1268.84110	         1.42737e+58
          1269.64740	         1.44564e+58
          1270.45370	         1.30846e+58
          1271.26000	         1.25049e+58
          1272.06630	         1.42895e+58
          1272.87260	         1.34114e+58
          1273.67890	         1.35362e+58
          1274.48520	         1.31958e+58
          1275.29150	         1.34967e+58
          1276.09780	         1.16455e+58
          1276.90410	         1.36650e+58
          1277.71040	         1.21030e+58
          1278.51670	         1.11219e+58
          1279.32300	         1.31960e+58
          1280.12930	         1.23082e+58
          1280.93560	         1.09986e+58
          1281.74190	         1.14187e+58
          1282.54820	         1.08208e+58
          1283.35450	         1.15569e+58
          1284.16080	         1.51369e+58
          1284.96710	         1.61071e+58
          1285.77340	         1.44020e+58
          1286.57970	         1.32801e+58
          1287.38600	         1.49438e+58
          1288.19230	         1.72948e+58
          1288.99860	         1.72128e+58
          1289.80490	         1.28489e+58
          1290.61120	         1.36987e+58
          1291.41750	         1.39019e+58
          1292.22380	         1.02739e+58
          1293.03010	         9.29021e+57
          1293.83640	         1.09097e+58
          1294.64270	         1.10867e+58
          1295.44900	         7.22517e+57
          1296.25530	         6.89586e+57
          1297.06160	         9.50677e+57
          1297.86790	         1.00904e+58
          1298.67420	         8.98935e+57
          1299.48050	         8.86211e+57
          1300.28680	         9.81895e+57
          1301.09310	         7.50653e+57
          1301.89940	         3.68487e+57
          1302.70570	         5.80952e+57
          1303.51200	         8.47956e+57
          1304.31830	         1.09474e+58
          1305.12460	         1.03525e+58
          1305.93090	         9.78748e+57
          1306.73720	         1.19686e+58
          1307.54350	         1.37247e+58
          1308.34980	         1.25479e+58
          1309.15610	         1.43371e+58
          1309.96240	         1.47669e+58
          1310.76870	         1.28164e+58
          1311.57500	         1.19661e+58
          1312.38130	         1.03880e+58
          1313.18760	         1.14074e+58
          1313.99390	         1.54074e+58
          1314.80020	         1.56214e+58
          1315.60650	         1.29012e+58
          1316.41280	         1.18093e+58
          1317.21910	         9.73343e+57
          1318.02540	         1.10846e+58
          1318.83170	         1.22124e+58
          1319.63800	         1.23602e+58
          1320.44430	         1.13236e+58
          1321.25060	         1.26952e+58
          1322.05690	         1.21877e+58
          1322.86320	         1.19754e+58
          1323.66950	         1.10244e+58
          1324.47580	         9.00318e+57
          1325.28210	         9.17578e+57
          1326.08840	         9.74741e+57
          1326.89470	         1.10282e+58
          1327.70100	         9.55899e+57
          1328.50730	         6.84891e+57
          1329.31360	         7.06783e+57
          1330.11990	         7.88692e+57
          1330.92620	         7.75972e+57
          1331.73250	         8.80993e+57
          1332.53880	         9.19426e+57
          1333.34510	         8.78568e+57
          1334.15140	         8.43585e+57
          1334.95770	         8.52029e+57
          1335.76400	         9.75049e+57
          1336.57030	         1.11608e+58
          1337.37660	         1.11792e+58
          1338.18290	         1.07392e+58
          1338.98920	         1.01963e+58
          1339.79550	         9.13450e+57
          1340.60180	         1.09031e+58
          1341.40810	         1.31791e+58
          1342.21440	         1.10597e+58
          1343.02070	         1.22314e+58
          1343.82700	         1.27008e+58
          1344.63330	         1.21317e+58
          1345.43960	         1.25812e+58
          1346.24590	         1.04058e+58
          1347.05220	         1.11641e+58
          1347.85850	         1.12526e+58
          1348.66480	         1.13522e+58
          1349.47110	         1.17376e+58
          1350.27740	         1.21090e+58
          1351.08370	         1.12729e+58
          1351.89000	         1.09816e+58
          1352.69630	         1.09702e+58
          1353.50260	         9.44702e+57
          1354.30890	         1.14204e+58
          1355.11520	         1.23812e+58
          1355.92150	         9.62277e+57
          1356.72780	         1.00769e+58
          1357.53410	         1.10003e+58
          1358.34040	         1.08696e+58
          1359.14670	         1.06779e+58
          1359.95300	         1.01980e+58
          1360.75930	         1.00354e+58
          1361.56560	         9.37714e+57
          1362.37190	         1.03620e+58
          1363.17820	         1.09954e+58
          1363.98450	         1.10132e+58
          1364.79080	         1.17216e+58
          1365.59710	         1.23970e+58
          1366.40340	         1.15352e+58
          1367.20970	         1.02026e+58
          1368.01600	         1.02979e+58
          1368.82230	         9.84383e+57
          1369.62860	         1.02360e+58
          1370.43490	         1.02292e+58
          1371.24120	         9.10190e+57
          1372.04750	         7.75253e+57
          1372.85380	         1.00755e+58
          1373.66010	         1.14381e+58
          1374.46640	         1.02723e+58
          1375.27270	         1.08960e+58
          1376.07900	         9.30226e+57
          1376.88530	         7.96907e+57
          1377.69160	         8.36747e+57
          1378.49790	         8.21501e+57
          1379.30420	         7.84747e+57
          1380.11050	         8.24744e+57
          1380.91680	         7.33936e+57
          1381.72310	         7.90428e+57
          1382.52940	         9.17947e+57
          1383.33570	         9.36956e+57
          1384.14200	         1.14864e+58
          1384.94830	         1.16587e+58
          1385.75460	         9.95345e+57
          1386.56090	         9.57916e+57
          1387.36720	         9.16502e+57
          1388.17350	         1.13307e+58
          1388.97980	         1.12659e+58
          1389.78610	         8.58488e+57
          1390.59240	         7.59910e+57
          1391.39870	         6.78753e+57
          1392.20500	         7.88282e+57
          1393.01130	         8.06063e+57
          1393.81760	         8.79980e+57
          1394.62390	         8.57291e+57
          1395.43020	         7.66340e+57
          1396.23650	         7.84771e+57
          1397.04280	         8.63371e+57
          1397.84910	         9.76533e+57
          1398.65540	         9.42326e+57
          1399.46170	         9.27998e+57
          1400.26800	         9.39481e+57
          1401.07430	         8.13948e+57
          1401.88060	         7.85842e+57
          1402.68690	         9.46662e+57
          1403.49320	         9.72353e+57
          1404.29950	         9.84499e+57
          1405.10580	         1.05451e+58
          1405.91210	         1.07564e+58
          1406.71840	         1.11105e+58
          1407.52470	         1.04451e+58
          1408.33100	         1.00276e+58
          1409.13730	         1.20855e+58
          1409.94360	         1.19121e+58
          1410.74990	         1.05473e+58
          1411.55620	         9.05053e+57
          1412.36250	         8.53874e+57
          1413.16880	         8.15630e+57
          1413.97510	         7.73587e+57
          1414.78140	         8.86782e+57
          1415.58770	         1.02965e+58
          1416.39400	         9.76246e+57
          1417.20030	         1.07528e+58
          1418.00660	         1.11102e+58
          1418.81290	         1.08638e+58
          1419.61920	         1.16514e+58
          1420.42550	         1.23605e+58
          1421.23180	         1.32170e+58
          1422.03810	         1.22613e+58
          1422.84440	         1.02176e+58
          1423.65070	         1.11007e+58
          1424.45700	         1.09040e+58
          1425.26330	         8.78170e+57
          1426.06960	         8.90430e+57
          1426.87590	         1.00773e+58
          1427.68220	         9.43697e+57
          1428.48850	         1.12491e+58
          1429.29480	         1.11401e+58
          1430.10110	         9.72406e+57
          1430.90740	         7.12253e+57
          1431.71370	         6.97478e+57
          1432.52000	         7.36446e+57
          1433.32630	         6.88479e+57
          1434.13260	         8.29601e+57
          1434.93890	         8.81517e+57
          1435.74520	         8.68290e+57
          1436.55150	         9.00884e+57
          1437.35780	         9.42262e+57
          1438.16410	         1.01827e+58
          1438.97040	         9.41656e+57
          1439.77670	         9.37426e+57
          1440.58300	         9.59190e+57
          1441.38930	         1.01171e+58
          1442.19560	         9.98490e+57
          1443.00190	         9.63059e+57
          1443.80820	         1.07658e+58
          1444.61450	         9.63593e+57
          1445.42080	         8.41261e+57
          1446.22710	         1.03326e+58
          1447.03340	         1.06418e+58
          1447.83970	         1.04248e+58
          1448.64600	         1.06678e+58
          1449.45230	         1.06934e+58
          1450.25860	         9.80196e+57
          1451.06490	         8.09048e+57
          1451.87120	         7.50503e+57
          1452.67750	         8.14832e+57
          1453.48380	         9.27598e+57
          1454.29010	         8.59889e+57
          1455.09640	         7.47687e+57
          1455.90270	         8.07482e+57
          1456.70900	         8.14107e+57
          1457.51530	         9.37982e+57
          1458.32160	         1.24499e+58
          1459.12790	         1.25882e+58
          1459.93420	         1.12423e+58
          1460.74050	         8.49202e+57
          1461.54680	         7.65718e+57
          1462.35310	         8.66087e+57
          1463.15940	         9.80005e+57
          1463.96570	         9.97184e+57
          1464.77200	         1.11107e+58
          1465.57830	         1.00241e+58
          1466.38460	         9.03269e+57
          1467.19090	         8.99086e+57
          1467.99720	         8.72096e+57
          1468.80350	         9.73031e+57
          1469.60980	         9.38189e+57
          1470.41610	         1.04479e+58
          1471.22240	         1.04467e+58
          1472.02870	         9.62520e+57
          1472.83500	         9.42489e+57
          1473.64130	         8.96790e+57
          1474.44760	         7.82908e+57
          1475.25390	         8.96499e+57
          1476.06020	         9.41926e+57
          1476.86650	         8.78164e+57
          1477.67280	         8.48337e+57
          1478.47910	         7.84992e+57
          1479.28540	         6.30118e+57
          1480.09170	         7.78405e+57
          1480.89800	         8.17704e+57
          1481.70430	         8.54397e+57
          1482.51060	         8.52984e+57
          1483.31690	         8.13683e+57
          1484.12320	         8.14214e+57
          1484.92950	         8.19350e+57
          1485.73580	         7.69378e+57
          1486.54210	         8.84599e+57
          1487.34840	         9.52970e+57
          1488.15470	         9.51529e+57
          1488.96100	         7.99091e+57
          1489.76730	         8.09908e+57
