#sample_358_stacked_spectrum_rest_UV-bands_median_H-alpha_noDC.txt
#median Lum: 1.69723e+42
#Rest-frame wavelength (A) | Luminosity (erg/s/A)
#
          1110.00000	         0.00000e+00
          1110.80630	         1.45799e+59
          1111.61260	         2.33272e+59
          1112.41890	         4.51044e+59
          1113.22520	         3.30275e+58
          1114.03150	        -1.85108e+59
          1114.83780	         7.29124e+58
          1115.64410	         5.90039e+58
          1116.45040	        -3.50051e+58
          1117.25670	         1.04097e+59
          1118.06300	         5.70723e+58
          1118.86930	        -7.61396e+58
          1119.67560	         5.76121e+58
          1120.48190	        -3.86514e+58
          1121.28820	        -9.33366e+58
          1122.09450	         6.15373e+58
          1122.90080	         9.52905e+58
          1123.70710	         7.51600e+58
          1124.51340	         5.60683e+58
          1125.31970	        -1.48758e+58
          1126.12600	        -5.10691e+58
          1126.93230	        -9.93249e+57
          1127.73860	        -4.29507e+58
          1128.54490	         2.48382e+57
          1129.35120	         3.56855e+58
          1130.15750	        -2.00118e+58
          1130.96380	        -4.02154e+58
          1131.77010	         2.81581e+58
          1132.57640	         5.65818e+58
          1133.38270	         4.98520e+58
          1134.18900	         2.82075e+58
          1134.99530	         1.35921e+58
          1135.80160	         3.73601e+58
          1136.60790	         5.87509e+57
          1137.41420	        -8.35755e+57
          1138.22050	         2.26901e+58
          1139.02680	         1.82444e+58
          1139.83310	         1.56006e+58
          1140.63940	         1.74784e+58
          1141.44570	        -1.72053e+58
          1142.25200	        -8.82744e+57
          1143.05830	         5.75245e+57
          1143.86460	         8.67841e+57
          1144.67090	         1.29291e+58
          1145.47720	         7.36617e+57
          1146.28350	         1.41296e+57
          1147.08980	         2.12397e+58
          1147.89610	         1.63670e+58
          1148.70240	         2.09793e+58
          1149.50870	         2.71562e+58
          1150.31500	         9.66200e+57
          1151.12130	        -1.40757e+57
          1151.92760	         8.40532e+57
          1152.73390	         1.81121e+58
          1153.54020	         1.12953e+58
          1154.34650	         1.39874e+58
          1155.15280	         1.84203e+58
          1155.95910	         1.10053e+58
          1156.76540	         6.14834e+57
          1157.57170	        -3.54667e+57
          1158.37800	        -1.51424e+57
          1159.18430	         4.29158e+57
          1159.99060	         1.19968e+58
          1160.79690	         9.95359e+57
          1161.60320	         6.22387e+57
          1162.40950	         1.13111e+58
          1163.21580	         1.21399e+58
          1164.02210	         5.81850e+57
          1164.82840	         1.07351e+58
          1165.63470	         1.78170e+58
          1166.44100	         2.90200e+58
          1167.24730	         2.46879e+58
          1168.05360	         1.12665e+58
          1168.85990	         1.16216e+58
          1169.66620	         1.28080e+58
          1170.47250	         8.15688e+57
          1171.27880	         4.27350e+57
          1172.08510	         1.57679e+58
          1172.89140	         1.13439e+58
          1173.69770	         1.05241e+58
          1174.50400	         1.39003e+58
          1175.31030	         1.61860e+58
          1176.11660	         1.44445e+58
          1176.92290	         1.52469e+58
          1177.72920	         1.38150e+58
          1178.53550	         8.37059e+57
          1179.34180	         3.76075e+57
          1180.14810	         3.61204e+57
          1180.95440	         9.02122e+57
          1181.76070	         6.60701e+57
          1182.56700	         9.65962e+57
          1183.37330	         1.21997e+58
          1184.17960	         1.26559e+58
          1184.98590	         8.25204e+57
          1185.79220	         6.48311e+57
          1186.59850	         1.34129e+58
          1187.40480	         1.31335e+58
          1188.21110	         1.53402e+58
          1189.01740	         1.81316e+58
          1189.82370	         1.23027e+58
          1190.63000	         7.19839e+57
          1191.43630	         1.30817e+58
          1192.24260	         1.03894e+58
          1193.04890	         1.09265e+58
          1193.85520	         1.22682e+58
          1194.66150	         6.38776e+57
          1195.46780	         9.43230e+57
          1196.27410	         1.29323e+58
          1197.08040	         1.31393e+58
          1197.88670	         1.64437e+58
          1198.69300	         1.26838e+58
          1199.49930	         1.44661e+58
          1200.30560	         1.28582e+58
          1201.11190	         1.04538e+58
          1201.91820	         7.96196e+57
          1202.72450	         5.46082e+57
          1203.53080	         1.64063e+58
          1204.33710	         1.35344e+58
          1205.14340	         8.74049e+57
          1205.94970	         7.03460e+57
          1206.75600	         8.71948e+57
          1207.56230	         4.80379e+57
          1208.36860	         6.61007e+57
          1209.17490	         4.54808e+57
          1209.98120	         6.00585e+57
          1210.78750	         7.22883e+57
          1211.59380	         1.08522e+58
          1212.40010	         2.07318e+58
          1213.20640	         2.33559e+58
          1214.01270	         1.99521e+58
          1214.81900	         2.46796e+58
          1215.62530	         4.50811e+58
          1216.43160	         8.82547e+58
          1217.23790	         1.52506e+59
          1218.04420	         1.10550e+59
          1218.85050	         8.75338e+58
          1219.65680	         6.33389e+58
          1220.46310	         3.68103e+58
          1221.26940	         2.63926e+58
          1222.07570	         1.46672e+58
          1222.88200	         7.91479e+57
          1223.68830	         7.87784e+57
          1224.49460	         9.81482e+57
          1225.30090	         5.69193e+57
          1226.10720	         4.44447e+57
          1226.91350	         7.50717e+57
          1227.71980	         1.24387e+58
          1228.52610	         1.48470e+58
          1229.33240	         1.03801e+58
          1230.13870	         9.25324e+57
          1230.94500	         7.85866e+57
          1231.75130	         5.59657e+57
          1232.55760	         1.13054e+58
          1233.36390	         1.04208e+58
          1234.17020	         8.82451e+57
          1234.97650	         8.29864e+57
          1235.78280	         7.20672e+57
          1236.58910	         6.40760e+57
          1237.39540	         8.93237e+57
          1238.20170	         1.00011e+58
          1239.00800	         1.11125e+58
          1239.81430	         1.25417e+58
          1240.62060	         1.07443e+58
          1241.42690	         9.69381e+57
          1242.23320	         1.06356e+58
          1243.03950	         7.72361e+57
          1243.84580	         9.28913e+57
          1244.65210	         1.11946e+58
          1245.45840	         8.27142e+57
          1246.26470	         7.88543e+57
          1247.07100	         6.04780e+57
          1247.87730	         6.73052e+57
          1248.68360	         4.97479e+57
          1249.48990	         8.17017e+57
          1250.29620	         7.66969e+57
          1251.10250	         7.56363e+57
          1251.90880	         6.25109e+57
          1252.71510	         7.74781e+57
          1253.52140	         9.74079e+57
          1254.32770	         9.74426e+57
          1255.13400	         1.17618e+58
          1255.94030	         1.14386e+58
          1256.74660	         1.01874e+58
          1257.55290	         1.11571e+58
          1258.35920	         9.23145e+57
          1259.16550	         5.01498e+57
          1259.97180	         4.69714e+57
          1260.77810	         9.23069e+57
          1261.58440	         1.18899e+58
          1262.39070	         8.74023e+57
          1263.19700	         8.15835e+57
          1264.00330	         1.14742e+58
          1264.80960	         1.32260e+58
          1265.61590	         1.40906e+58
          1266.42220	         1.35872e+58
          1267.22850	         1.20880e+58
          1268.03480	         1.27530e+58
          1268.84110	         1.45347e+58
          1269.64740	         1.33751e+58
          1270.45370	         1.34937e+58
          1271.26000	         1.09880e+58
          1272.06630	         1.13973e+58
          1272.87260	         1.18793e+58
          1273.67890	         1.27980e+58
          1274.48520	         1.37180e+58
          1275.29150	         1.31142e+58
          1276.09780	         1.24493e+58
          1276.90410	         1.41932e+58
          1277.71040	         1.14752e+58
          1278.51670	         1.25500e+58
          1279.32300	         1.52483e+58
          1280.12930	         1.37659e+58
          1280.93560	         1.16242e+58
          1281.74190	         1.28890e+58
          1282.54820	         1.46714e+58
          1283.35450	         1.37527e+58
          1284.16080	         1.17982e+58
          1284.96710	         1.17610e+58
          1285.77340	         1.02496e+58
          1286.57970	         9.98027e+57
          1287.38600	         1.32833e+58
          1288.19230	         1.69235e+58
          1288.99860	         1.60336e+58
          1289.80490	         1.13921e+58
          1290.61120	         1.26919e+58
          1291.41750	         1.22186e+58
          1292.22380	         1.22063e+58
          1293.03010	         1.02918e+58
          1293.83640	         1.07742e+58
          1294.64270	         1.15017e+58
          1295.44900	         6.33475e+57
          1296.25530	         5.02267e+57
          1297.06160	         8.46188e+57
          1297.86790	         1.01361e+58
          1298.67420	         8.66357e+57
          1299.48050	         8.98205e+57
          1300.28680	         1.11586e+58
          1301.09310	         8.42174e+57
          1301.89940	         3.98089e+57
          1302.70570	         6.29007e+57
          1303.51200	         7.44733e+57
          1304.31830	         9.25700e+57
          1305.12460	         1.09701e+58
          1305.93090	         1.11409e+58
          1306.73720	         1.18769e+58
          1307.54350	         1.37652e+58
          1308.34980	         1.41032e+58
          1309.15610	         1.42109e+58
          1309.96240	         1.44322e+58
          1310.76870	         1.43059e+58
          1311.57500	         1.00204e+58
          1312.38130	         9.94858e+57
          1313.18760	         1.31099e+58
          1313.99390	         1.51731e+58
          1314.80020	         1.64462e+58
          1315.60650	         1.29343e+58
          1316.41280	         1.20512e+58
          1317.21910	         1.10843e+58
          1318.02540	         1.05161e+58
          1318.83170	         1.29527e+58
          1319.63800	         1.26511e+58
          1320.44430	         1.25416e+58
          1321.25060	         1.33979e+58
          1322.05690	         1.31116e+58
          1322.86320	         1.20991e+58
          1323.66950	         8.81037e+57
          1324.47580	         7.42938e+57
          1325.28210	         8.10814e+57
          1326.08840	         9.59965e+57
          1326.89470	         1.13048e+58
          1327.70100	         9.53309e+57
          1328.50730	         8.58537e+57
          1329.31360	         9.60704e+57
          1330.11990	         9.95080e+57
          1330.92620	         7.83256e+57
          1331.73250	         9.99120e+57
          1332.53880	         1.05298e+58
          1333.34510	         8.35894e+57
          1334.15140	         8.24016e+57
          1334.95770	         8.82736e+57
          1335.76400	         1.05498e+58
          1336.57030	         1.14836e+58
          1337.37660	         1.24215e+58
          1338.18290	         1.21316e+58
          1338.98920	         1.13390e+58
          1339.79550	         1.01557e+58
          1340.60180	         1.06195e+58
          1341.40810	         1.23581e+58
          1342.21440	         1.18839e+58
          1343.02070	         1.32592e+58
          1343.82700	         1.47409e+58
          1344.63330	         1.28043e+58
          1345.43960	         1.29031e+58
          1346.24590	         1.26060e+58
          1347.05220	         1.16320e+58
          1347.85850	         9.99346e+57
          1348.66480	         1.04852e+58
          1349.47110	         1.22556e+58
          1350.27740	         1.17754e+58
          1351.08370	         1.16577e+58
          1351.89000	         1.30819e+58
          1352.69630	         1.30869e+58
          1353.50260	         1.18943e+58
          1354.30890	         1.14813e+58
          1355.11520	         1.23777e+58
          1355.92150	         1.12202e+58
          1356.72780	         1.03474e+58
          1357.53410	         9.59083e+57
          1358.34040	         9.97589e+57
          1359.14670	         1.05654e+58
          1359.95300	         1.07727e+58
          1360.75930	         1.09626e+58
          1361.56560	         1.22037e+58
          1362.37190	         1.23458e+58
          1363.17820	         1.15611e+58
          1363.98450	         1.11291e+58
          1364.79080	         1.22366e+58
          1365.59710	         1.26442e+58
          1366.40340	         1.09745e+58
          1367.20970	         1.13915e+58
          1368.01600	         9.55986e+57
          1368.82230	         8.68591e+57
          1369.62860	         9.87581e+57
          1370.43490	         9.44635e+57
          1371.24120	         1.05584e+58
          1372.04750	         1.06130e+58
          1372.85380	         1.19256e+58
          1373.66010	         1.05117e+58
          1374.46640	         9.85501e+57
          1375.27270	         1.03810e+58
          1376.07900	         7.91305e+57
          1376.88530	         7.35861e+57
          1377.69160	         6.63227e+57
          1378.49790	         6.31658e+57
          1379.30420	         8.24035e+57
          1380.11050	         9.26154e+57
          1380.91680	         9.47787e+57
          1381.72310	         8.12980e+57
          1382.52940	         7.95881e+57
          1383.33570	         7.87334e+57
          1384.14200	         9.32572e+57
          1384.94830	         1.15623e+58
          1385.75460	         1.25638e+58
          1386.56090	         1.28634e+58
          1387.36720	         1.19143e+58
          1388.17350	         1.26033e+58
          1388.97980	         1.13184e+58
          1389.78610	         9.04507e+57
          1390.59240	         6.93691e+57
          1391.39870	         5.64081e+57
          1392.20500	         8.36339e+57
          1393.01130	         7.56952e+57
          1393.81760	         7.23532e+57
          1394.62390	         8.58822e+57
          1395.43020	         7.14391e+57
          1396.23650	         6.06786e+57
          1397.04280	         6.66317e+57
          1397.84910	         8.33673e+57
          1398.65540	         8.48253e+57
          1399.46170	         9.90328e+57
          1400.26800	         8.42894e+57
          1401.07430	         7.59716e+57
          1401.88060	         8.97276e+57
          1402.68690	         9.73342e+57
          1403.49320	         9.28797e+57
          1404.29950	         9.09990e+57
          1405.10580	         1.07331e+58
          1405.91210	         1.06408e+58
          1406.71840	         1.05325e+58
          1407.52470	         1.00580e+58
          1408.33100	         1.04038e+58
          1409.13730	         1.08582e+58
          1409.94360	         1.06701e+58
          1410.74990	         1.20103e+58
          1411.55620	         1.15019e+58
          1412.36250	         9.54627e+57
          1413.16880	         8.79813e+57
          1413.97510	         7.82020e+57
          1414.78140	         7.45872e+57
          1415.58770	         9.35657e+57
          1416.39400	         1.05583e+58
          1417.20030	         1.17205e+58
          1418.00660	         1.03705e+58
          1418.81290	         1.10454e+58
          1419.61920	         1.05272e+58
          1420.42550	         1.14392e+58
          1421.23180	         1.23715e+58
          1422.03810	         1.09805e+58
          1422.84440	         1.13027e+58
          1423.65070	         1.32775e+58
          1424.45700	         1.15099e+58
          1425.26330	         7.58716e+57
          1426.06960	         7.52975e+57
          1426.87590	         1.05677e+58
          1427.68220	         1.13968e+58
          1428.48850	         1.10871e+58
          1429.29480	         1.08879e+58
          1430.10110	         9.73002e+57
          1430.90740	         7.40417e+57
          1431.71370	         9.04447e+57
          1432.52000	         9.68148e+57
          1433.32630	         7.68545e+57
          1434.13260	         8.00181e+57
          1434.93890	         9.39951e+57
          1435.74520	         9.74934e+57
          1436.55150	         9.45017e+57
          1437.35780	         8.38193e+57
          1438.16410	         8.87856e+57
          1438.97040	         9.84450e+57
          1439.77670	         9.22115e+57
          1440.58300	         8.63594e+57
          1441.38930	         9.46736e+57
          1442.19560	         9.52677e+57
          1443.00190	         9.14987e+57
          1443.80820	         1.15073e+58
          1444.61450	         1.09037e+58
          1445.42080	         8.76253e+57
          1446.22710	         9.40404e+57
          1447.03340	         9.70731e+57
          1447.83970	         1.06862e+58
          1448.64600	         1.00601e+58
          1449.45230	         9.11720e+57
          1450.25860	         1.00786e+58
          1451.06490	         1.01928e+58
          1451.87120	         8.64684e+57
          1452.67750	         7.56527e+57
          1453.48380	         8.86027e+57
          1454.29010	         7.28218e+57
          1455.09640	         6.85354e+57
          1455.90270	         8.64962e+57
          1456.70900	         8.25347e+57
          1457.51530	         9.10323e+57
          1458.32160	         1.16087e+58
          1459.12790	         1.13111e+58
          1459.93420	         9.80080e+57
          1460.74050	         8.55199e+57
          1461.54680	         8.73292e+57
          1462.35310	         9.82597e+57
          1463.15940	         1.20368e+58
          1463.96570	         1.17592e+58
          1464.77200	         1.11246e+58
          1465.57830	         9.81344e+57
          1466.38460	         8.55005e+57
          1467.19090	         8.76694e+57
          1467.99720	         8.25476e+57
          1468.80350	         8.52699e+57
          1469.60980	         9.48196e+57
          1470.41610	         1.02858e+58
          1471.22240	         9.37695e+57
          1472.02870	         9.77792e+57
          1472.83500	         9.48261e+57
          1473.64130	         9.67514e+57
          1474.44760	         9.55181e+57
          1475.25390	         8.85288e+57
          1476.06020	         8.29342e+57
          1476.86650	         9.02059e+57
          1477.67280	         9.36487e+57
          1478.47910	         7.92255e+57
          1479.28540	         6.78112e+57
          1480.09170	         8.69162e+57
          1480.89800	         9.66761e+57
          1481.70430	         8.23686e+57
          1482.51060	         7.64913e+57
          1483.31690	         8.04714e+57
          1484.12320	         8.40154e+57
          1484.92950	         8.03094e+57
          1485.73580	         7.35011e+57
          1486.54210	         8.04177e+57
          1487.34840	         9.20227e+57
          1488.15470	         9.19129e+57
          1488.96100	         8.56893e+57
          1489.76730	         8.72121e+57
