#sample_378_stacked_spectrum_rest_UV-bands_median_H-alpha_noDC.txt
#median Lum: 1.69577e+42
#Rest-frame wavelength (A) | Luminosity (erg/s/A)
#
          1110.00000	         0.00000e+00
          1110.80630	        -3.21290e+59
          1111.61260	         3.48733e+59
          1112.41890	         8.08576e+58
          1113.22520	        -7.38192e+58
          1114.03150	        -1.79468e+59
          1114.83780	         1.02203e+58
          1115.64410	         1.43294e+59
          1116.45040	         1.91195e+56
          1117.25670	        -8.26381e+57
          1118.06300	         2.75878e+59
          1118.86930	         8.49806e+58
          1119.67560	         1.21532e+59
          1120.48190	        -3.47310e+58
          1121.28820	        -1.61237e+59
          1122.09450	         3.59392e+58
          1122.90080	         4.98439e+58
          1123.70710	         3.78525e+58
          1124.51340	         8.97728e+58
          1125.31970	        -2.45327e+58
          1126.12600	         1.85323e+58
          1126.93230	        -1.86741e+58
          1127.73860	        -4.83621e+58
          1128.54490	        -3.25635e+58
          1129.35120	         4.34628e+57
          1130.15750	        -1.76876e+58
          1130.96380	        -1.52902e+58
          1131.77010	         5.53798e+58
          1132.57640	         5.32129e+58
          1133.38270	         3.48977e+58
          1134.18900	         4.40185e+58
          1134.99530	         3.96306e+58
          1135.80160	         3.35864e+58
          1136.60790	         2.98643e+58
          1137.41420	        -1.75453e+58
          1138.22050	         4.00664e+58
          1139.02680	         4.58725e+58
          1139.83310	         2.54505e+58
          1140.63940	         1.21542e+58
          1141.44570	        -1.24303e+58
          1142.25200	         1.82269e+58
          1143.05830	         2.40270e+58
          1143.86460	         2.21251e+58
          1144.67090	         2.63146e+58
          1145.47720	         8.71485e+57
          1146.28350	         2.91833e+58
          1147.08980	         1.99265e+58
          1147.89610	         4.73034e+57
          1148.70240	         3.59084e+58
          1149.50870	         2.81538e+58
          1150.31500	         1.34096e+58
          1151.12130	         2.48760e+56
          1151.92760	         1.89811e+57
          1152.73390	         7.63565e+57
          1153.54020	         9.33425e+57
          1154.34650	         2.05277e+58
          1155.15280	         2.05619e+58
          1155.95910	         1.00021e+58
          1156.76540	         8.65037e+57
          1157.57170	         1.81947e+57
          1158.37800	         2.81227e+57
          1159.18430	         9.53639e+57
          1159.99060	         2.17579e+58
          1160.79690	         7.22186e+57
          1161.60320	         2.63155e+57
          1162.40950	         7.69068e+57
          1163.21580	         1.66942e+58
          1164.02210	         1.32269e+58
          1164.82840	         5.97806e+57
          1165.63470	         1.94824e+58
          1166.44100	         2.96319e+58
          1167.24730	         1.86887e+58
          1168.05360	         8.11398e+57
          1168.85990	         5.11205e+57
          1169.66620	         8.68427e+57
          1170.47250	         2.50467e+58
          1171.27880	         1.93519e+58
          1172.08510	         1.71554e+58
          1172.89140	         1.29794e+58
          1173.69770	         2.56593e+57
          1174.50400	         9.65869e+57
          1175.31030	         1.98310e+58
          1176.11660	         1.78251e+58
          1176.92290	         1.44651e+58
          1177.72920	         8.65059e+57
          1178.53550	         6.41930e+57
          1179.34180	         8.63618e+57
          1180.14810	         6.75911e+57
          1180.95440	         2.23325e+57
          1181.76070	         7.28669e+57
          1182.56700	         7.12278e+57
          1183.37330	         4.04431e+57
          1184.17960	         9.96084e+57
          1184.98590	         8.79616e+57
          1185.79220	         5.76080e+57
          1186.59850	         1.00495e+58
          1187.40480	         9.09298e+57
          1188.21110	         1.13685e+58
          1189.01740	         8.43858e+57
          1189.82370	         6.10524e+57
          1190.63000	         1.25633e+58
          1191.43630	         1.62671e+58
          1192.24260	         1.03198e+58
          1193.04890	         1.34095e+58
          1193.85520	         1.30453e+58
          1194.66150	         9.73370e+57
          1195.46780	         1.29149e+58
          1196.27410	         1.50815e+58
          1197.08040	         1.07809e+58
          1197.88670	         9.28701e+57
          1198.69300	         1.36551e+58
          1199.49930	         1.55644e+58
          1200.30560	         8.73247e+57
          1201.11190	         1.00549e+58
          1201.91820	         1.36391e+58
          1202.72450	         1.14012e+58
          1203.53080	         1.30944e+58
          1204.33710	         6.99805e+57
          1205.14340	         6.51958e+57
          1205.94970	         4.03260e+57
          1206.75600	         5.75581e+57
          1207.56230	         6.00817e+57
          1208.36860	         9.07384e+57
          1209.17490	         4.75807e+57
          1209.98120	         7.43040e+57
          1210.78750	         1.12061e+58
          1211.59380	         1.27018e+58
          1212.40010	         1.51969e+58
          1213.20640	         1.96463e+58
          1214.01270	         2.03004e+58
          1214.81900	         2.34711e+58
          1215.62530	         4.30408e+58
          1216.43160	         8.93645e+58
          1217.23790	         1.53046e+59
          1218.04420	         1.16812e+59
          1218.85050	         8.64647e+58
          1219.65680	         5.89614e+58
          1220.46310	         3.41150e+58
          1221.26940	         2.15960e+58
          1222.07570	         1.23097e+58
          1222.88200	         9.63408e+57
          1223.68830	         8.26154e+57
          1224.49460	         7.12593e+57
          1225.30090	         7.89901e+57
          1226.10720	         6.44710e+57
          1226.91350	         7.28414e+57
          1227.71980	         7.49096e+57
          1228.52610	         1.23236e+58
          1229.33240	         1.04560e+58
          1230.13870	         1.04713e+58
          1230.94500	         9.71452e+57
          1231.75130	         6.14586e+57
          1232.55760	         8.03952e+57
          1233.36390	         8.79075e+57
          1234.17020	         6.11752e+57
          1234.97650	         7.23994e+57
          1235.78280	         7.32759e+57
          1236.58910	         8.98387e+57
          1237.39540	         1.01031e+58
          1238.20170	         1.03671e+58
          1239.00800	         1.41116e+58
          1239.81430	         1.46350e+58
          1240.62060	         1.01014e+58
          1241.42690	         9.82415e+57
          1242.23320	         1.01322e+58
          1243.03950	         6.35532e+57
          1243.84580	         8.93623e+57
          1244.65210	         1.14451e+58
          1245.45840	         9.68682e+57
          1246.26470	         9.99889e+57
          1247.07100	         8.95011e+57
          1247.87730	         7.32984e+57
          1248.68360	         7.04775e+57
          1249.48990	         9.58629e+57
          1250.29620	         1.03770e+58
          1251.10250	         7.69594e+57
          1251.90880	         6.91560e+57
          1252.71510	         5.96448e+57
          1253.52140	         6.42520e+57
          1254.32770	         1.13257e+58
          1255.13400	         1.53413e+58
          1255.94030	         1.13394e+58
          1256.74660	         8.84993e+57
          1257.55290	         1.03761e+58
          1258.35920	         8.84327e+57
          1259.16550	         5.31840e+57
          1259.97180	         4.51214e+57
          1260.77810	         8.37479e+57
          1261.58440	         1.09850e+58
          1262.39070	         8.98862e+57
          1263.19700	         9.61664e+57
          1264.00330	         1.07898e+58
          1264.80960	         1.02330e+58
          1265.61590	         1.28306e+58
          1266.42220	         1.16626e+58
          1267.22850	         9.38786e+57
          1268.03480	         1.33494e+58
          1268.84110	         1.49836e+58
          1269.64740	         1.26294e+58
          1270.45370	         1.23284e+58
          1271.26000	         1.14032e+58
          1272.06630	         1.21284e+58
          1272.87260	         1.09847e+58
          1273.67890	         1.01790e+58
          1274.48520	         9.67302e+57
          1275.29150	         9.64988e+57
          1276.09780	         9.85789e+57
          1276.90410	         1.51192e+58
          1277.71040	         1.36533e+58
          1278.51670	         1.02521e+58
          1279.32300	         1.34581e+58
          1280.12930	         1.51256e+58
          1280.93560	         1.08220e+58
          1281.74190	         1.15688e+58
          1282.54820	         1.36573e+58
          1283.35450	         9.62121e+57
          1284.16080	         1.06724e+58
          1284.96710	         1.44771e+58
          1285.77340	         1.19540e+58
          1286.57970	         9.53745e+57
          1287.38600	         1.25412e+58
          1288.19230	         1.60905e+58
          1288.99860	         1.56243e+58
          1289.80490	         1.21991e+58
          1290.61120	         1.37709e+58
          1291.41750	         1.52946e+58
          1292.22380	         1.23736e+58
          1293.03010	         1.08414e+58
          1293.83640	         1.33196e+58
          1294.64270	         1.15136e+58
          1295.44900	         5.14709e+57
          1296.25530	         6.51176e+57
          1297.06160	         9.74316e+57
          1297.86790	         1.00078e+58
          1298.67420	         9.85655e+57
          1299.48050	         9.74490e+57
          1300.28680	         1.04065e+58
          1301.09310	         8.22556e+57
          1301.89940	         5.60487e+57
          1302.70570	         6.47869e+57
          1303.51200	         7.45473e+57
          1304.31830	         9.60180e+57
          1305.12460	         9.96966e+57
          1305.93090	         1.00812e+58
          1306.73720	         1.24262e+58
          1307.54350	         1.41304e+58
          1308.34980	         1.47913e+58
          1309.15610	         1.75577e+58
          1309.96240	         1.68750e+58
          1310.76870	         1.49531e+58
          1311.57500	         1.43998e+58
          1312.38130	         1.14608e+58
          1313.18760	         1.26258e+58
          1313.99390	         1.55710e+58
          1314.80020	         1.77584e+58
          1315.60650	         1.64498e+58
          1316.41280	         1.37461e+58
          1317.21910	         9.66883e+57
          1318.02540	         9.81472e+57
          1318.83170	         1.34615e+58
          1319.63800	         1.29682e+58
          1320.44430	         1.12128e+58
          1321.25060	         1.20623e+58
          1322.05690	         1.36890e+58
          1322.86320	         1.37490e+58
          1323.66950	         1.22472e+58
          1324.47580	         1.02614e+58
          1325.28210	         1.07000e+58
          1326.08840	         1.18997e+58
          1326.89470	         1.32274e+58
          1327.70100	         1.18892e+58
          1328.50730	         9.91871e+57
          1329.31360	         1.10111e+58
          1330.11990	         1.06718e+58
          1330.92620	         8.36879e+57
          1331.73250	         9.48261e+57
          1332.53880	         9.55432e+57
          1333.34510	         8.33724e+57
          1334.15140	         8.15766e+57
          1334.95770	         8.94547e+57
          1335.76400	         1.14154e+58
          1336.57030	         1.20218e+58
          1337.37660	         1.09867e+58
          1338.18290	         1.09734e+58
          1338.98920	         1.10216e+58
          1339.79550	         1.04185e+58
          1340.60180	         1.32728e+58
          1341.40810	         1.40000e+58
          1342.21440	         1.19803e+58
          1343.02070	         1.34593e+58
          1343.82700	         1.34944e+58
          1344.63330	         1.14165e+58
          1345.43960	         1.15998e+58
          1346.24590	         1.02138e+58
          1347.05220	         1.11656e+58
          1347.85850	         1.03873e+58
          1348.66480	         1.10487e+58
          1349.47110	         1.24935e+58
          1350.27740	         1.19520e+58
          1351.08370	         1.19757e+58
          1351.89000	         1.18546e+58
          1352.69630	         1.15326e+58
          1353.50260	         1.26480e+58
          1354.30890	         1.22067e+58
          1355.11520	         1.16071e+58
          1355.92150	         1.04942e+58
          1356.72780	         1.01099e+58
          1357.53410	         9.83211e+57
          1358.34040	         9.62410e+57
          1359.14670	         9.98731e+57
          1359.95300	         1.08138e+58
          1360.75930	         1.12772e+58
          1361.56560	         1.13072e+58
          1362.37190	         1.21894e+58
          1363.17820	         1.16105e+58
          1363.98450	         1.21092e+58
          1364.79080	         1.34489e+58
          1365.59710	         1.27746e+58
          1366.40340	         1.08229e+58
          1367.20970	         9.61672e+57
          1368.01600	         9.64951e+57
          1368.82230	         9.69917e+57
          1369.62860	         1.10368e+58
          1370.43490	         1.07524e+58
          1371.24120	         1.05051e+58
          1372.04750	         8.74027e+57
          1372.85380	         1.03493e+58
          1373.66010	         1.12733e+58
          1374.46640	         9.94492e+57
          1375.27270	         1.07356e+58
          1376.07900	         9.51617e+57
          1376.88530	         8.05469e+57
          1377.69160	         8.16784e+57
          1378.49790	         7.86547e+57
          1379.30420	         8.61866e+57
          1380.11050	         9.20990e+57
          1380.91680	         8.58809e+57
          1381.72310	         9.36589e+57
          1382.52940	         7.78575e+57
          1383.33570	         7.71787e+57
          1384.14200	         1.15855e+58
          1384.94830	         1.19463e+58
          1385.75460	         1.12858e+58
          1386.56090	         1.13987e+58
          1387.36720	         1.08716e+58
          1388.17350	         1.27300e+58
          1388.97980	         1.29749e+58
          1389.78610	         1.06186e+58
          1390.59240	         8.41790e+57
          1391.39870	         6.63225e+57
          1392.20500	         7.96481e+57
          1393.01130	         8.89190e+57
          1393.81760	         8.13108e+57
          1394.62390	         7.10844e+57
          1395.43020	         6.84382e+57
          1396.23650	         7.13626e+57
          1397.04280	         7.00504e+57
          1397.84910	         9.12109e+57
          1398.65540	         9.75277e+57
          1399.46170	         8.74115e+57
          1400.26800	         7.28702e+57
          1401.07430	         7.86016e+57
          1401.88060	         8.68036e+57
          1402.68690	         9.55793e+57
          1403.49320	         1.01625e+58
          1404.29950	         9.80678e+57
          1405.10580	         1.08031e+58
          1405.91210	         1.14811e+58
          1406.71840	         1.09129e+58
          1407.52470	         1.01227e+58
          1408.33100	         1.09581e+58
          1409.13730	         1.29593e+58
          1409.94360	         1.26592e+58
          1410.74990	         1.22135e+58
          1411.55620	         1.00082e+58
          1412.36250	         8.58725e+57
          1413.16880	         8.47229e+57
          1413.97510	         9.37045e+57
          1414.78140	         9.80149e+57
          1415.58770	         9.93036e+57
          1416.39400	         1.16675e+58
          1417.20030	         1.21895e+58
          1418.00660	         1.08469e+58
          1418.81290	         1.12449e+58
          1419.61920	         1.10279e+58
          1420.42550	         1.20914e+58
          1421.23180	         1.37878e+58
          1422.03810	         1.22439e+58
          1422.84440	         1.21392e+58
          1423.65070	         1.31837e+58
          1424.45700	         1.18647e+58
          1425.26330	         8.73118e+57
          1426.06960	         9.28064e+57
          1426.87590	         1.10607e+58
          1427.68220	         1.10743e+58
          1428.48850	         1.09942e+58
          1429.29480	         1.05107e+58
          1430.10110	         1.10194e+58
          1430.90740	         9.81034e+57
          1431.71370	         8.99641e+57
          1432.52000	         8.12350e+57
          1433.32630	         7.42666e+57
          1434.13260	         7.83623e+57
          1434.93890	         7.90099e+57
          1435.74520	         8.24397e+57
          1436.55150	         9.13577e+57
          1437.35780	         9.07573e+57
          1438.16410	         9.37225e+57
          1438.97040	         9.46715e+57
          1439.77670	         8.83260e+57
          1440.58300	         9.01876e+57
          1441.38930	         9.33898e+57
          1442.19560	         1.00769e+58
          1443.00190	         1.10135e+58
          1443.80820	         1.20778e+58
          1444.61450	         9.83439e+57
          1445.42080	         8.56622e+57
          1446.22710	         1.07333e+58
          1447.03340	         1.04338e+58
          1447.83970	         1.17808e+58
          1448.64600	         1.14838e+58
          1449.45230	         1.03004e+58
          1450.25860	         1.04153e+58
          1451.06490	         9.22364e+57
          1451.87120	         7.97650e+57
          1452.67750	         7.39302e+57
          1453.48380	         7.48094e+57
          1454.29010	         7.92477e+57
          1455.09640	         7.88966e+57
          1455.90270	         9.41728e+57
          1456.70900	         9.86927e+57
          1457.51530	         1.02455e+58
          1458.32160	         1.20760e+58
          1459.12790	         1.21068e+58
          1459.93420	         1.04286e+58
          1460.74050	         8.34796e+57
          1461.54680	         8.36432e+57
          1462.35310	         8.67864e+57
          1463.15940	         9.50953e+57
          1463.96570	         1.10586e+58
          1464.77200	         1.24563e+58
          1465.57830	         1.07799e+58
          1466.38460	         8.96317e+57
          1467.19090	         8.72909e+57
          1467.99720	         8.22990e+57
          1468.80350	         9.05512e+57
          1469.60980	         1.08999e+58
          1470.41610	         1.09452e+58
          1471.22240	         9.08425e+57
          1472.02870	         9.38343e+57
          1472.83500	         1.01531e+58
          1473.64130	         9.42617e+57
          1474.44760	         9.73968e+57
          1475.25390	         9.72742e+57
          1476.06020	         8.59033e+57
          1476.86650	         8.70771e+57
          1477.67280	         8.72116e+57
          1478.47910	         7.22358e+57
          1479.28540	         6.28252e+57
          1480.09170	         7.94592e+57
          1480.89800	         9.45768e+57
          1481.70430	         9.02376e+57
          1482.51060	         8.05030e+57
          1483.31690	         7.91712e+57
          1484.12320	         8.83294e+57
          1484.92950	         7.91423e+57
          1485.73580	         8.09532e+57
          1486.54210	         8.98929e+57
          1487.34840	         9.38233e+57
          1488.15470	         9.02939e+57
          1488.96100	         8.91311e+57
          1489.76730	         8.75119e+57
