#sample_459_stacked_spectrum_rest_UV-bands_median_H-alpha_noDC.txt
#median Lum: 1.69124e+42
#Rest-frame wavelength (A) | Luminosity (erg/s/A)
#
          1110.00000	         0.00000e+00
          1110.80630	         4.60892e+59
          1111.61260	         2.21562e+59
          1112.41890	         4.96649e+58
          1113.22520	         1.68778e+59
          1114.03150	        -7.60606e+58
          1114.83780	         1.69906e+59
          1115.64410	         1.09080e+59
          1116.45040	        -1.97127e+59
          1117.25670	        -6.93675e+58
          1118.06300	         1.57808e+59
          1118.86930	         3.61935e+58
          1119.67560	         1.57324e+59
          1120.48190	        -3.04294e+57
          1121.28820	        -1.07212e+59
          1122.09450	         1.76290e+58
          1122.90080	         5.09864e+58
          1123.70710	         6.11870e+58
          1124.51340	         9.44632e+58
          1125.31970	        -1.42387e+58
          1126.12600	        -6.43653e+57
          1126.93230	        -6.19042e+58
          1127.73860	        -7.20191e+58
          1128.54490	         1.86398e+58
          1129.35120	         5.84177e+58
          1130.15750	         4.43026e+58
          1130.96380	        -6.02277e+57
          1131.77010	         4.50361e+58
          1132.57640	         4.56944e+58
          1133.38270	         4.08471e+58
          1134.18900	         2.43145e+58
          1134.99530	         1.74846e+58
          1135.80160	         3.02924e+58
          1136.60790	         1.38495e+58
          1137.41420	        -2.28948e+57
          1138.22050	         2.44149e+58
          1139.02680	         3.51755e+58
          1139.83310	         2.55767e+58
          1140.63940	         5.20506e+57
          1141.44570	        -1.22793e+58
          1142.25200	        -8.00158e+57
          1143.05830	         2.69291e+58
          1143.86460	         3.77300e+58
          1144.67090	         4.37875e+58
          1145.47720	         1.15771e+58
          1146.28350	         5.15839e+57
          1147.08980	         1.84061e+58
          1147.89610	         1.98770e+58
          1148.70240	         2.67967e+58
          1149.50870	         3.45194e+58
          1150.31500	         6.57890e+57
          1151.12130	         1.05258e+58
          1151.92760	         1.06173e+57
          1152.73390	         8.02611e+57
          1153.54020	         9.69445e+57
          1154.34650	         2.08121e+58
          1155.15280	         1.86220e+58
          1155.95910	         8.67693e+57
          1156.76540	         1.52910e+58
          1157.57170	         6.11694e+57
          1158.37800	        -6.40028e+57
          1159.18430	         1.30357e+57
          1159.99060	        -2.50445e+57
          1160.79690	         5.98507e+57
          1161.60320	         1.16827e+58
          1162.40950	         1.21529e+58
          1163.21580	         2.20540e+58
          1164.02210	         9.63243e+57
          1164.82840	         1.38439e+58
          1165.63470	         1.51503e+58
          1166.44100	         1.55134e+58
          1167.24730	         1.52968e+58
          1168.05360	         9.94080e+57
          1168.85990	         1.23091e+58
          1169.66620	         6.82643e+57
          1170.47250	         9.13780e+57
          1171.27880	         1.40513e+58
          1172.08510	         1.68393e+58
          1172.89140	         7.66683e+57
          1173.69770	         6.49331e+57
          1174.50400	         6.90734e+57
          1175.31030	         1.21388e+58
          1176.11660	         1.95263e+58
          1176.92290	         1.58135e+58
          1177.72920	         1.38048e+58
          1178.53550	         9.86021e+57
          1179.34180	         2.70200e+57
          1180.14810	         1.48986e+57
          1180.95440	         1.00107e+58
          1181.76070	         6.80754e+57
          1182.56700	         6.22533e+57
          1183.37330	         6.57805e+57
          1184.17960	         1.42949e+58
          1184.98590	         1.55568e+58
          1185.79220	         1.16366e+58
          1186.59850	         1.36306e+58
          1187.40480	         9.35530e+57
          1188.21110	         1.15730e+58
          1189.01740	         9.84216e+57
          1189.82370	         1.92675e+58
          1190.63000	         2.23363e+58
          1191.43630	         1.84915e+58
          1192.24260	         8.87248e+57
          1193.04890	         1.19755e+58
          1193.85520	         1.00186e+58
          1194.66150	        -3.31999e+57
          1195.46780	         7.82021e+57
          1196.27410	         1.61842e+58
          1197.08040	         1.07166e+58
          1197.88670	         1.66748e+58
          1198.69300	         1.68306e+58
          1199.49930	         1.22208e+58
          1200.30560	         6.58682e+57
          1201.11190	         4.85791e+57
          1201.91820	         6.25713e+57
          1202.72450	         5.82763e+57
          1203.53080	         1.29718e+58
          1204.33710	         1.05201e+58
          1205.14340	         5.89988e+57
          1205.94970	         7.82734e+57
          1206.75600	         7.80175e+57
          1207.56230	         9.29724e+57
          1208.36860	         1.23903e+58
          1209.17490	         5.41771e+57
          1209.98120	         4.40474e+57
          1210.78750	         9.85582e+57
          1211.59380	         1.19477e+58
          1212.40010	         1.84157e+58
          1213.20640	         1.82545e+58
          1214.01270	         1.95064e+58
          1214.81900	         2.36394e+58
          1215.62530	         4.52776e+58
          1216.43160	         9.18559e+58
          1217.23790	         1.53080e+59
          1218.04420	         1.12707e+59
          1218.85050	         8.56057e+58
          1219.65680	         6.12126e+58
          1220.46310	         3.62845e+58
          1221.26940	         2.40716e+58
          1222.07570	         1.60135e+58
          1222.88200	         1.39131e+58
          1223.68830	         9.86591e+57
          1224.49460	         7.00787e+57
          1225.30090	         8.04398e+57
          1226.10720	         7.74278e+57
          1226.91350	         8.75079e+57
          1227.71980	         7.84499e+57
          1228.52610	         1.11984e+58
          1229.33240	         1.01378e+58
          1230.13870	         8.21674e+57
          1230.94500	         7.18663e+57
          1231.75130	         5.26979e+57
          1232.55760	         7.73836e+57
          1233.36390	         1.01362e+58
          1234.17020	         1.03343e+58
          1234.97650	         9.01156e+57
          1235.78280	         7.23830e+57
          1236.58910	         8.79349e+57
          1237.39540	         1.20168e+58
          1238.20170	         1.09548e+58
          1239.00800	         1.08005e+58
          1239.81430	         1.40075e+58
          1240.62060	         9.99413e+57
          1241.42690	         1.05261e+58
          1242.23320	         1.24769e+58
          1243.03950	         7.02512e+57
          1243.84580	         7.80798e+57
          1244.65210	         1.11574e+58
          1245.45840	         1.06285e+58
          1246.26470	         8.81237e+57
          1247.07100	         9.97502e+57
          1247.87730	         7.45066e+57
          1248.68360	         2.72428e+57
          1249.48990	         6.61293e+57
          1250.29620	         1.23887e+58
          1251.10250	         7.84646e+57
          1251.90880	         6.09167e+57
          1252.71510	         6.45776e+57
          1253.52140	         6.74698e+57
          1254.32770	         9.42679e+57
          1255.13400	         1.14433e+58
          1255.94030	         9.09335e+57
          1256.74660	         9.11292e+57
          1257.55290	         1.12022e+58
          1258.35920	         9.19739e+57
          1259.16550	         3.21472e+57
          1259.97180	         3.84810e+57
          1260.77810	         9.34423e+57
          1261.58440	         1.14210e+58
          1262.39070	         9.17673e+57
          1263.19700	         9.51634e+57
          1264.00330	         8.84125e+57
          1264.80960	         1.00455e+58
          1265.61590	         1.20536e+58
          1266.42220	         1.12845e+58
          1267.22850	         8.62818e+57
          1268.03480	         1.08490e+58
          1268.84110	         1.46527e+58
          1269.64740	         1.58071e+58
          1270.45370	         1.32673e+58
          1271.26000	         1.08998e+58
          1272.06630	         1.15844e+58
          1272.87260	         1.23024e+58
          1273.67890	         1.27035e+58
          1274.48520	         1.35559e+58
          1275.29150	         1.47219e+58
          1276.09780	         1.25108e+58
          1276.90410	         1.40620e+58
          1277.71040	         1.39430e+58
          1278.51670	         1.27218e+58
          1279.32300	         1.20803e+58
          1280.12930	         1.05648e+58
          1280.93560	         9.94427e+57
          1281.74190	         1.13620e+58
          1282.54820	         1.33316e+58
          1283.35450	         1.21768e+58
          1284.16080	         1.14063e+58
          1284.96710	         1.29561e+58
          1285.77340	         1.25953e+58
          1286.57970	         1.19501e+58
          1287.38600	         1.31457e+58
          1288.19230	         1.42747e+58
          1288.99860	         1.40778e+58
          1289.80490	         1.07866e+58
          1290.61120	         1.38830e+58
          1291.41750	         1.48212e+58
          1292.22380	         1.19251e+58
          1293.03010	         1.00171e+58
          1293.83640	         1.05228e+58
          1294.64270	         1.10694e+58
          1295.44900	         6.87373e+57
          1296.25530	         8.20092e+57
          1297.06160	         9.99862e+57
          1297.86790	         1.02379e+58
          1298.67420	         9.36814e+57
          1299.48050	         9.53911e+57
          1300.28680	         1.03609e+58
          1301.09310	         8.04004e+57
          1301.89940	         3.48572e+57
          1302.70570	         5.34022e+57
          1303.51200	         7.99271e+57
          1304.31830	         9.54239e+57
          1305.12460	         1.13246e+58
          1305.93090	         1.12429e+58
          1306.73720	         1.18435e+58
          1307.54350	         1.31879e+58
          1308.34980	         1.36478e+58
          1309.15610	         1.23481e+58
          1309.96240	         1.20581e+58
          1310.76870	         1.23587e+58
          1311.57500	         1.12397e+58
          1312.38130	         1.05564e+58
          1313.18760	         1.39263e+58
          1313.99390	         1.77126e+58
          1314.80020	         1.74974e+58
          1315.60650	         1.60459e+58
          1316.41280	         1.33148e+58
          1317.21910	         8.64607e+57
          1318.02540	         1.02912e+58
          1318.83170	         1.18300e+58
          1319.63800	         1.20890e+58
          1320.44430	         1.11263e+58
          1321.25060	         1.16449e+58
          1322.05690	         1.24334e+58
          1322.86320	         1.23223e+58
          1323.66950	         1.16207e+58
          1324.47580	         9.51075e+57
          1325.28210	         9.88258e+57
          1326.08840	         1.15481e+58
          1326.89470	         1.33100e+58
          1327.70100	         1.11119e+58
          1328.50730	         8.18704e+57
          1329.31360	         9.91831e+57
          1330.11990	         1.07343e+58
          1330.92620	         9.15503e+57
          1331.73250	         1.11536e+58
          1332.53880	         1.01907e+58
          1333.34510	         8.61176e+57
          1334.15140	         7.83602e+57
          1334.95770	         8.20529e+57
          1335.76400	         1.12924e+58
          1336.57030	         1.15718e+58
          1337.37660	         9.59176e+57
          1338.18290	         9.70655e+57
          1338.98920	         1.19572e+58
          1339.79550	         1.03443e+58
          1340.60180	         1.12143e+58
          1341.40810	         1.31732e+58
          1342.21440	         1.13200e+58
          1343.02070	         1.24484e+58
          1343.82700	         1.43039e+58
          1344.63330	         1.42904e+58
          1345.43960	         1.40909e+58
          1346.24590	         1.14239e+58
          1347.05220	         1.32011e+58
          1347.85850	         1.14643e+58
          1348.66480	         1.21728e+58
          1349.47110	         1.36314e+58
          1350.27740	         1.14572e+58
          1351.08370	         1.16154e+58
          1351.89000	         1.25347e+58
          1352.69630	         1.23481e+58
          1353.50260	         1.20302e+58
          1354.30890	         1.11874e+58
          1355.11520	         1.11430e+58
          1355.92150	         1.07207e+58
          1356.72780	         9.63785e+57
          1357.53410	         9.34184e+57
          1358.34040	         9.79250e+57
          1359.14670	         1.05421e+58
          1359.95300	         1.09386e+58
          1360.75930	         1.06668e+58
          1361.56560	         1.11115e+58
          1362.37190	         1.24524e+58
          1363.17820	         1.14371e+58
          1363.98450	         1.12952e+58
          1364.79080	         1.28196e+58
          1365.59710	         1.32467e+58
          1366.40340	         1.28113e+58
          1367.20970	         1.06818e+58
          1368.01600	         9.18214e+57
          1368.82230	         7.51321e+57
          1369.62860	         9.56576e+57
          1370.43490	         9.55669e+57
          1371.24120	         9.18586e+57
          1372.04750	         9.46480e+57
          1372.85380	         1.24894e+58
          1373.66010	         1.20448e+58
          1374.46640	         9.99211e+57
          1375.27270	         1.10570e+58
          1376.07900	         9.80170e+57
          1376.88530	         9.28637e+57
          1377.69160	         9.45964e+57
          1378.49790	         7.30788e+57
          1379.30420	         7.60785e+57
          1380.11050	         8.58396e+57
          1380.91680	         6.98536e+57
          1381.72310	         7.15073e+57
          1382.52940	         7.56111e+57
          1383.33570	         7.64810e+57
          1384.14200	         1.00355e+58
          1384.94830	         1.04799e+58
          1385.75460	         1.04514e+58
          1386.56090	         1.19283e+58
          1387.36720	         1.10233e+58
          1388.17350	         1.15754e+58
          1388.97980	         9.93581e+57
          1389.78610	         8.28762e+57
          1390.59240	         6.99506e+57
          1391.39870	         5.26134e+57
          1392.20500	         6.36694e+57
          1393.01130	         7.98878e+57
          1393.81760	         7.45857e+57
          1394.62390	         5.93173e+57
          1395.43020	         5.98544e+57
          1396.23650	         7.12140e+57
          1397.04280	         8.72078e+57
          1397.84910	         9.54145e+57
          1398.65540	         8.69346e+57
          1399.46170	         8.66967e+57
          1400.26800	         7.91584e+57
          1401.07430	         7.32509e+57
          1401.88060	         7.24299e+57
          1402.68690	         8.72032e+57
          1403.49320	         9.47196e+57
          1404.29950	         9.42152e+57
          1405.10580	         1.05045e+58
          1405.91210	         1.04926e+58
          1406.71840	         1.04218e+58
          1407.52470	         1.03846e+58
          1408.33100	         1.07365e+58
          1409.13730	         1.20906e+58
          1409.94360	         1.23897e+58
          1410.74990	         1.21524e+58
          1411.55620	         1.09198e+58
          1412.36250	         8.56055e+57
          1413.16880	         8.54165e+57
          1413.97510	         9.60914e+57
          1414.78140	         9.42015e+57
          1415.58770	         9.66130e+57
          1416.39400	         1.00415e+58
          1417.20030	         1.19181e+58
          1418.00660	         1.15265e+58
          1418.81290	         1.17417e+58
          1419.61920	         1.15978e+58
          1420.42550	         1.21485e+58
          1421.23180	         1.36328e+58
          1422.03810	         1.30585e+58
          1422.84440	         1.24285e+58
          1423.65070	         1.24461e+58
          1424.45700	         1.03554e+58
          1425.26330	         8.82182e+57
          1426.06960	         9.09948e+57
          1426.87590	         9.73396e+57
          1427.68220	         1.08397e+58
          1428.48850	         1.11653e+58
          1429.29480	         1.04875e+58
          1430.10110	         9.97512e+57
          1430.90740	         8.44512e+57
          1431.71370	         9.22728e+57
          1432.52000	         9.38654e+57
          1433.32630	         8.20853e+57
          1434.13260	         7.89171e+57
          1434.93890	         8.11852e+57
          1435.74520	         9.07286e+57
          1436.55150	         9.42233e+57
          1437.35780	         8.69454e+57
          1438.16410	         8.63575e+57
          1438.97040	         8.61676e+57
          1439.77670	         7.98441e+57
          1440.58300	         9.25484e+57
          1441.38930	         1.01879e+58
          1442.19560	         1.00980e+58
          1443.00190	         9.84884e+57
          1443.80820	         1.13762e+58
          1444.61450	         9.58842e+57
          1445.42080	         8.33865e+57
          1446.22710	         9.52538e+57
          1447.03340	         9.29912e+57
          1447.83970	         9.93161e+57
          1448.64600	         1.03261e+58
          1449.45230	         1.10750e+58
          1450.25860	         1.08054e+58
          1451.06490	         9.40894e+57
          1451.87120	         7.40728e+57
          1452.67750	         7.51406e+57
          1453.48380	         8.76278e+57
          1454.29010	         7.57277e+57
          1455.09640	         7.47387e+57
          1455.90270	         8.60213e+57
          1456.70900	         8.33285e+57
          1457.51530	         7.99207e+57
          1458.32160	         9.96361e+57
          1459.12790	         1.12211e+58
          1459.93420	         1.04535e+58
          1460.74050	         8.03875e+57
          1461.54680	         8.41155e+57
          1462.35310	         8.61185e+57
          1463.15940	         9.53767e+57
          1463.96570	         1.08867e+58
          1464.77200	         1.16760e+58
          1465.57830	         1.06934e+58
          1466.38460	         8.91590e+57
          1467.19090	         8.65013e+57
          1467.99720	         9.11074e+57
          1468.80350	         8.29017e+57
          1469.60980	         7.96645e+57
          1470.41610	         1.05824e+58
          1471.22240	         1.03563e+58
          1472.02870	         9.58875e+57
          1472.83500	         9.25418e+57
          1473.64130	         9.06433e+57
          1474.44760	         1.02769e+58
          1475.25390	         1.01514e+58
          1476.06020	         8.91721e+57
          1476.86650	         8.67348e+57
          1477.67280	         8.72684e+57
          1478.47910	         6.91043e+57
          1479.28540	         6.34918e+57
          1480.09170	         7.50327e+57
          1480.89800	         8.80014e+57
          1481.70430	         8.76997e+57
          1482.51060	         8.43720e+57
          1483.31690	         7.37866e+57
          1484.12320	         6.36049e+57
          1484.92950	         7.15071e+57
          1485.73580	         8.51313e+57
          1486.54210	         9.11883e+57
          1487.34840	         9.72187e+57
          1488.15470	         8.78342e+57
          1488.96100	         8.55649e+57
          1489.76730	         9.88654e+57
