#sample_145_stacked_spectrum_rest_UV-bands_median_H-alpha_noDC.txt
#median Lum: 1.69548e+42
#Rest-frame wavelength (A) | Luminosity (erg/s/A)
#
          1110.00000	         0.00000e+00
          1110.80630	        -5.94273e+58
          1111.61260	         1.91119e+59
          1112.41890	         2.40365e+59
          1113.22520	         2.25965e+58
          1114.03150	        -2.72793e+59
          1114.83780	         6.53759e+57
          1115.64410	        -3.24855e+58
          1116.45040	        -7.12466e+58
          1117.25670	         1.00321e+58
          1118.06300	         2.49717e+59
          1118.86930	         8.43329e+58
          1119.67560	         1.27019e+59
          1120.48190	         2.85300e+57
          1121.28820	        -1.09723e+59
          1122.09450	        -1.74032e+58
          1122.90080	         1.18703e+58
          1123.70710	         5.91071e+58
          1124.51340	         6.79990e+58
          1125.31970	         3.02719e+58
          1126.12600	         1.66113e+58
          1126.93230	        -3.60240e+58
          1127.73860	        -5.26653e+58
          1128.54490	        -4.25255e+58
          1129.35120	        -1.59637e+58
          1130.15750	        -4.94473e+58
          1130.96380	        -3.49927e+58
          1131.77010	         5.15411e+58
          1132.57640	         5.73230e+58
          1133.38270	         2.84893e+58
          1134.18900	         1.11515e+58
          1134.99530	         2.51870e+58
          1135.80160	         2.19923e+58
          1136.60790	         2.19077e+58
          1137.41420	         7.33796e+57
          1138.22050	         4.95711e+58
          1139.02680	         3.91255e+58
          1139.83310	         1.35633e+58
          1140.63940	         2.51548e+58
          1141.44570	        -4.48785e+57
          1142.25200	        -3.31784e+56
          1143.05830	         2.69486e+58
          1143.86460	         3.73628e+58
          1144.67090	         1.42820e+58
          1145.47720	         3.08345e+58
          1146.28350	         2.13595e+58
          1147.08980	         1.79289e+58
          1147.89610	         2.01404e+58
          1148.70240	         2.67909e+58
          1149.50870	         2.43306e+58
          1150.31500	         1.58375e+58
          1151.12130	        -4.53989e+57
          1151.92760	        -5.54631e+57
          1152.73390	         1.43230e+58
          1153.54020	         1.40145e+58
          1154.34650	         2.60603e+58
          1155.15280	         1.85107e+58
          1155.95910	         1.34597e+58
          1156.76540	         1.44943e+57
          1157.57170	        -3.37372e+57
          1158.37800	        -3.91029e+57
          1159.18430	         2.62201e+57
          1159.99060	         7.97867e+56
          1160.79690	         7.25335e+57
          1161.60320	         2.12606e+58
          1162.40950	         1.16940e+58
          1163.21580	         1.32181e+58
          1164.02210	         1.73051e+58
          1164.82840	         5.34028e+57
          1165.63470	         1.53664e+58
          1166.44100	         3.29362e+58
          1167.24730	         2.36181e+58
          1168.05360	         7.08838e+57
          1168.85990	         1.04917e+58
          1169.66620	         8.63795e+57
          1170.47250	         1.85769e+58
          1171.27880	         1.39551e+58
          1172.08510	         1.17023e+58
          1172.89140	         7.82135e+57
          1173.69770	         8.56886e+57
          1174.50400	         9.69311e+57
          1175.31030	         1.82276e+58
          1176.11660	         1.88295e+58
          1176.92290	         2.05411e+58
          1177.72920	         1.56176e+58
          1178.53550	         8.85889e+57
          1179.34180	         2.62268e+57
          1180.14810	         2.07249e+57
          1180.95440	         8.33569e+57
          1181.76070	         7.73791e+57
          1182.56700	         8.11018e+57
          1183.37330	         6.61277e+57
          1184.17960	         1.29110e+58
          1184.98590	         1.31610e+58
          1185.79220	         7.25921e+57
          1186.59850	         1.15566e+58
          1187.40480	         1.21734e+58
          1188.21110	         1.52224e+58
          1189.01740	         1.07519e+58
          1189.82370	         1.15195e+58
          1190.63000	         1.05645e+58
          1191.43630	         9.32243e+57
          1192.24260	         1.36512e+58
          1193.04890	         1.57434e+58
          1193.85520	         1.22453e+58
          1194.66150	         7.95317e+57
          1195.46780	         1.07935e+58
          1196.27410	         1.12457e+58
          1197.08040	         1.13529e+58
          1197.88670	         1.48650e+58
          1198.69300	         1.63561e+58
          1199.49930	         1.08130e+58
          1200.30560	         6.74213e+57
          1201.11190	         5.73142e+57
          1201.91820	         1.05790e+58
          1202.72450	         9.59421e+57
          1203.53080	         1.68679e+58
          1204.33710	         1.11105e+58
          1205.14340	         5.27007e+57
          1205.94970	         7.26530e+57
          1206.75600	         6.05695e+57
          1207.56230	         4.39899e+57
          1208.36860	         8.47332e+57
          1209.17490	         6.38515e+57
          1209.98120	         4.84152e+57
          1210.78750	         9.00096e+57
          1211.59380	         1.48028e+58
          1212.40010	         1.99604e+58
          1213.20640	         2.01389e+58
          1214.01270	         2.07449e+58
          1214.81900	         2.49245e+58
          1215.62530	         4.34731e+58
          1216.43160	         9.11961e+58
          1217.23790	         1.49271e+59
          1218.04420	         1.12874e+59
          1218.85050	         8.70039e+58
          1219.65680	         5.64915e+58
          1220.46310	         3.08228e+58
          1221.26940	         2.39232e+58
          1222.07570	         1.53369e+58
          1222.88200	         1.07175e+58
          1223.68830	         8.26322e+57
          1224.49460	         5.99916e+57
          1225.30090	         5.51620e+57
          1226.10720	         5.76507e+57
          1226.91350	         6.37623e+57
          1227.71980	         9.22993e+57
          1228.52610	         7.94249e+57
          1229.33240	         7.98036e+57
          1230.13870	         9.85093e+57
          1230.94500	         7.16496e+57
          1231.75130	         4.55557e+57
          1232.55760	         6.37612e+57
          1233.36390	         8.38581e+57
          1234.17020	         6.51992e+57
          1234.97650	         7.32324e+57
          1235.78280	         9.02431e+57
          1236.58910	         8.97072e+57
          1237.39540	         1.07438e+58
          1238.20170	         1.17303e+58
          1239.00800	         1.28060e+58
          1239.81430	         1.53501e+58
          1240.62060	         1.28729e+58
          1241.42690	         1.20036e+58
          1242.23320	         1.34592e+58
          1243.03950	         9.39883e+57
          1243.84580	         9.45958e+57
          1244.65210	         9.38699e+57
          1245.45840	         8.77221e+57
          1246.26470	         7.45897e+57
          1247.07100	         4.43038e+57
          1247.87730	         6.09508e+57
          1248.68360	         5.72632e+57
          1249.48990	         7.11157e+57
          1250.29620	         1.17852e+58
          1251.10250	         8.74294e+57
          1251.90880	         4.70578e+57
          1252.71510	         5.83894e+57
          1253.52140	         7.80021e+57
          1254.32770	         1.05721e+58
          1255.13400	         1.37744e+58
          1255.94030	         1.33712e+58
          1256.74660	         1.08860e+58
          1257.55290	         1.13631e+58
          1258.35920	         9.22538e+57
          1259.16550	         7.69924e+57
          1259.97180	         6.61988e+57
          1260.77810	         7.01686e+57
          1261.58440	         9.68858e+57
          1262.39070	         8.04293e+57
          1263.19700	         7.57780e+57
          1264.00330	         8.93548e+57
          1264.80960	         1.13535e+58
          1265.61590	         1.36673e+58
          1266.42220	         1.41751e+58
          1267.22850	         1.15463e+58
          1268.03480	         1.35907e+58
          1268.84110	         1.47039e+58
          1269.64740	         1.12937e+58
          1270.45370	         1.08286e+58
          1271.26000	         1.17256e+58
          1272.06630	         1.29230e+58
          1272.87260	         1.23967e+58
          1273.67890	         1.05231e+58
          1274.48520	         1.11536e+58
          1275.29150	         1.22152e+58
          1276.09780	         1.09265e+58
          1276.90410	         1.33089e+58
          1277.71040	         1.40273e+58
          1278.51670	         1.38069e+58
          1279.32300	         1.39130e+58
          1280.12930	         1.18631e+58
          1280.93560	         1.26425e+58
          1281.74190	         1.17719e+58
          1282.54820	         1.13927e+58
          1283.35450	         9.98750e+57
          1284.16080	         1.15342e+58
          1284.96710	         1.43623e+58
          1285.77340	         1.23434e+58
          1286.57970	         1.09025e+58
          1287.38600	         1.32772e+58
          1288.19230	         1.57356e+58
          1288.99860	         1.52318e+58
          1289.80490	         1.21473e+58
          1290.61120	         1.30306e+58
          1291.41750	         1.37104e+58
          1292.22380	         1.25117e+58
          1293.03010	         1.12254e+58
          1293.83640	         1.24032e+58
          1294.64270	         9.75087e+57
          1295.44900	         7.60653e+57
          1296.25530	         8.35964e+57
          1297.06160	         8.63962e+57
          1297.86790	         1.02976e+58
          1298.67420	         6.95103e+57
          1299.48050	         8.14367e+57
          1300.28680	         1.09422e+58
          1301.09310	         7.20946e+57
          1301.89940	         4.21541e+57
          1302.70570	         5.91715e+57
          1303.51200	         8.92475e+57
          1304.31830	         1.04501e+58
          1305.12460	         9.59098e+57
          1305.93090	         1.04525e+58
          1306.73720	         1.21696e+58
          1307.54350	         1.25632e+58
          1308.34980	         1.40996e+58
          1309.15610	         1.64058e+58
          1309.96240	         1.49994e+58
          1310.76870	         1.23875e+58
          1311.57500	         1.03500e+58
          1312.38130	         1.06726e+58
          1313.18760	         1.39912e+58
          1313.99390	         1.45647e+58
          1314.80020	         1.67076e+58
          1315.60650	         1.60395e+58
          1316.41280	         1.41270e+58
          1317.21910	         1.27993e+58
          1318.02540	         1.25625e+58
          1318.83170	         1.27598e+58
          1319.63800	         1.14504e+58
          1320.44430	         1.07374e+58
          1321.25060	         1.24577e+58
          1322.05690	         1.33304e+58
          1322.86320	         1.25489e+58
          1323.66950	         1.08969e+58
          1324.47580	         9.40549e+57
          1325.28210	         1.10560e+58
          1326.08840	         1.21357e+58
          1326.89470	         1.19084e+58
          1327.70100	         1.12136e+58
          1328.50730	         8.94265e+57
          1329.31360	         9.47506e+57
          1330.11990	         9.25594e+57
          1330.92620	         9.54732e+57
          1331.73250	         1.07180e+58
          1332.53880	         8.46744e+57
          1333.34510	         8.71173e+57
          1334.15140	         1.02588e+58
          1334.95770	         1.10475e+58
          1335.76400	         1.29838e+58
          1336.57030	         1.23097e+58
          1337.37660	         1.04468e+58
          1338.18290	         1.14278e+58
          1338.98920	         1.21292e+58
          1339.79550	         1.22710e+58
          1340.60180	         1.42622e+58
          1341.40810	         1.47980e+58
          1342.21440	         1.18488e+58
          1343.02070	         1.24778e+58
          1343.82700	         1.34036e+58
          1344.63330	         1.20770e+58
          1345.43960	         1.19242e+58
          1346.24590	         1.16775e+58
          1347.05220	         1.20896e+58
          1347.85850	         9.99601e+57
          1348.66480	         1.09490e+58
          1349.47110	         1.31519e+58
          1350.27740	         1.28100e+58
          1351.08370	         1.18907e+58
          1351.89000	         1.18653e+58
          1352.69630	         1.20511e+58
          1353.50260	         1.14215e+58
          1354.30890	         1.20085e+58
          1355.11520	         1.20836e+58
          1355.92150	         1.14254e+58
          1356.72780	         1.02101e+58
          1357.53410	         8.66205e+57
          1358.34040	         9.56063e+57
          1359.14670	         1.00134e+58
          1359.95300	         1.05676e+58
          1360.75930	         1.16720e+58
          1361.56560	         1.11970e+58
          1362.37190	         1.14333e+58
          1363.17820	         1.06073e+58
          1363.98450	         1.08527e+58
          1364.79080	         1.22220e+58
          1365.59710	         1.27653e+58
          1366.40340	         1.20547e+58
          1367.20970	         1.15054e+58
          1368.01600	         9.51777e+57
          1368.82230	         1.10626e+58
          1369.62860	         1.10877e+58
          1370.43490	         9.32290e+57
          1371.24120	         9.33334e+57
          1372.04750	         7.49200e+57
          1372.85380	         1.04062e+58
          1373.66010	         1.10552e+58
          1374.46640	         1.06604e+58
          1375.27270	         1.23526e+58
          1376.07900	         1.02486e+58
          1376.88530	         8.95405e+57
          1377.69160	         9.76725e+57
          1378.49790	         8.40202e+57
          1379.30420	         7.76073e+57
          1380.11050	         8.52178e+57
          1380.91680	         8.37431e+57
          1381.72310	         8.23647e+57
          1382.52940	         7.88995e+57
          1383.33570	         8.96422e+57
          1384.14200	         9.96328e+57
          1384.94830	         9.93334e+57
          1385.75460	         1.05735e+58
          1386.56090	         1.09303e+58
          1387.36720	         9.84369e+57
          1388.17350	         1.22734e+58
          1388.97980	         1.12085e+58
          1389.78610	         1.00035e+58
          1390.59240	         9.12161e+57
          1391.39870	         8.89300e+57
          1392.20500	         8.82196e+57
          1393.01130	         9.12892e+57
          1393.81760	         7.64124e+57
          1394.62390	         7.05514e+57
          1395.43020	         6.72791e+57
          1396.23650	         5.75653e+57
          1397.04280	         6.67497e+57
          1397.84910	         8.83546e+57
          1398.65540	         9.96885e+57
          1399.46170	         1.11775e+58
          1400.26800	         7.88849e+57
          1401.07430	         7.12937e+57
          1401.88060	         8.14640e+57
          1402.68690	         9.08168e+57
          1403.49320	         9.91621e+57
          1404.29950	         9.38232e+57
          1405.10580	         1.07908e+58
          1405.91210	         1.23728e+58
          1406.71840	         1.23830e+58
          1407.52470	         1.11298e+58
          1408.33100	         1.05149e+58
          1409.13730	         1.20958e+58
          1409.94360	         1.24967e+58
          1410.74990	         1.11241e+58
          1411.55620	         9.64958e+57
          1412.36250	         8.23709e+57
          1413.16880	         7.81435e+57
          1413.97510	         7.36950e+57
          1414.78140	         7.33995e+57
          1415.58770	         1.08227e+58
          1416.39400	         1.13014e+58
          1417.20030	         9.98172e+57
          1418.00660	         9.23644e+57
          1418.81290	         1.05713e+58
          1419.61920	         1.05526e+58
          1420.42550	         1.25296e+58
          1421.23180	         1.31530e+58
          1422.03810	         1.21123e+58
          1422.84440	         1.22254e+58
          1423.65070	         1.38417e+58
          1424.45700	         1.23678e+58
          1425.26330	         8.50171e+57
          1426.06960	         9.17001e+57
          1426.87590	         1.05402e+58
          1427.68220	         9.83297e+57
          1428.48850	         1.08975e+58
          1429.29480	         1.07287e+58
          1430.10110	         1.13570e+58
          1430.90740	         9.25854e+57
          1431.71370	         8.09868e+57
          1432.52000	         8.97275e+57
          1433.32630	         7.97379e+57
          1434.13260	         7.84271e+57
          1434.93890	         8.41314e+57
          1435.74520	         9.31253e+57
          1436.55150	         1.01051e+58
          1437.35780	         9.06433e+57
          1438.16410	         8.53956e+57
          1438.97040	         8.40785e+57
          1439.77670	         8.64875e+57
          1440.58300	         8.92328e+57
          1441.38930	         9.84801e+57
          1442.19560	         1.05239e+58
          1443.00190	         1.02012e+58
          1443.80820	         1.13406e+58
          1444.61450	         1.00641e+58
          1445.42080	         8.15214e+57
          1446.22710	         9.83411e+57
          1447.03340	         1.10264e+58
          1447.83970	         1.06063e+58
          1448.64600	         1.03826e+58
          1449.45230	         1.04114e+58
          1450.25860	         1.03294e+58
          1451.06490	         8.96696e+57
          1451.87120	         8.23178e+57
          1452.67750	         8.13638e+57
          1453.48380	         9.11357e+57
          1454.29010	         8.23122e+57
          1455.09640	         7.36326e+57
          1455.90270	         1.03025e+58
          1456.70900	         9.05744e+57
          1457.51530	         9.06509e+57
          1458.32160	         1.15537e+58
          1459.12790	         1.19629e+58
          1459.93420	         9.89803e+57
          1460.74050	         6.58405e+57
          1461.54680	         7.33572e+57
          1462.35310	         8.16155e+57
          1463.15940	         9.71687e+57
          1463.96570	         1.12958e+58
          1464.77200	         1.22356e+58
          1465.57830	         9.86087e+57
          1466.38460	         8.94043e+57
          1467.19090	         8.96727e+57
          1467.99720	         8.73534e+57
          1468.80350	         9.35757e+57
          1469.60980	         8.93613e+57
          1470.41610	         9.69857e+57
          1471.22240	         8.98907e+57
          1472.02870	         9.48504e+57
          1472.83500	         9.79001e+57
          1473.64130	         9.89540e+57
          1474.44760	         1.01067e+58
          1475.25390	         9.93504e+57
          1476.06020	         8.96691e+57
          1476.86650	         8.76942e+57
          1477.67280	         9.20002e+57
          1478.47910	         7.64582e+57
          1479.28540	         7.33807e+57
          1480.09170	         8.38324e+57
          1480.89800	         8.83456e+57
          1481.70430	         8.90469e+57
          1482.51060	         8.96519e+57
          1483.31690	         8.43534e+57
          1484.12320	         8.07439e+57
          1484.92950	         7.81522e+57
          1485.73580	         8.04934e+57
          1486.54210	         8.72189e+57
          1487.34840	         8.14837e+57
          1488.15470	         8.44480e+57
          1488.96100	         8.56672e+57
          1489.76730	         8.97980e+57
