#sample_476_stacked_spectrum_rest_UV-bands_median_H-alpha_noDC.txt
#median Lum: 1.70805e+42
#Rest-frame wavelength (A) | Luminosity (erg/s/A)
#
          1110.00000	         0.00000e+00
          1110.80630	        -4.21367e+59
          1111.61260	        -1.04909e+59
          1112.41890	         1.22113e+59
          1113.22520	         2.47646e+59
          1114.03150	        -6.26454e+58
          1114.83780	        -3.63014e+58
          1115.64410	        -4.72600e+58
          1116.45040	         3.07591e+58
          1117.25670	         1.35453e+59
          1118.06300	         5.63192e+58
          1118.86930	        -4.15753e+58
          1119.67560	         6.65294e+58
          1120.48190	        -4.50183e+57
          1121.28820	        -1.38715e+59
          1122.09450	         9.57308e+58
          1122.90080	         7.05088e+58
          1123.70710	         3.17592e+58
          1124.51340	         1.16480e+59
          1125.31970	        -1.42728e+58
          1126.12600	        -3.71791e+58
          1126.93230	        -8.43300e+58
          1127.73860	        -5.89837e+58
          1128.54490	         5.79283e+57
          1129.35120	         3.04323e+58
          1130.15750	         1.19692e+58
          1130.96380	        -5.54017e+58
          1131.77010	         1.13772e+58
          1132.57640	         5.25724e+58
          1133.38270	         4.57596e+58
          1134.18900	         2.32795e+58
          1134.99530	         2.63700e+58
          1135.80160	         2.98343e+58
          1136.60790	         1.67818e+58
          1137.41420	        -1.23639e+58
          1138.22050	         3.44707e+58
          1139.02680	         9.37147e+57
          1139.83310	         4.63537e+57
          1140.63940	         1.90526e+58
          1141.44570	        -2.49487e+58
          1142.25200	        -6.41620e+57
          1143.05830	         1.82755e+58
          1143.86460	         4.95755e+58
          1144.67090	         3.47774e+58
          1145.47720	         1.07088e+58
          1146.28350	         1.67579e+58
          1147.08980	         2.31459e+58
          1147.89610	         3.34393e+58
          1148.70240	         3.55805e+58
          1149.50870	         2.21211e+58
          1150.31500	         9.86278e+57
          1151.12130	         1.44033e+58
          1151.92760	         6.30299e+56
          1152.73390	         6.16193e+57
          1153.54020	         1.29381e+58
          1154.34650	         2.38340e+58
          1155.15280	         2.13241e+58
          1155.95910	         1.04007e+58
          1156.76540	         7.44127e+57
          1157.57170	        -3.65992e+57
          1158.37800	        -8.30704e+57
          1159.18430	        -5.88357e+57
          1159.99060	         3.30383e+57
          1160.79690	         8.05977e+57
          1161.60320	         1.37114e+58
          1162.40950	         1.29246e+58
          1163.21580	         1.91549e+58
          1164.02210	         2.01953e+58
          1164.82840	         1.48960e+58
          1165.63470	         2.54686e+58
          1166.44100	         2.29229e+58
          1167.24730	         1.42356e+58
          1168.05360	         1.66262e+58
          1168.85990	         6.27572e+57
          1169.66620	         3.56672e+57
          1170.47250	         1.20410e+58
          1171.27880	         1.15250e+58
          1172.08510	         1.45872e+58
          1172.89140	         1.16219e+58
          1173.69770	         1.54247e+58
          1174.50400	         1.40459e+58
          1175.31030	         1.97060e+58
          1176.11660	         1.79637e+58
          1176.92290	         1.45159e+58
          1177.72920	         1.41468e+58
          1178.53550	         4.91271e+57
          1179.34180	         2.46375e+57
          1180.14810	         9.87080e+57
          1180.95440	         1.08163e+58
          1181.76070	         6.90799e+57
          1182.56700	         6.28709e+57
          1183.37330	         6.20345e+57
          1184.17960	         1.05676e+58
          1184.98590	         9.29659e+57
          1185.79220	         2.98034e+57
          1186.59850	         1.05869e+58
          1187.40480	         1.39334e+58
          1188.21110	         1.34869e+58
          1189.01740	         7.94351e+57
          1189.82370	         1.13157e+58
          1190.63000	         1.34117e+58
          1191.43630	         1.04495e+58
          1192.24260	         6.79640e+57
          1193.04890	         1.53335e+58
          1193.85520	         8.81595e+57
          1194.66150	         6.55375e+57
          1195.46780	         1.10605e+58
          1196.27410	         1.22690e+58
          1197.08040	         9.94134e+57
          1197.88670	         1.78676e+58
          1198.69300	         1.70860e+58
          1199.49930	         1.85282e+58
          1200.30560	         1.63690e+58
          1201.11190	         1.50862e+58
          1201.91820	         1.09935e+58
          1202.72450	         5.72509e+57
          1203.53080	         8.79899e+57
          1204.33710	         8.84797e+57
          1205.14340	         6.20607e+57
          1205.94970	         1.00203e+58
          1206.75600	         7.44855e+57
          1207.56230	         5.31002e+57
          1208.36860	         4.33250e+57
          1209.17490	         2.53500e+57
          1209.98120	         5.02947e+57
          1210.78750	         9.11704e+57
          1211.59380	         8.74342e+57
          1212.40010	         1.78201e+58
          1213.20640	         1.96956e+58
          1214.01270	         2.07686e+58
          1214.81900	         2.56874e+58
          1215.62530	         4.48167e+58
          1216.43160	         9.27728e+58
          1217.23790	         1.52598e+59
          1218.04420	         1.15469e+59
          1218.85050	         8.71901e+58
          1219.65680	         5.54546e+58
          1220.46310	         2.71333e+58
          1221.26940	         1.99688e+58
          1222.07570	         1.34502e+58
          1222.88200	         1.13288e+58
          1223.68830	         1.06561e+58
          1224.49460	         7.10014e+57
          1225.30090	         8.71063e+57
          1226.10720	         8.28675e+57
          1226.91350	         6.87630e+57
          1227.71980	         9.93266e+57
          1228.52610	         1.37650e+58
          1229.33240	         9.56377e+57
          1230.13870	         9.75830e+57
          1230.94500	         8.55443e+57
          1231.75130	         7.26761e+57
          1232.55760	         9.56714e+57
          1233.36390	         1.05042e+58
          1234.17020	         7.72807e+57
          1234.97650	         6.66035e+57
          1235.78280	         5.12789e+57
          1236.58910	         9.12909e+57
          1237.39540	         1.10594e+58
          1238.20170	         1.04500e+58
          1239.00800	         1.41860e+58
          1239.81430	         1.60595e+58
          1240.62060	         1.11561e+58
          1241.42690	         1.12557e+58
          1242.23320	         1.21427e+58
          1243.03950	         9.95370e+57
          1243.84580	         9.97636e+57
          1244.65210	         1.06331e+58
          1245.45840	         7.11230e+57
          1246.26470	         9.68687e+57
          1247.07100	         1.15815e+58
          1247.87730	         6.92602e+57
          1248.68360	         6.46621e+57
          1249.48990	         8.79764e+57
          1250.29620	         9.93680e+57
          1251.10250	         7.36943e+57
          1251.90880	         4.14227e+57
          1252.71510	         6.47965e+57
          1253.52140	         6.95305e+57
          1254.32770	         9.31320e+57
          1255.13400	         1.44561e+58
          1255.94030	         1.43345e+58
          1256.74660	         9.99548e+57
          1257.55290	         1.01585e+58
          1258.35920	         8.46913e+57
          1259.16550	         6.43781e+57
          1259.97180	         5.63750e+57
          1260.77810	         1.04878e+58
          1261.58440	         1.17154e+58
          1262.39070	         8.26051e+57
          1263.19700	         9.31603e+57
          1264.00330	         9.12373e+57
          1264.80960	         9.22240e+57
          1265.61590	         1.09425e+58
          1266.42220	         1.05646e+58
          1267.22850	         9.81669e+57
          1268.03480	         1.42192e+58
          1268.84110	         1.54504e+58
          1269.64740	         1.22975e+58
          1270.45370	         1.08669e+58
          1271.26000	         9.69948e+57
          1272.06630	         8.78695e+57
          1272.87260	         9.94174e+57
          1273.67890	         1.09007e+58
          1274.48520	         1.02803e+58
          1275.29150	         1.12180e+58
          1276.09780	         1.31629e+58
          1276.90410	         1.57776e+58
          1277.71040	         1.39587e+58
          1278.51670	         1.23314e+58
          1279.32300	         1.25674e+58
          1280.12930	         1.39530e+58
          1280.93560	         1.18499e+58
          1281.74190	         1.35482e+58
          1282.54820	         1.38822e+58
          1283.35450	         8.75898e+57
          1284.16080	         7.52551e+57
          1284.96710	         1.01581e+58
          1285.77340	         1.09322e+58
          1286.57970	         1.12126e+58
          1287.38600	         1.38650e+58
          1288.19230	         1.70200e+58
          1288.99860	         1.55414e+58
          1289.80490	         1.22464e+58
          1290.61120	         1.27992e+58
          1291.41750	         1.52063e+58
          1292.22380	         1.13170e+58
          1293.03010	         1.02001e+58
          1293.83640	         1.14722e+58
          1294.64270	         1.18814e+58
          1295.44900	         7.08480e+57
          1296.25530	         6.14826e+57
          1297.06160	         1.00720e+58
          1297.86790	         9.10027e+57
          1298.67420	         1.00610e+58
          1299.48050	         1.00325e+58
          1300.28680	         9.62462e+57
          1301.09310	         8.13224e+57
          1301.89940	         4.44103e+57
          1302.70570	         6.67155e+57
          1303.51200	         7.31768e+57
          1304.31830	         8.81213e+57
          1305.12460	         9.54129e+57
          1305.93090	         1.13329e+58
          1306.73720	         1.17543e+58
          1307.54350	         1.18479e+58
          1308.34980	         1.49142e+58
          1309.15610	         1.62973e+58
          1309.96240	         1.45003e+58
          1310.76870	         1.50388e+58
          1311.57500	         1.39669e+58
          1312.38130	         9.85514e+57
          1313.18760	         1.36132e+58
          1313.99390	         1.75854e+58
          1314.80020	         1.73628e+58
          1315.60650	         1.63389e+58
          1316.41280	         1.27575e+58
          1317.21910	         1.19877e+58
          1318.02540	         1.26059e+58
          1318.83170	         1.33407e+58
          1319.63800	         1.18538e+58
          1320.44430	         1.09131e+58
          1321.25060	         1.25177e+58
          1322.05690	         1.27832e+58
          1322.86320	         1.24516e+58
          1323.66950	         1.17337e+58
          1324.47580	         9.23744e+57
          1325.28210	         9.00922e+57
          1326.08840	         1.01997e+58
          1326.89470	         1.18886e+58
          1327.70100	         8.96980e+57
          1328.50730	         7.88547e+57
          1329.31360	         8.91985e+57
          1330.11990	         9.09337e+57
          1330.92620	         8.77314e+57
          1331.73250	         1.03403e+58
          1332.53880	         9.73738e+57
          1333.34510	         8.70725e+57
          1334.15140	         9.04695e+57
          1334.95770	         8.71852e+57
          1335.76400	         1.03154e+58
          1336.57030	         1.13694e+58
          1337.37660	         1.05810e+58
          1338.18290	         9.27702e+57
          1338.98920	         9.48058e+57
          1339.79550	         8.74866e+57
          1340.60180	         1.00491e+58
          1341.40810	         1.33807e+58
          1342.21440	         1.18926e+58
          1343.02070	         1.18420e+58
          1343.82700	         1.39713e+58
          1344.63330	         1.27663e+58
          1345.43960	         1.22058e+58
          1346.24590	         1.22865e+58
          1347.05220	         1.22931e+58
          1347.85850	         1.09892e+58
          1348.66480	         1.10210e+58
          1349.47110	         1.14888e+58
          1350.27740	         1.17254e+58
          1351.08370	         1.19729e+58
          1351.89000	         1.23429e+58
          1352.69630	         1.03981e+58
          1353.50260	         1.16398e+58
          1354.30890	         1.20801e+58
          1355.11520	         1.21997e+58
          1355.92150	         1.20325e+58
          1356.72780	         1.04781e+58
          1357.53410	         1.04420e+58
          1358.34040	         1.11407e+58
          1359.14670	         1.00499e+58
          1359.95300	         1.01692e+58
          1360.75930	         1.10772e+58
          1361.56560	         1.05077e+58
          1362.37190	         1.20410e+58
          1363.17820	         1.19489e+58
          1363.98450	         1.07128e+58
          1364.79080	         1.24451e+58
          1365.59710	         1.29244e+58
          1366.40340	         1.16329e+58
          1367.20970	         1.14113e+58
          1368.01600	         1.00547e+58
          1368.82230	         9.59780e+57
          1369.62860	         1.07234e+58
          1370.43490	         9.66009e+57
          1371.24120	         9.76972e+57
          1372.04750	         9.50196e+57
          1372.85380	         1.12395e+58
          1373.66010	         1.17394e+58
          1374.46640	         1.06286e+58
          1375.27270	         1.00415e+58
          1376.07900	         8.28349e+57
          1376.88530	         8.88020e+57
          1377.69160	         9.00408e+57
          1378.49790	         7.85469e+57
          1379.30420	         8.46349e+57
          1380.11050	         9.68458e+57
          1380.91680	         8.43492e+57
          1381.72310	         6.60792e+57
          1382.52940	         7.30195e+57
          1383.33570	         7.43353e+57
          1384.14200	         9.44748e+57
          1384.94830	         1.00204e+58
          1385.75460	         1.06599e+58
          1386.56090	         1.04365e+58
          1387.36720	         9.29336e+57
          1388.17350	         1.14647e+58
          1388.97980	         1.09850e+58
          1389.78610	         8.80656e+57
          1390.59240	         7.24495e+57
          1391.39870	         6.78410e+57
          1392.20500	         8.24861e+57
          1393.01130	         8.04356e+57
          1393.81760	         7.10712e+57
          1394.62390	         7.75177e+57
          1395.43020	         7.76512e+57
          1396.23650	         7.77113e+57
          1397.04280	         7.44616e+57
          1397.84910	         9.23573e+57
          1398.65540	         9.43463e+57
          1399.46170	         9.75060e+57
          1400.26800	         8.32272e+57
          1401.07430	         7.48902e+57
          1401.88060	         7.49005e+57
          1402.68690	         9.66168e+57
          1403.49320	         9.68375e+57
          1404.29950	         8.69894e+57
          1405.10580	         9.87736e+57
          1405.91210	         1.15982e+58
          1406.71840	         1.18421e+58
          1407.52470	         1.09742e+58
          1408.33100	         1.13511e+58
          1409.13730	         1.18687e+58
          1409.94360	         1.12936e+58
          1410.74990	         1.07720e+58
          1411.55620	         9.84290e+57
          1412.36250	         9.35989e+57
          1413.16880	         9.34105e+57
          1413.97510	         8.96510e+57
          1414.78140	         8.49937e+57
          1415.58770	         1.06625e+58
          1416.39400	         1.23939e+58
          1417.20030	         1.21458e+58
          1418.00660	         1.04788e+58
          1418.81290	         1.10533e+58
          1419.61920	         1.11046e+58
          1420.42550	         1.21188e+58
          1421.23180	         1.29265e+58
          1422.03810	         1.23657e+58
          1422.84440	         1.00140e+58
          1423.65070	         1.16941e+58
          1424.45700	         1.08827e+58
          1425.26330	         7.95897e+57
          1426.06960	         8.06667e+57
          1426.87590	         1.06246e+58
          1427.68220	         1.08878e+58
          1428.48850	         1.08466e+58
          1429.29480	         9.84873e+57
          1430.10110	         9.32409e+57
          1430.90740	         8.72760e+57
          1431.71370	         8.93398e+57
          1432.52000	         8.46990e+57
          1433.32630	         7.70209e+57
          1434.13260	         8.30435e+57
          1434.93890	         8.73050e+57
          1435.74520	         9.87670e+57
          1436.55150	         1.01442e+58
          1437.35780	         8.91539e+57
          1438.16410	         8.13820e+57
          1438.97040	         8.41034e+57
          1439.77670	         8.93497e+57
          1440.58300	         9.08926e+57
          1441.38930	         8.91025e+57
          1442.19560	         9.20243e+57
          1443.00190	         9.37607e+57
          1443.80820	         1.12375e+58
          1444.61450	         1.12089e+58
          1445.42080	         9.12059e+57
          1446.22710	         1.04755e+58
          1447.03340	         1.00247e+58
          1447.83970	         1.00236e+58
          1448.64600	         1.09084e+58
          1449.45230	         1.09749e+58
          1450.25860	         1.03177e+58
          1451.06490	         9.35711e+57
          1451.87120	         9.69332e+57
          1452.67750	         7.83830e+57
          1453.48380	         8.11210e+57
          1454.29010	         8.27661e+57
          1455.09640	         7.70148e+57
          1455.90270	         7.82943e+57
          1456.70900	         9.01353e+57
          1457.51530	         1.07599e+58
          1458.32160	         1.11664e+58
          1459.12790	         1.23336e+58
          1459.93420	         1.05172e+58
          1460.74050	         7.42015e+57
          1461.54680	         8.89163e+57
          1462.35310	         8.77873e+57
          1463.15940	         8.90649e+57
          1463.96570	         9.58411e+57
          1464.77200	         1.10430e+58
          1465.57830	         1.02066e+58
          1466.38460	         9.61850e+57
          1467.19090	         8.96572e+57
          1467.99720	         8.03968e+57
          1468.80350	         9.03254e+57
          1469.60980	         9.90901e+57
          1470.41610	         1.00515e+58
          1471.22240	         1.03126e+58
          1472.02870	         1.02542e+58
          1472.83500	         1.03572e+58
          1473.64130	         1.04766e+58
          1474.44760	         1.02316e+58
          1475.25390	         9.25544e+57
          1476.06020	         8.58579e+57
          1476.86650	         7.37251e+57
          1477.67280	         8.39961e+57
          1478.47910	         7.59689e+57
          1479.28540	         6.98996e+57
          1480.09170	         8.20254e+57
          1480.89800	         9.24509e+57
          1481.70430	         9.93854e+57
          1482.51060	         8.34349e+57
          1483.31690	         6.81365e+57
          1484.12320	         7.13599e+57
          1484.92950	         7.38816e+57
          1485.73580	         7.66968e+57
          1486.54210	         8.80331e+57
          1487.34840	         8.92409e+57
          1488.15470	         7.60812e+57
          1488.96100	         7.72084e+57
          1489.76730	         9.02604e+57
