#sample_339_stacked_spectrum_rest_UV-bands_median_H-alpha_noDC.txt
#median Lum: 1.68086e+42
#Rest-frame wavelength (A) | Luminosity (erg/s/A)
#
          1110.00000	         0.00000e+00
          1110.80630	        -7.23507e+57
          1111.61260	         4.78737e+59
          1112.41890	         1.27060e+59
          1113.22520	         7.43041e+57
          1114.03150	        -6.32569e+58
          1114.83780	         1.92503e+59
          1115.64410	        -3.59264e+58
          1116.45040	         1.92756e+59
          1117.25670	         8.28147e+58
          1118.06300	         2.06887e+58
          1118.86930	        -2.01684e+58
          1119.67560	         1.33282e+59
          1120.48190	         5.56839e+58
          1121.28820	        -1.45426e+59
          1122.09450	        -4.74576e+58
          1122.90080	        -5.67076e+58
          1123.70710	         5.30387e+57
          1124.51340	         1.19743e+59
          1125.31970	         6.23021e+58
          1126.12600	         3.32278e+58
          1126.93230	        -3.28034e+58
          1127.73860	        -4.23322e+58
          1128.54490	        -3.36889e+57
          1129.35120	        -4.32353e+57
          1130.15750	        -2.17770e+58
          1130.96380	         2.51561e+58
          1131.77010	         9.12993e+58
          1132.57640	         5.60249e+58
          1133.38270	         1.05635e+58
          1134.18900	         3.73803e+58
          1134.99530	         3.63199e+58
          1135.80160	         4.76187e+58
          1136.60790	         1.54625e+58
          1137.41420	         5.59354e+57
          1138.22050	         4.25037e+58
          1139.02680	         6.98862e+57
          1139.83310	        -1.36718e+56
          1140.63940	         2.72355e+58
          1141.44570	         9.94419e+57
          1142.25200	         3.21894e+58
          1143.05830	         2.96589e+58
          1143.86460	         3.35801e+58
          1144.67090	         2.60780e+58
          1145.47720	         2.53968e+58
          1146.28350	         2.21392e+58
          1147.08980	         1.55236e+58
          1147.89610	         1.29055e+58
          1148.70240	         3.19599e+58
          1149.50870	         3.77460e+58
          1150.31500	         1.27463e+58
          1151.12130	         4.45239e+57
          1151.92760	         7.28948e+57
          1152.73390	         7.97910e+57
          1153.54020	         1.07971e+58
          1154.34650	         2.86218e+58
          1155.15280	         2.49006e+58
          1155.95910	         4.18516e+57
          1156.76540	         7.52522e+57
          1157.57170	         1.61730e+57
          1158.37800	         4.07212e+57
          1159.18430	         3.57736e+57
          1159.99060	         1.66836e+57
          1160.79690	         4.12600e+57
          1161.60320	         1.36199e+58
          1162.40950	         1.13624e+58
          1163.21580	         7.85504e+57
          1164.02210	         1.57344e+58
          1164.82840	         1.51207e+58
          1165.63470	         1.83410e+58
          1166.44100	         2.99074e+58
          1167.24730	         2.42799e+58
          1168.05360	         2.73655e+57
          1168.85990	         4.65332e+57
          1169.66620	         1.06813e+58
          1170.47250	         1.39435e+58
          1171.27880	         9.24778e+57
          1172.08510	         1.24523e+58
          1172.89140	         1.07078e+58
          1173.69770	         7.19449e+57
          1174.50400	         8.67013e+57
          1175.31030	         2.06563e+58
          1176.11660	         2.11671e+58
          1176.92290	         1.67839e+58
          1177.72920	         1.07706e+58
          1178.53550	         5.18483e+57
          1179.34180	        -7.68051e+56
          1180.14810	         6.74444e+57
          1180.95440	         1.03635e+58
          1181.76070	         6.97680e+57
          1182.56700	         4.74426e+57
          1183.37330	         4.81907e+57
          1184.17960	         1.07088e+58
          1184.98590	         1.21572e+58
          1185.79220	         8.41132e+57
          1186.59850	         7.59923e+57
          1187.40480	         1.19070e+58
          1188.21110	         1.68730e+58
          1189.01740	         6.18822e+57
          1189.82370	         4.21736e+57
          1190.63000	         7.93991e+57
          1191.43630	         9.63755e+57
          1192.24260	         7.63774e+57
          1193.04890	         9.96451e+57
          1193.85520	         8.24500e+57
          1194.66150	         9.46345e+57
          1195.46780	         1.61008e+58
          1196.27410	         1.54897e+58
          1197.08040	         1.21856e+58
          1197.88670	         1.41295e+58
          1198.69300	         1.41385e+58
          1199.49930	         1.37254e+58
          1200.30560	         1.05658e+58
          1201.11190	         8.88044e+57
          1201.91820	         7.41955e+57
          1202.72450	         6.32469e+57
          1203.53080	         1.36894e+58
          1204.33710	         1.29191e+58
          1205.14340	         1.00481e+58
          1205.94970	         8.91905e+57
          1206.75600	         5.87944e+57
          1207.56230	         7.36652e+57
          1208.36860	         9.82449e+57
          1209.17490	         7.11992e+57
          1209.98120	         7.75069e+57
          1210.78750	         9.16292e+57
          1211.59380	         1.23472e+58
          1212.40010	         1.71098e+58
          1213.20640	         2.15874e+58
          1214.01270	         2.10162e+58
          1214.81900	         2.67245e+58
          1215.62530	         4.59031e+58
          1216.43160	         8.96421e+58
          1217.23790	         1.53341e+59
          1218.04420	         1.13006e+59
          1218.85050	         8.71406e+58
          1219.65680	         5.92214e+58
          1220.46310	         3.20060e+58
          1221.26940	         2.16895e+58
          1222.07570	         1.53223e+58
          1222.88200	         1.32227e+58
          1223.68830	         1.04337e+58
          1224.49460	         7.18187e+57
          1225.30090	         8.59672e+57
          1226.10720	         7.22283e+57
          1226.91350	         9.60989e+57
          1227.71980	         8.20426e+57
          1228.52610	         1.18013e+58
          1229.33240	         1.11182e+58
          1230.13870	         8.77311e+57
          1230.94500	         8.70835e+57
          1231.75130	         5.89617e+57
          1232.55760	         7.21588e+57
          1233.36390	         7.29304e+57
          1234.17020	         9.20773e+57
          1234.97650	         8.15978e+57
          1235.78280	         7.51771e+57
          1236.58910	         8.81205e+57
          1237.39540	         9.78992e+57
          1238.20170	         8.86715e+57
          1239.00800	         1.02496e+58
          1239.81430	         1.17364e+58
          1240.62060	         7.77526e+57
          1241.42690	         9.73744e+57
          1242.23320	         1.22799e+58
          1243.03950	         1.00928e+58
          1243.84580	         9.80820e+57
          1244.65210	         1.02717e+58
          1245.45840	         1.05808e+58
          1246.26470	         8.93526e+57
          1247.07100	         7.54113e+57
          1247.87730	         5.28258e+57
          1248.68360	         5.45092e+57
          1249.48990	         1.06307e+58
          1250.29620	         1.03431e+58
          1251.10250	         7.40723e+57
          1251.90880	         4.74130e+57
          1252.71510	         4.67592e+57
          1253.52140	         6.08466e+57
          1254.32770	         9.22856e+57
          1255.13400	         1.34559e+58
          1255.94030	         1.13626e+58
          1256.74660	         8.44258e+57
          1257.55290	         8.84600e+57
          1258.35920	         7.56340e+57
          1259.16550	         6.11457e+57
          1259.97180	         5.57516e+57
          1260.77810	         8.32676e+57
          1261.58440	         1.21696e+58
          1262.39070	         1.04347e+58
          1263.19700	         1.03519e+58
          1264.00330	         1.02025e+58
          1264.80960	         1.00105e+58
          1265.61590	         1.21584e+58
          1266.42220	         1.11807e+58
          1267.22850	         8.75395e+57
          1268.03480	         1.16780e+58
          1268.84110	         1.29311e+58
          1269.64740	         1.15958e+58
          1270.45370	         1.25630e+58
          1271.26000	         1.07839e+58
          1272.06630	         1.04061e+58
          1272.87260	         1.09449e+58
          1273.67890	         1.09398e+58
          1274.48520	         1.15860e+58
          1275.29150	         1.41606e+58
          1276.09780	         1.40811e+58
          1276.90410	         1.40495e+58
          1277.71040	         1.21615e+58
          1278.51670	         1.18738e+58
          1279.32300	         1.44179e+58
          1280.12930	         1.32497e+58
          1280.93560	         1.01745e+58
          1281.74190	         1.06879e+58
          1282.54820	         1.14526e+58
          1283.35450	         1.03037e+58
          1284.16080	         1.20383e+58
          1284.96710	         1.49344e+58
          1285.77340	         1.35118e+58
          1286.57970	         1.25917e+58
          1287.38600	         1.51551e+58
          1288.19230	         1.62204e+58
          1288.99860	         1.41243e+58
          1289.80490	         1.02659e+58
          1290.61120	         1.11251e+58
          1291.41750	         1.25536e+58
          1292.22380	         1.11588e+58
          1293.03010	         9.64766e+57
          1293.83640	         1.15090e+58
          1294.64270	         1.20802e+58
          1295.44900	         6.96545e+57
          1296.25530	         7.42766e+57
          1297.06160	         9.88911e+57
          1297.86790	         1.00163e+58
          1298.67420	         8.95187e+57
          1299.48050	         9.29740e+57
          1300.28680	         1.00298e+58
          1301.09310	         6.88027e+57
          1301.89940	         3.37051e+57
          1302.70570	         5.96940e+57
          1303.51200	         6.61678e+57
          1304.31830	         8.97482e+57
          1305.12460	         9.98859e+57
          1305.93090	         1.08580e+58
          1306.73720	         1.23580e+58
          1307.54350	         1.41557e+58
          1308.34980	         1.41929e+58
          1309.15610	         1.40734e+58
          1309.96240	         1.37930e+58
          1310.76870	         1.27699e+58
          1311.57500	         1.04082e+58
          1312.38130	         9.77819e+57
          1313.18760	         1.17972e+58
          1313.99390	         1.32003e+58
          1314.80020	         1.75912e+58
          1315.60650	         1.69758e+58
          1316.41280	         1.23744e+58
          1317.21910	         1.00113e+58
          1318.02540	         1.19744e+58
          1318.83170	         1.11647e+58
          1319.63800	         1.16750e+58
          1320.44430	         1.14788e+58
          1321.25060	         1.23894e+58
          1322.05690	         1.32735e+58
          1322.86320	         1.19124e+58
          1323.66950	         1.07385e+58
          1324.47580	         7.81496e+57
          1325.28210	         9.09387e+57
          1326.08840	         1.07448e+58
          1326.89470	         1.17435e+58
          1327.70100	         1.04800e+58
          1328.50730	         8.48915e+57
          1329.31360	         1.01806e+58
          1330.11990	         1.04143e+58
          1330.92620	         8.76301e+57
          1331.73250	         1.07358e+58
          1332.53880	         1.14232e+58
          1333.34510	         9.19766e+57
          1334.15140	         8.26387e+57
          1334.95770	         9.35608e+57
          1335.76400	         1.09326e+58
          1336.57030	         1.08035e+58
          1337.37660	         1.14375e+58
          1338.18290	         1.23287e+58
          1338.98920	         1.24784e+58
          1339.79550	         1.20210e+58
          1340.60180	         1.19906e+58
          1341.40810	         1.40575e+58
          1342.21440	         1.37932e+58
          1343.02070	         1.31433e+58
          1343.82700	         1.27761e+58
          1344.63330	         1.31203e+58
          1345.43960	         1.38940e+58
          1346.24590	         1.15711e+58
          1347.05220	         1.13844e+58
          1347.85850	         1.06679e+58
          1348.66480	         1.23026e+58
          1349.47110	         1.36775e+58
          1350.27740	         1.11347e+58
          1351.08370	         1.15837e+58
          1351.89000	         1.14733e+58
          1352.69630	         1.19664e+58
          1353.50260	         1.20124e+58
          1354.30890	         1.30486e+58
          1355.11520	         1.31851e+58
          1355.92150	         1.08240e+58
          1356.72780	         9.75751e+57
          1357.53410	         1.10403e+58
          1358.34040	         1.20026e+58
          1359.14670	         1.05563e+58
          1359.95300	         1.08088e+58
          1360.75930	         1.11231e+58
          1361.56560	         1.04505e+58
          1362.37190	         1.07700e+58
          1363.17820	         1.07559e+58
          1363.98450	         1.11124e+58
          1364.79080	         1.18707e+58
          1365.59710	         1.22548e+58
          1366.40340	         1.22107e+58
          1367.20970	         1.03350e+58
          1368.01600	         9.15034e+57
          1368.82230	         1.11522e+58
          1369.62860	         1.07876e+58
          1370.43490	         8.67632e+57
          1371.24120	         9.53170e+57
          1372.04750	         8.48910e+57
          1372.85380	         9.78207e+57
          1373.66010	         1.07591e+58
          1374.46640	         1.06606e+58
          1375.27270	         9.75284e+57
          1376.07900	         9.13481e+57
          1376.88530	         9.27406e+57
          1377.69160	         8.61986e+57
          1378.49790	         7.94076e+57
          1379.30420	         8.60283e+57
          1380.11050	         9.22801e+57
          1380.91680	         8.67438e+57
          1381.72310	         7.87613e+57
          1382.52940	         8.19598e+57
          1383.33570	         8.49598e+57
          1384.14200	         9.73837e+57
          1384.94830	         1.00623e+58
          1385.75460	         9.73202e+57
          1386.56090	         1.05002e+58
          1387.36720	         9.91759e+57
          1388.17350	         1.21690e+58
          1388.97980	         1.16790e+58
          1389.78610	         8.44010e+57
          1390.59240	         6.75996e+57
          1391.39870	         6.54222e+57
          1392.20500	         7.88272e+57
          1393.01130	         8.59493e+57
          1393.81760	         7.55933e+57
          1394.62390	         8.32053e+57
          1395.43020	         6.97820e+57
          1396.23650	         6.90754e+57
          1397.04280	         8.42004e+57
          1397.84910	         8.88326e+57
          1398.65540	         9.07780e+57
          1399.46170	         1.06862e+58
          1400.26800	         8.71481e+57
          1401.07430	         8.15198e+57
          1401.88060	         9.16900e+57
          1402.68690	         9.30476e+57
          1403.49320	         8.74433e+57
          1404.29950	         9.46757e+57
          1405.10580	         1.03667e+58
          1405.91210	         9.56152e+57
          1406.71840	         1.06378e+58
          1407.52470	         1.13492e+58
          1408.33100	         1.09207e+58
          1409.13730	         1.07658e+58
          1409.94360	         1.06043e+58
          1410.74990	         1.02322e+58
          1411.55620	         1.01049e+58
          1412.36250	         9.61303e+57
          1413.16880	         9.29057e+57
          1413.97510	         8.75518e+57
          1414.78140	         8.30527e+57
          1415.58770	         9.96569e+57
          1416.39400	         1.13332e+58
          1417.20030	         1.18228e+58
          1418.00660	         9.89047e+57
          1418.81290	         9.00612e+57
          1419.61920	         1.07773e+58
          1420.42550	         1.20209e+58
          1421.23180	         1.22952e+58
          1422.03810	         1.25305e+58
          1422.84440	         1.19114e+58
          1423.65070	         1.28932e+58
          1424.45700	         1.15282e+58
          1425.26330	         9.22704e+57
          1426.06960	         9.56643e+57
          1426.87590	         9.62062e+57
          1427.68220	         8.97627e+57
          1428.48850	         1.00691e+58
          1429.29480	         1.06730e+58
          1430.10110	         9.92903e+57
          1430.90740	         7.46460e+57
          1431.71370	         7.32944e+57
          1432.52000	         7.76100e+57
          1433.32630	         7.51406e+57
          1434.13260	         7.91886e+57
          1434.93890	         7.70205e+57
          1435.74520	         9.03453e+57
          1436.55150	         9.74926e+57
          1437.35780	         9.69656e+57
          1438.16410	         9.81662e+57
          1438.97040	         8.18756e+57
          1439.77670	         8.23390e+57
          1440.58300	         9.76145e+57
          1441.38930	         9.42217e+57
          1442.19560	         9.57608e+57
          1443.00190	         9.72947e+57
          1443.80820	         1.04496e+58
          1444.61450	         9.45385e+57
          1445.42080	         7.56433e+57
          1446.22710	         9.47555e+57
          1447.03340	         1.07711e+58
          1447.83970	         1.03959e+58
          1448.64600	         9.48540e+57
          1449.45230	         9.59885e+57
          1450.25860	         1.00900e+58
          1451.06490	         9.17842e+57
          1451.87120	         7.96979e+57
          1452.67750	         7.23672e+57
          1453.48380	         9.09952e+57
          1454.29010	         8.88383e+57
          1455.09640	         8.21975e+57
          1455.90270	         8.47486e+57
          1456.70900	         8.63104e+57
          1457.51530	         1.00638e+58
          1458.32160	         1.33256e+58
          1459.12790	         1.21081e+58
          1459.93420	         9.39154e+57
          1460.74050	         7.10007e+57
          1461.54680	         6.80047e+57
          1462.35310	         7.53609e+57
          1463.15940	         8.31833e+57
          1463.96570	         9.88389e+57
          1464.77200	         1.11810e+58
          1465.57830	         1.11867e+58
          1466.38460	         9.46714e+57
          1467.19090	         8.71898e+57
          1467.99720	         7.09529e+57
          1468.80350	         8.81417e+57
          1469.60980	         9.66354e+57
          1470.41610	         1.04466e+58
          1471.22240	         9.81183e+57
          1472.02870	         1.08292e+58
          1472.83500	         1.09940e+58
          1473.64130	         1.02852e+58
          1474.44760	         9.52988e+57
          1475.25390	         8.67837e+57
          1476.06020	         8.93663e+57
          1476.86650	         8.84166e+57
          1477.67280	         8.11853e+57
          1478.47910	         6.83334e+57
          1479.28540	         6.41210e+57
          1480.09170	         7.92394e+57
          1480.89800	         8.69616e+57
          1481.70430	         8.67263e+57
          1482.51060	         7.07428e+57
          1483.31690	         7.92932e+57
          1484.12320	         7.93084e+57
          1484.92950	         7.69577e+57
          1485.73580	         8.69504e+57
          1486.54210	         8.79374e+57
          1487.34840	         8.28204e+57
          1488.15470	         8.86503e+57
          1488.96100	         8.91613e+57
          1489.76730	         8.04593e+57
