#sample_156_stacked_spectrum_rest_UV-bands_median_H-alpha_noDC.txt
#median Lum: 1.72400e+42
#Rest-frame wavelength (A) | Luminosity (erg/s/A)
#
          1110.00000	         0.00000e+00
          1110.80630	         2.87779e+58
          1111.61260	         8.62894e+58
          1112.41890	         3.51265e+59
          1113.22520	        -3.84777e+58
          1114.03150	        -7.53246e+58
          1114.83780	         3.72012e+59
          1115.64410	         1.51353e+59
          1116.45040	         1.54752e+59
          1117.25670	         1.02768e+59
          1118.06300	         3.87486e+58
          1118.86930	         1.02419e+59
          1119.67560	         7.09239e+58
          1120.48190	        -2.38219e+58
          1121.28820	        -1.50224e+59
          1122.09450	        -7.76999e+58
          1122.90080	         2.86728e+58
          1123.70710	         3.74013e+58
          1124.51340	         1.04572e+59
          1125.31970	        -1.61093e+58
          1126.12600	         3.30462e+58
          1126.93230	        -2.54746e+58
          1127.73860	        -3.91308e+58
          1128.54490	        -5.02310e+57
          1129.35120	         1.57482e+58
          1130.15750	        -3.66296e+58
          1130.96380	        -4.08618e+58
          1131.77010	         2.64205e+58
          1132.57640	         6.42208e+58
          1133.38270	         4.90410e+58
          1134.18900	         3.34155e+57
          1134.99530	         2.37036e+58
          1135.80160	         4.54745e+57
          1136.60790	         2.87973e+58
          1137.41420	         1.54533e+58
          1138.22050	         2.17761e+58
          1139.02680	         2.04813e+58
          1139.83310	         3.39058e+58
          1140.63940	         1.34890e+58
          1141.44570	        -6.11428e+57
          1142.25200	         6.78269e+55
          1143.05830	         2.23188e+58
          1143.86460	         1.34586e+58
          1144.67090	         2.67833e+58
          1145.47720	         3.08117e+58
          1146.28350	         1.44498e+58
          1147.08980	         2.17240e+58
          1147.89610	         2.24694e+58
          1148.70240	         2.99160e+58
          1149.50870	         2.95511e+58
          1150.31500	         9.61713e+57
          1151.12130	         8.38651e+57
          1151.92760	         1.00830e+58
          1152.73390	         4.93341e+57
          1153.54020	        -5.68896e+57
          1154.34650	         1.66821e+58
          1155.15280	         1.65911e+58
          1155.95910	         1.35848e+58
          1156.76540	         1.70932e+58
          1157.57170	        -6.72009e+57
          1158.37800	         9.93970e+55
          1159.18430	        -1.18223e+57
          1159.99060	         5.54446e+57
          1160.79690	         6.60942e+57
          1161.60320	         1.13794e+58
          1162.40950	         1.87686e+58
          1163.21580	         2.98859e+58
          1164.02210	         4.35220e+57
          1164.82840	         1.48046e+58
          1165.63470	         2.27655e+58
          1166.44100	         1.91934e+58
          1167.24730	         1.19686e+58
          1168.05360	         7.69431e+57
          1168.85990	         7.25229e+57
          1169.66620	         7.94252e+57
          1170.47250	         1.46120e+58
          1171.27880	         9.44670e+57
          1172.08510	         1.30897e+58
          1172.89140	         1.56811e+58
          1173.69770	         1.42734e+57
          1174.50400	         8.67709e+57
          1175.31030	         1.41311e+58
          1176.11660	         1.77492e+58
          1176.92290	         1.57484e+58
          1177.72920	         1.18501e+58
          1178.53550	         5.96224e+57
          1179.34180	         4.52289e+57
          1180.14810	         7.07128e+57
          1180.95440	         1.15250e+58
          1181.76070	         9.05239e+57
          1182.56700	         1.07269e+58
          1183.37330	         6.24245e+57
          1184.17960	         7.96923e+57
          1184.98590	         9.54908e+57
          1185.79220	         9.13887e+57
          1186.59850	         1.38841e+58
          1187.40480	         1.39030e+58
          1188.21110	         1.51550e+58
          1189.01740	         1.79230e+58
          1189.82370	         1.25333e+58
          1190.63000	         9.20006e+57
          1191.43630	         1.08513e+58
          1192.24260	         8.51652e+57
          1193.04890	         1.25721e+58
          1193.85520	         1.01733e+58
          1194.66150	         3.13699e+57
          1195.46780	         7.06251e+57
          1196.27410	         9.70754e+57
          1197.08040	         9.19291e+57
          1197.88670	         1.25140e+58
          1198.69300	         1.50905e+58
          1199.49930	         1.45068e+58
          1200.30560	         1.10768e+58
          1201.11190	         1.21380e+58
          1201.91820	         1.37057e+58
          1202.72450	         1.12777e+58
          1203.53080	         1.34151e+58
          1204.33710	         9.32555e+57
          1205.14340	         1.05444e+58
          1205.94970	         8.42328e+57
          1206.75600	         5.50700e+57
          1207.56230	         5.41086e+57
          1208.36860	         1.11298e+58
          1209.17490	         5.46913e+57
          1209.98120	         6.57593e+57
          1210.78750	         1.05860e+58
          1211.59380	         1.39040e+58
          1212.40010	         1.67553e+58
          1213.20640	         2.04864e+58
          1214.01270	         2.13521e+58
          1214.81900	         2.45013e+58
          1215.62530	         4.43477e+58
          1216.43160	         9.05671e+58
          1217.23790	         1.49246e+59
          1218.04420	         1.16691e+59
          1218.85050	         8.74820e+58
          1219.65680	         5.66060e+58
          1220.46310	         3.24025e+58
          1221.26940	         2.24717e+58
          1222.07570	         1.44514e+58
          1222.88200	         1.20354e+58
          1223.68830	         1.26711e+58
          1224.49460	         8.40371e+57
          1225.30090	         8.21496e+57
          1226.10720	         5.14420e+57
          1226.91350	         8.48272e+57
          1227.71980	         1.09949e+58
          1228.52610	         9.70157e+57
          1229.33240	         7.27944e+57
          1230.13870	         7.53059e+57
          1230.94500	         7.19057e+57
          1231.75130	         6.63507e+57
          1232.55760	         8.20813e+57
          1233.36390	         1.02107e+58
          1234.17020	         7.96110e+57
          1234.97650	         6.94941e+57
          1235.78280	         6.07552e+57
          1236.58910	         6.10182e+57
          1237.39540	         1.02779e+58
          1238.20170	         1.11932e+58
          1239.00800	         1.14345e+58
          1239.81430	         1.40910e+58
          1240.62060	         1.49341e+58
          1241.42690	         1.15187e+58
          1242.23320	         1.14137e+58
          1243.03950	         8.91409e+57
          1243.84580	         4.77505e+57
          1244.65210	         7.31314e+57
          1245.45840	         8.48815e+57
          1246.26470	         8.49895e+57
          1247.07100	         8.98772e+57
          1247.87730	         9.47775e+57
          1248.68360	         6.26969e+57
          1249.48990	         7.80759e+57
          1250.29620	         7.68496e+57
          1251.10250	         6.73138e+57
          1251.90880	         6.76376e+57
          1252.71510	         7.49565e+57
          1253.52140	         7.50595e+57
          1254.32770	         9.76932e+57
          1255.13400	         1.25510e+58
          1255.94030	         1.18645e+58
          1256.74660	         1.01246e+58
          1257.55290	         1.06763e+58
          1258.35920	         8.16474e+57
          1259.16550	         6.29209e+57
          1259.97180	         6.61031e+57
          1260.77810	         1.00727e+58
          1261.58440	         1.07863e+58
          1262.39070	         7.82202e+57
          1263.19700	         9.52538e+57
          1264.00330	         1.02876e+58
          1264.80960	         1.08491e+58
          1265.61590	         1.38590e+58
          1266.42220	         1.22565e+58
          1267.22850	         1.03747e+58
          1268.03480	         1.41197e+58
          1268.84110	         1.57191e+58
          1269.64740	         1.28253e+58
          1270.45370	         1.26841e+58
          1271.26000	         1.18655e+58
          1272.06630	         1.19096e+58
          1272.87260	         1.18441e+58
          1273.67890	         1.23219e+58
          1274.48520	         1.25971e+58
          1275.29150	         1.42992e+58
          1276.09780	         1.32784e+58
          1276.90410	         1.24921e+58
          1277.71040	         1.28911e+58
          1278.51670	         1.28824e+58
          1279.32300	         1.34244e+58
          1280.12930	         1.36362e+58
          1280.93560	         1.25682e+58
          1281.74190	         1.19449e+58
          1282.54820	         1.27904e+58
          1283.35450	         1.12526e+58
          1284.16080	         1.25648e+58
          1284.96710	         1.43042e+58
          1285.77340	         1.16096e+58
          1286.57970	         1.08899e+58
          1287.38600	         1.55682e+58
          1288.19230	         1.83277e+58
          1288.99860	         1.52313e+58
          1289.80490	         1.16852e+58
          1290.61120	         1.34782e+58
          1291.41750	         1.35485e+58
          1292.22380	         1.26999e+58
          1293.03010	         1.20338e+58
          1293.83640	         1.24753e+58
          1294.64270	         9.65869e+57
          1295.44900	         5.47299e+57
          1296.25530	         7.91165e+57
          1297.06160	         1.14313e+58
          1297.86790	         9.54674e+57
          1298.67420	         8.72336e+57
          1299.48050	         1.07280e+58
          1300.28680	         1.30937e+58
          1301.09310	         9.65284e+57
          1301.89940	         3.76956e+57
          1302.70570	         6.50510e+57
          1303.51200	         7.82991e+57
          1304.31830	         8.56451e+57
          1305.12460	         1.06181e+58
          1305.93090	         1.03679e+58
          1306.73720	         1.16811e+58
          1307.54350	         1.43470e+58
          1308.34980	         1.63001e+58
          1309.15610	         1.63647e+58
          1309.96240	         1.58086e+58
          1310.76870	         1.34762e+58
          1311.57500	         9.80252e+57
          1312.38130	         7.35518e+57
          1313.18760	         1.10217e+58
          1313.99390	         1.62520e+58
          1314.80020	         1.59908e+58
          1315.60650	         1.37009e+58
          1316.41280	         1.10244e+58
          1317.21910	         9.82320e+57
          1318.02540	         1.24988e+58
          1318.83170	         1.40937e+58
          1319.63800	         1.21027e+58
          1320.44430	         1.10075e+58
          1321.25060	         1.20340e+58
          1322.05690	         1.24010e+58
          1322.86320	         1.27316e+58
          1323.66950	         1.07589e+58
          1324.47580	         9.09179e+57
          1325.28210	         1.05956e+58
          1326.08840	         1.10847e+58
          1326.89470	         1.18626e+58
          1327.70100	         9.79166e+57
          1328.50730	         7.31273e+57
          1329.31360	         7.98865e+57
          1330.11990	         9.12518e+57
          1330.92620	         9.03194e+57
          1331.73250	         1.06904e+58
          1332.53880	         1.08798e+58
          1333.34510	         1.05261e+58
          1334.15140	         1.01699e+58
          1334.95770	         9.61476e+57
          1335.76400	         1.08227e+58
          1336.57030	         1.10520e+58
          1337.37660	         1.06165e+58
          1338.18290	         1.12957e+58
          1338.98920	         1.14991e+58
          1339.79550	         1.03226e+58
          1340.60180	         9.84619e+57
          1341.40810	         1.30173e+58
          1342.21440	         1.22780e+58
          1343.02070	         1.02791e+58
          1343.82700	         1.10752e+58
          1344.63330	         1.10875e+58
          1345.43960	         1.12743e+58
          1346.24590	         1.07332e+58
          1347.05220	         1.14447e+58
          1347.85850	         1.06830e+58
          1348.66480	         1.12746e+58
          1349.47110	         1.30883e+58
          1350.27740	         1.23209e+58
          1351.08370	         1.00347e+58
          1351.89000	         9.68645e+57
          1352.69630	         1.19633e+58
          1353.50260	         1.18882e+58
          1354.30890	         1.27082e+58
          1355.11520	         1.27478e+58
          1355.92150	         1.13049e+58
          1356.72780	         1.07393e+58
          1357.53410	         1.05814e+58
          1358.34040	         9.44609e+57
          1359.14670	         8.21576e+57
          1359.95300	         9.59298e+57
          1360.75930	         1.10788e+58
          1361.56560	         1.15860e+58
          1362.37190	         1.17941e+58
          1363.17820	         1.03143e+58
          1363.98450	         9.74801e+57
          1364.79080	         1.17471e+58
          1365.59710	         1.37165e+58
          1366.40340	         1.19486e+58
          1367.20970	         8.97641e+57
          1368.01600	         9.16831e+57
          1368.82230	         8.89049e+57
          1369.62860	         1.02863e+58
          1370.43490	         9.69491e+57
          1371.24120	         9.60465e+57
          1372.04750	         7.88656e+57
          1372.85380	         1.02899e+58
          1373.66010	         1.08030e+58
          1374.46640	         1.06016e+58
          1375.27270	         1.03464e+58
          1376.07900	         9.05453e+57
          1376.88530	         8.51933e+57
          1377.69160	         8.10308e+57
          1378.49790	         7.29443e+57
          1379.30420	         8.21045e+57
          1380.11050	         9.09103e+57
          1380.91680	         8.57536e+57
          1381.72310	         7.51638e+57
          1382.52940	         7.23286e+57
          1383.33570	         8.46760e+57
          1384.14200	         9.46013e+57
          1384.94830	         1.06275e+58
          1385.75460	         1.10812e+58
          1386.56090	         1.06166e+58
          1387.36720	         9.99044e+57
          1388.17350	         1.19928e+58
          1388.97980	         9.86944e+57
          1389.78610	         8.63240e+57
          1390.59240	         8.76026e+57
          1391.39870	         7.20148e+57
          1392.20500	         8.09588e+57
          1393.01130	         6.84440e+57
          1393.81760	         5.24006e+57
          1394.62390	         5.50828e+57
          1395.43020	         5.88716e+57
          1396.23650	         6.16564e+57
          1397.04280	         7.26025e+57
          1397.84910	         9.31078e+57
          1398.65540	         9.64577e+57
          1399.46170	         1.03286e+58
          1400.26800	         9.56948e+57
          1401.07430	         8.74665e+57
          1401.88060	         8.32937e+57
          1402.68690	         8.42042e+57
          1403.49320	         9.11254e+57
          1404.29950	         9.20531e+57
          1405.10580	         1.06915e+58
          1405.91210	         1.18869e+58
          1406.71840	         1.13594e+58
          1407.52470	         1.10111e+58
          1408.33100	         9.85644e+57
          1409.13730	         1.11413e+58
          1409.94360	         1.18946e+58
          1410.74990	         1.11057e+58
          1411.55620	         1.00426e+58
          1412.36250	         8.67535e+57
          1413.16880	         9.33247e+57
          1413.97510	         9.70628e+57
          1414.78140	         1.03175e+58
          1415.58770	         9.85508e+57
          1416.39400	         9.06263e+57
          1417.20030	         1.10073e+58
          1418.00660	         1.23883e+58
          1418.81290	         1.25528e+58
          1419.61920	         1.06596e+58
          1420.42550	         1.12620e+58
          1421.23180	         1.15626e+58
          1422.03810	         1.22048e+58
          1422.84440	         1.22181e+58
          1423.65070	         1.24739e+58
          1424.45700	         1.07503e+58
          1425.26330	         8.39621e+57
          1426.06960	         8.73401e+57
          1426.87590	         1.03832e+58
          1427.68220	         1.00706e+58
          1428.48850	         1.04638e+58
          1429.29480	         1.07461e+58
          1430.10110	         1.03858e+58
          1430.90740	         8.63097e+57
          1431.71370	         8.69600e+57
          1432.52000	         8.71864e+57
          1433.32630	         7.69127e+57
          1434.13260	         8.40910e+57
          1434.93890	         8.79199e+57
          1435.74520	         9.69802e+57
          1436.55150	         9.93723e+57
          1437.35780	         9.53200e+57
          1438.16410	         1.00765e+58
          1438.97040	         9.13601e+57
          1439.77670	         9.34282e+57
          1440.58300	         9.42434e+57
          1441.38930	         9.97559e+57
          1442.19560	         9.74509e+57
          1443.00190	         9.43593e+57
          1443.80820	         1.00582e+58
          1444.61450	         9.47651e+57
          1445.42080	         7.66917e+57
          1446.22710	         9.52566e+57
          1447.03340	         1.02013e+58
          1447.83970	         1.05497e+58
          1448.64600	         1.04663e+58
          1449.45230	         9.78928e+57
          1450.25860	         9.83327e+57
          1451.06490	         9.03127e+57
          1451.87120	         7.75826e+57
          1452.67750	         7.53081e+57
          1453.48380	         9.59818e+57
          1454.29010	         8.29247e+57
          1455.09640	         7.10322e+57
          1455.90270	         9.13830e+57
          1456.70900	         9.29275e+57
          1457.51530	         1.05480e+58
          1458.32160	         1.24567e+58
          1459.12790	         1.03832e+58
          1459.93420	         8.41231e+57
          1460.74050	         8.03723e+57
          1461.54680	         9.58661e+57
          1462.35310	         9.70226e+57
          1463.15940	         9.63797e+57
          1463.96570	         1.09058e+58
          1464.77200	         1.13266e+58
          1465.57830	         1.11032e+58
          1466.38460	         9.59701e+57
          1467.19090	         8.84396e+57
          1467.99720	         8.48076e+57
          1468.80350	         8.70764e+57
          1469.60980	         9.45919e+57
          1470.41610	         1.06814e+58
          1471.22240	         1.03400e+58
          1472.02870	         1.05911e+58
          1472.83500	         1.02968e+58
          1473.64130	         9.79705e+57
          1474.44760	         9.16850e+57
          1475.25390	         8.26345e+57
          1476.06020	         8.07812e+57
          1476.86650	         8.82909e+57
          1477.67280	         8.32483e+57
          1478.47910	         8.41684e+57
          1479.28540	         7.80354e+57
          1480.09170	         8.35635e+57
          1480.89800	         8.77069e+57
          1481.70430	         8.94575e+57
          1482.51060	         8.41910e+57
          1483.31690	         7.79976e+57
          1484.12320	         7.76164e+57
          1484.92950	         7.17175e+57
          1485.73580	         7.81515e+57
          1486.54210	         9.65884e+57
          1487.34840	         8.94418e+57
          1488.15470	         8.13252e+57
          1488.96100	         9.46752e+57
          1489.76730	         1.06243e+58
