#sample_78_stacked_spectrum_rest_UV-bands_median_H-alpha_noDC.txt
#median Lum: 1.64167e+42
#Rest-frame wavelength (A) | Luminosity (erg/s/A)
#
          1110.00000	         0.00000e+00
          1110.80630	         2.56678e+58
          1111.61260	         1.48232e+57
          1112.41890	         2.29495e+59
          1113.22520	        -1.01092e+59
          1114.03150	        -2.39015e+59
          1114.83780	         1.72547e+59
          1115.64410	         1.30203e+59
          1116.45040	         1.23296e+59
          1117.25670	         1.14765e+59
          1118.06300	         1.12794e+59
          1118.86930	         7.18488e+58
          1119.67560	         1.05001e+57
          1120.48190	        -4.62417e+58
          1121.28820	        -6.07792e+58
          1122.09450	        -2.00225e+57
          1122.90080	         2.93760e+58
          1123.70710	         3.22537e+58
          1124.51340	         7.50321e+58
          1125.31970	         8.67801e+58
          1126.12600	         1.31703e+58
          1126.93230	        -9.63788e+58
          1127.73860	        -1.93041e+58
          1128.54490	         4.44439e+58
          1129.35120	         1.18523e+58
          1130.15750	        -4.19846e+58
          1130.96380	        -4.23312e+58
          1131.77010	         3.42467e+58
          1132.57640	         5.72009e+58
          1133.38270	         2.30217e+58
          1134.18900	         1.09236e+58
          1134.99530	         1.02014e+58
          1135.80160	         1.09161e+58
          1136.60790	         1.37559e+58
          1137.41420	         1.64664e+58
          1138.22050	         4.34321e+58
          1139.02680	         2.40230e+58
          1139.83310	         8.22883e+57
          1140.63940	         9.00544e+57
          1141.44570	        -1.94898e+57
          1142.25200	         1.30045e+58
          1143.05830	         2.68629e+58
          1143.86460	         4.60473e+58
          1144.67090	         1.42853e+58
          1145.47720	         4.64362e+57
          1146.28350	        -1.81547e+57
          1147.08980	         9.42923e+57
          1147.89610	         1.27008e+58
          1148.70240	         1.32780e+58
          1149.50870	         2.90659e+58
          1150.31500	         2.38549e+58
          1151.12130	         1.62693e+58
          1151.92760	        -1.55418e+57
          1152.73390	        -9.65883e+57
          1153.54020	        -7.02953e+57
          1154.34650	         2.18273e+58
          1155.15280	         2.24139e+58
          1155.95910	         1.23404e+58
          1156.76540	         1.84870e+58
          1157.57170	         9.33013e+57
          1158.37800	         7.97106e+57
          1159.18430	         1.40501e+56
          1159.99060	         6.69736e+57
          1160.79690	         3.03515e+57
          1161.60320	         1.07603e+58
          1162.40950	         1.15579e+58
          1163.21580	         1.92506e+58
          1164.02210	         1.59496e+58
          1164.82840	         3.41792e+57
          1165.63470	         2.16605e+58
          1166.44100	         2.71070e+58
          1167.24730	         1.54806e+58
          1168.05360	         8.72198e+57
          1168.85990	         1.08755e+58
          1169.66620	         9.57536e+57
          1170.47250	         1.16476e+58
          1171.27880	         8.29570e+57
          1172.08510	         3.27743e+57
          1172.89140	         4.73551e+56
          1173.69770	         7.59938e+57
          1174.50400	         6.78793e+57
          1175.31030	         1.37158e+58
          1176.11660	         2.04441e+58
          1176.92290	         1.38520e+58
          1177.72920	         9.26159e+57
          1178.53550	         8.04031e+57
          1179.34180	         6.02060e+57
          1180.14810	         8.37590e+57
          1180.95440	         4.71309e+57
          1181.76070	         2.67311e+57
          1182.56700	         6.26252e+57
          1183.37330	         3.36273e+57
          1184.17960	         1.12551e+58
          1184.98590	         9.48565e+57
          1185.79220	         9.10188e+57
          1186.59850	         1.35382e+58
          1187.40480	         9.27848e+57
          1188.21110	         1.70488e+58
          1189.01740	         9.19795e+57
          1189.82370	         1.24838e+58
          1190.63000	         1.25640e+58
          1191.43630	         1.39768e+58
          1192.24260	         1.05858e+58
          1193.04890	         1.49625e+58
          1193.85520	         8.29281e+57
          1194.66150	        -2.07038e+57
          1195.46780	         8.08469e+57
          1196.27410	         1.76778e+58
          1197.08040	         8.53491e+57
          1197.88670	         1.25512e+58
          1198.69300	         1.42274e+58
          1199.49930	         1.22492e+58
          1200.30560	         6.13077e+57
          1201.11190	         4.92831e+57
          1201.91820	         7.82900e+57
          1202.72450	         7.46018e+57
          1203.53080	         1.33718e+58
          1204.33710	         9.11055e+57
          1205.14340	         8.81357e+57
          1205.94970	         5.76465e+57
          1206.75600	         1.02137e+58
          1207.56230	         8.18229e+57
          1208.36860	         9.40364e+57
          1209.17490	         9.33688e+57
          1209.98120	         9.16428e+57
          1210.78750	         9.37173e+57
          1211.59380	         1.17629e+58
          1212.40010	         1.50535e+58
          1213.20640	         2.11671e+58
          1214.01270	         2.09969e+58
          1214.81900	         2.57500e+58
          1215.62530	         4.91371e+58
          1216.43160	         9.44669e+58
          1217.23790	         1.52178e+59
          1218.04420	         1.13610e+59
          1218.85050	         8.65100e+58
          1219.65680	         5.59070e+58
          1220.46310	         3.25111e+58
          1221.26940	         2.73044e+58
          1222.07570	         1.82652e+58
          1222.88200	         8.17764e+57
          1223.68830	         7.36671e+57
          1224.49460	         8.43424e+57
          1225.30090	         5.83484e+57
          1226.10720	         6.51886e+57
          1226.91350	         9.99292e+57
          1227.71980	         1.09384e+58
          1228.52610	         1.27087e+58
          1229.33240	         9.85483e+57
          1230.13870	         6.95874e+57
          1230.94500	         8.95634e+57
          1231.75130	         8.03319e+57
          1232.55760	         9.63697e+57
          1233.36390	         7.73300e+57
          1234.17020	         6.53189e+57
          1234.97650	         7.05238e+57
          1235.78280	         8.49205e+57
          1236.58910	         7.89586e+57
          1237.39540	         1.22170e+58
          1238.20170	         1.12698e+58
          1239.00800	         9.61484e+57
          1239.81430	         1.32207e+58
          1240.62060	         1.09966e+58
          1241.42690	         1.03714e+58
          1242.23320	         1.28594e+58
          1243.03950	         8.78968e+57
          1243.84580	         7.17254e+57
          1244.65210	         9.20125e+57
          1245.45840	         1.03186e+58
          1246.26470	         1.02559e+58
          1247.07100	         1.08634e+58
          1247.87730	         7.58284e+57
          1248.68360	         5.65450e+57
          1249.48990	         9.00127e+57
          1250.29620	         7.68847e+57
          1251.10250	         3.84799e+57
          1251.90880	         5.06111e+57
          1252.71510	         6.30496e+57
          1253.52140	         7.01237e+57
          1254.32770	         1.20478e+58
          1255.13400	         1.29351e+58
          1255.94030	         9.21941e+57
          1256.74660	         9.55153e+57
          1257.55290	         1.03449e+58
          1258.35920	         8.69557e+57
          1259.16550	         5.76798e+57
          1259.97180	         4.65327e+57
          1260.77810	         9.94744e+57
          1261.58440	         1.16665e+58
          1262.39070	         9.07217e+57
          1263.19700	         8.34740e+57
          1264.00330	         9.10085e+57
          1264.80960	         1.13370e+58
          1265.61590	         1.32252e+58
          1266.42220	         1.35900e+58
          1267.22850	         1.10451e+58
          1268.03480	         1.18096e+58
          1268.84110	         1.40621e+58
          1269.64740	         1.52836e+58
          1270.45370	         1.48903e+58
          1271.26000	         1.24333e+58
          1272.06630	         1.29929e+58
          1272.87260	         1.44304e+58
          1273.67890	         1.29101e+58
          1274.48520	         1.30966e+58
          1275.29150	         1.27864e+58
          1276.09780	         1.30611e+58
          1276.90410	         1.49601e+58
          1277.71040	         1.24678e+58
          1278.51670	         1.20052e+58
          1279.32300	         1.39922e+58
          1280.12930	         1.28017e+58
          1280.93560	         1.07615e+58
          1281.74190	         1.13926e+58
          1282.54820	         1.14899e+58
          1283.35450	         1.12659e+58
          1284.16080	         1.36876e+58
          1284.96710	         1.38696e+58
          1285.77340	         1.11475e+58
          1286.57970	         1.21947e+58
          1287.38600	         1.67053e+58
          1288.19230	         1.86911e+58
          1288.99860	         1.71238e+58
          1289.80490	         1.32013e+58
          1290.61120	         1.44712e+58
          1291.41750	         1.41094e+58
          1292.22380	         1.26643e+58
          1293.03010	         1.16649e+58
          1293.83640	         1.21143e+58
          1294.64270	         1.06491e+58
          1295.44900	         6.14132e+57
          1296.25530	         6.60229e+57
          1297.06160	         1.03727e+58
          1297.86790	         1.26436e+58
          1298.67420	         1.02631e+58
          1299.48050	         9.63309e+57
          1300.28680	         1.15732e+58
          1301.09310	         8.89897e+57
          1301.89940	         3.32936e+57
          1302.70570	         6.27131e+57
          1303.51200	         8.56915e+57
          1304.31830	         9.77198e+57
          1305.12460	         1.04860e+58
          1305.93090	         1.18440e+58
          1306.73720	         1.28483e+58
          1307.54350	         1.42492e+58
          1308.34980	         1.60824e+58
          1309.15610	         1.56992e+58
          1309.96240	         1.48707e+58
          1310.76870	         1.24823e+58
          1311.57500	         1.02889e+58
          1312.38130	         1.17022e+58
          1313.18760	         1.46621e+58
          1313.99390	         1.66229e+58
          1314.80020	         1.64090e+58
          1315.60650	         1.37418e+58
          1316.41280	         9.83772e+57
          1317.21910	         1.14597e+58
          1318.02540	         1.35643e+58
          1318.83170	         1.31255e+58
          1319.63800	         1.19320e+58
          1320.44430	         1.38828e+58
          1321.25060	         1.29028e+58
          1322.05690	         1.23093e+58
          1322.86320	         1.27962e+58
          1323.66950	         1.06911e+58
          1324.47580	         7.88790e+57
          1325.28210	         9.40925e+57
          1326.08840	         1.05028e+58
          1326.89470	         1.09483e+58
          1327.70100	         1.13293e+58
          1328.50730	         8.76113e+57
          1329.31360	         8.81273e+57
          1330.11990	         9.83492e+57
          1330.92620	         8.04445e+57
          1331.73250	         1.02405e+58
          1332.53880	         1.08690e+58
          1333.34510	         1.00969e+58
          1334.15140	         8.97368e+57
          1334.95770	         8.09445e+57
          1335.76400	         8.87844e+57
          1336.57030	         1.04983e+58
          1337.37660	         1.08398e+58
          1338.18290	         1.13031e+58
          1338.98920	         1.06868e+58
          1339.79550	         1.06518e+58
          1340.60180	         1.27834e+58
          1341.40810	         1.44383e+58
          1342.21440	         1.12173e+58
          1343.02070	         1.06189e+58
          1343.82700	         1.28497e+58
          1344.63330	         1.18796e+58
          1345.43960	         1.30199e+58
          1346.24590	         1.10377e+58
          1347.05220	         1.26154e+58
          1347.85850	         1.18608e+58
          1348.66480	         1.12764e+58
          1349.47110	         1.38820e+58
          1350.27740	         1.33849e+58
          1351.08370	         1.23531e+58
          1351.89000	         1.15077e+58
          1352.69630	         1.13791e+58
          1353.50260	         1.21556e+58
          1354.30890	         1.14550e+58
          1355.11520	         1.18438e+58
          1355.92150	         1.06007e+58
          1356.72780	         8.13154e+57
          1357.53410	         1.03875e+58
          1358.34040	         1.21533e+58
          1359.14670	         1.15435e+58
          1359.95300	         1.17698e+58
          1360.75930	         1.23208e+58
          1361.56560	         1.23549e+58
          1362.37190	         1.25370e+58
          1363.17820	         1.15753e+58
          1363.98450	         1.11495e+58
          1364.79080	         1.19300e+58
          1365.59710	         1.26828e+58
          1366.40340	         1.16294e+58
          1367.20970	         1.02710e+58
          1368.01600	         1.00241e+58
          1368.82230	         1.10709e+58
          1369.62860	         1.02864e+58
          1370.43490	         8.06685e+57
          1371.24120	         8.97881e+57
          1372.04750	         9.12832e+57
          1372.85380	         1.09675e+58
          1373.66010	         1.26897e+58
          1374.46640	         1.10264e+58
          1375.27270	         1.03685e+58
          1376.07900	         9.17645e+57
          1376.88530	         8.62171e+57
          1377.69160	         9.26614e+57
          1378.49790	         8.40052e+57
          1379.30420	         8.23361e+57
          1380.11050	         9.40332e+57
          1380.91680	         8.15896e+57
          1381.72310	         8.58774e+57
          1382.52940	         8.81239e+57
          1383.33570	         7.95370e+57
          1384.14200	         9.80636e+57
          1384.94830	         1.11969e+58
          1385.75460	         9.73192e+57
          1386.56090	         1.06057e+58
          1387.36720	         1.20869e+58
          1388.17350	         1.36937e+58
          1388.97980	         1.18110e+58
          1389.78610	         9.23798e+57
          1390.59240	         7.33445e+57
          1391.39870	         5.68770e+57
          1392.20500	         7.92249e+57
          1393.01130	         8.52331e+57
          1393.81760	         7.92207e+57
          1394.62390	         7.59448e+57
          1395.43020	         7.68198e+57
          1396.23650	         6.52609e+57
          1397.04280	         5.92387e+57
          1397.84910	         7.39175e+57
          1398.65540	         8.58487e+57
          1399.46170	         8.76626e+57
          1400.26800	         7.91214e+57
          1401.07430	         7.08656e+57
          1401.88060	         7.92236e+57
          1402.68690	         9.00033e+57
          1403.49320	         9.15564e+57
          1404.29950	         1.01764e+58
          1405.10580	         1.08396e+58
          1405.91210	         1.24926e+58
          1406.71840	         1.13375e+58
          1407.52470	         9.83053e+57
          1408.33100	         8.87028e+57
          1409.13730	         9.97049e+57
          1409.94360	         1.20173e+58
          1410.74990	         1.26210e+58
          1411.55620	         1.02596e+58
          1412.36250	         9.13273e+57
          1413.16880	         9.08728e+57
          1413.97510	         9.11810e+57
          1414.78140	         9.01797e+57
          1415.58770	         9.64712e+57
          1416.39400	         1.10474e+58
          1417.20030	         1.07902e+58
          1418.00660	         9.93240e+57
          1418.81290	         1.09971e+58
          1419.61920	         1.24712e+58
          1420.42550	         1.22561e+58
          1421.23180	         1.27067e+58
          1422.03810	         1.35229e+58
          1422.84440	         1.28964e+58
          1423.65070	         1.26198e+58
          1424.45700	         1.15241e+58
          1425.26330	         9.02227e+57
          1426.06960	         7.80561e+57
          1426.87590	         8.96061e+57
          1427.68220	         1.11914e+58
          1428.48850	         1.18389e+58
          1429.29480	         9.88158e+57
          1430.10110	         9.32125e+57
          1430.90740	         8.86135e+57
          1431.71370	         8.61078e+57
          1432.52000	         9.23730e+57
          1433.32630	         8.17031e+57
          1434.13260	         7.95098e+57
          1434.93890	         7.51468e+57
          1435.74520	         8.15605e+57
          1436.55150	         9.77821e+57
          1437.35780	         9.14110e+57
          1438.16410	         9.08536e+57
          1438.97040	         9.52641e+57
          1439.77670	         9.88625e+57
          1440.58300	         1.00016e+58
          1441.38930	         9.60520e+57
          1442.19560	         9.59797e+57
          1443.00190	         9.75147e+57
          1443.80820	         1.03845e+58
          1444.61450	         9.90265e+57
          1445.42080	         8.37072e+57
          1446.22710	         1.02321e+58
          1447.03340	         1.04305e+58
          1447.83970	         1.06490e+58
          1448.64600	         1.10912e+58
          1449.45230	         8.78271e+57
          1450.25860	         9.11406e+57
          1451.06490	         8.65924e+57
          1451.87120	         7.40237e+57
          1452.67750	         6.71412e+57
          1453.48380	         7.17949e+57
          1454.29010	         8.20363e+57
          1455.09640	         8.62354e+57
          1455.90270	         9.49810e+57
          1456.70900	         8.95708e+57
          1457.51530	         9.36172e+57
          1458.32160	         1.12401e+58
          1459.12790	         1.11395e+58
          1459.93420	         9.12443e+57
          1460.74050	         8.19236e+57
          1461.54680	         8.41214e+57
          1462.35310	         8.86354e+57
          1463.15940	         1.06614e+58
          1463.96570	         1.18959e+58
          1464.77200	         1.26020e+58
          1465.57830	         1.20469e+58
          1466.38460	         9.91341e+57
          1467.19090	         8.21777e+57
          1467.99720	         7.26579e+57
          1468.80350	         9.52632e+57
          1469.60980	         1.15041e+58
          1470.41610	         1.10783e+58
          1471.22240	         9.63747e+57
          1472.02870	         1.04493e+58
          1472.83500	         1.10136e+58
          1473.64130	         1.02230e+58
          1474.44760	         9.80474e+57
          1475.25390	         9.09053e+57
          1476.06020	         8.39773e+57
          1476.86650	         8.87276e+57
          1477.67280	         9.01279e+57
          1478.47910	         7.19019e+57
          1479.28540	         7.53525e+57
          1480.09170	         8.24811e+57
          1480.89800	         8.28485e+57
          1481.70430	         8.82682e+57
          1482.51060	         8.57245e+57
          1483.31690	         6.94990e+57
          1484.12320	         7.30088e+57
          1484.92950	         7.92830e+57
          1485.73580	         7.15736e+57
          1486.54210	         7.61991e+57
          1487.34840	         7.90176e+57
          1488.15470	         7.79094e+57
          1488.96100	         7.74430e+57
          1489.76730	         7.25316e+57
