#sample_103_stacked_spectrum_rest_UV-bands_median_H-alpha_noDC.txt
#median Lum: 1.70434e+42
#Rest-frame wavelength (A) | Luminosity (erg/s/A)
#
          1110.00000	         0.00000e+00
          1110.80630	        -4.13259e+59
          1111.61260	         2.18522e+59
          1112.41890	         1.37351e+58
          1113.22520	         1.88017e+59
          1114.03150	         3.13633e+59
          1114.83780	         3.64263e+59
          1115.64410	         1.84751e+59
          1116.45040	         1.32373e+59
          1117.25670	         1.34633e+59
          1118.06300	         2.14640e+58
          1118.86930	        -1.01246e+59
          1119.67560	         1.17136e+59
          1120.48190	        -2.88177e+57
          1121.28820	        -8.98658e+58
          1122.09450	         3.70905e+58
          1122.90080	         2.98617e+58
          1123.70710	         4.62099e+58
          1124.51340	         5.84939e+58
          1125.31970	        -3.43146e+57
          1126.12600	         1.04709e+58
          1126.93230	        -5.14087e+58
          1127.73860	        -3.22030e+58
          1128.54490	         4.69597e+58
          1129.35120	         2.88593e+58
          1130.15750	        -3.18720e+58
          1130.96380	        -3.02752e+58
          1131.77010	         2.59106e+58
          1132.57640	         1.90705e+58
          1133.38270	         3.61559e+58
          1134.18900	         2.75595e+58
          1134.99530	         9.31063e+57
          1135.80160	        -8.34500e+57
          1136.60790	        -1.03363e+58
          1137.41420	        -3.51786e+58
          1138.22050	         1.88840e+58
          1139.02680	         4.43305e+58
          1139.83310	         2.85708e+58
          1140.63940	         3.63899e+58
          1141.44570	        -1.92191e+58
          1142.25200	        -1.75043e+58
          1143.05830	         5.00453e+57
          1143.86460	         1.95225e+58
          1144.67090	         2.55084e+58
          1145.47720	         1.59841e+58
          1146.28350	         1.17024e+58
          1147.08980	         1.92634e+58
          1147.89610	         2.31968e+58
          1148.70240	         2.16990e+58
          1149.50870	         1.34063e+58
          1150.31500	         1.55423e+58
          1151.12130	         1.27790e+58
          1151.92760	         1.06718e+58
          1152.73390	         1.49442e+58
          1153.54020	         7.60500e+57
          1154.34650	         2.75590e+58
          1155.15280	         3.03813e+58
          1155.95910	         1.44172e+58
          1156.76540	         1.27916e+58
          1157.57170	         7.42985e+57
          1158.37800	         4.76208e+57
          1159.18430	        -6.65791e+57
          1159.99060	        -3.98411e+56
          1160.79690	         1.42662e+57
          1161.60320	         1.94981e+58
          1162.40950	         1.46533e+58
          1163.21580	         1.48350e+58
          1164.02210	         1.38034e+58
          1164.82840	         5.01732e+57
          1165.63470	         1.30132e+58
          1166.44100	         3.37356e+58
          1167.24730	         2.63831e+58
          1168.05360	         9.13674e+57
          1168.85990	         4.61087e+57
          1169.66620	         1.33944e+58
          1170.47250	         1.51605e+58
          1171.27880	         1.38516e+58
          1172.08510	         1.62743e+58
          1172.89140	         1.05817e+58
          1173.69770	         4.94927e+57
          1174.50400	         7.34917e+57
          1175.31030	         1.31163e+58
          1176.11660	         1.75930e+58
          1176.92290	         1.68852e+58
          1177.72920	         8.36960e+57
          1178.53550	         7.06826e+57
          1179.34180	         1.02216e+58
          1180.14810	         7.48020e+57
          1180.95440	         4.19403e+57
          1181.76070	         4.01846e+57
          1182.56700	         7.61028e+57
          1183.37330	         7.68713e+57
          1184.17960	         1.34073e+58
          1184.98590	         1.55231e+58
          1185.79220	         1.18259e+58
          1186.59850	         1.39535e+58
          1187.40480	         9.67397e+57
          1188.21110	         1.12832e+58
          1189.01740	         1.11969e+58
          1189.82370	         1.52735e+58
          1190.63000	         1.27916e+58
          1191.43630	         1.25102e+58
          1192.24260	         8.65744e+57
          1193.04890	         1.33325e+58
          1193.85520	         1.50762e+58
          1194.66150	         9.59761e+57
          1195.46780	         5.96938e+57
          1196.27410	         1.14537e+58
          1197.08040	         1.13637e+58
          1197.88670	         1.09618e+58
          1198.69300	         1.65597e+58
          1199.49930	         1.78223e+58
          1200.30560	         1.74892e+58
          1201.11190	         1.17618e+58
          1201.91820	         6.33818e+57
          1202.72450	         7.61851e+57
          1203.53080	         1.22671e+58
          1204.33710	         9.27140e+57
          1205.14340	         8.44719e+57
          1205.94970	         6.03158e+57
          1206.75600	         8.69114e+57
          1207.56230	         7.34874e+57
          1208.36860	         8.13978e+57
          1209.17490	         6.65622e+57
          1209.98120	         9.75876e+57
          1210.78750	         9.27772e+57
          1211.59380	         1.30188e+58
          1212.40010	         1.97570e+58
          1213.20640	         2.18904e+58
          1214.01270	         1.90477e+58
          1214.81900	         2.42066e+58
          1215.62530	         4.29524e+58
          1216.43160	         8.75360e+58
          1217.23790	         1.55445e+59
          1218.04420	         1.18193e+59
          1218.85050	         8.70860e+58
          1219.65680	         5.93251e+58
          1220.46310	         3.44644e+58
          1221.26940	         1.95040e+58
          1222.07570	         1.31780e+58
          1222.88200	         1.26831e+58
          1223.68830	         9.18679e+57
          1224.49460	         4.31210e+57
          1225.30090	         5.96925e+57
          1226.10720	         3.86597e+57
          1226.91350	         4.48479e+57
          1227.71980	         9.73403e+57
          1228.52610	         8.66893e+57
          1229.33240	         8.71878e+57
          1230.13870	         1.30399e+58
          1230.94500	         8.98078e+57
          1231.75130	         7.25382e+57
          1232.55760	         8.16421e+57
          1233.36390	         5.43598e+57
          1234.17020	         8.10093e+57
          1234.97650	         8.89759e+57
          1235.78280	         8.38201e+57
          1236.58910	         9.06105e+57
          1237.39540	         1.25625e+58
          1238.20170	         1.25217e+58
          1239.00800	         9.24226e+57
          1239.81430	         1.03551e+58
          1240.62060	         7.90019e+57
          1241.42690	         8.84302e+57
          1242.23320	         1.29522e+58
          1243.03950	         8.72297e+57
          1243.84580	         7.02141e+57
          1244.65210	         9.47809e+57
          1245.45840	         1.10533e+58
          1246.26470	         1.21271e+58
          1247.07100	         8.51934e+57
          1247.87730	         6.97792e+57
          1248.68360	         5.92098e+57
          1249.48990	         7.25832e+57
          1250.29620	         6.35172e+57
          1251.10250	         5.83992e+57
          1251.90880	         3.11230e+57
          1252.71510	         2.44951e+57
          1253.52140	         7.07864e+57
          1254.32770	         1.16293e+58
          1255.13400	         1.45030e+58
          1255.94030	         1.13536e+58
          1256.74660	         8.13113e+57
          1257.55290	         9.29389e+57
          1258.35920	         7.85905e+57
          1259.16550	         4.33563e+57
          1259.97180	         4.90473e+57
          1260.77810	         6.72471e+57
          1261.58440	         9.94837e+57
          1262.39070	         8.79517e+57
          1263.19700	         8.84472e+57
          1264.00330	         8.86292e+57
          1264.80960	         1.02614e+58
          1265.61590	         1.19300e+58
          1266.42220	         1.25422e+58
          1267.22850	         1.18345e+58
          1268.03480	         1.35107e+58
          1268.84110	         1.51127e+58
          1269.64740	         1.48384e+58
          1270.45370	         1.56689e+58
          1271.26000	         1.35001e+58
          1272.06630	         1.07538e+58
          1272.87260	         1.17951e+58
          1273.67890	         1.22029e+58
          1274.48520	         1.17883e+58
          1275.29150	         1.09731e+58
          1276.09780	         1.21335e+58
          1276.90410	         1.66944e+58
          1277.71040	         1.41589e+58
          1278.51670	         1.12796e+58
          1279.32300	         1.31908e+58
          1280.12930	         1.33623e+58
          1280.93560	         1.22976e+58
          1281.74190	         1.12353e+58
          1282.54820	         1.34639e+58
          1283.35450	         1.11749e+58
          1284.16080	         9.51380e+57
          1284.96710	         1.35166e+58
          1285.77340	         1.14403e+58
          1286.57970	         1.09399e+58
          1287.38600	         1.58440e+58
          1288.19230	         1.82734e+58
          1288.99860	         1.46987e+58
          1289.80490	         1.09608e+58
          1290.61120	         1.47994e+58
          1291.41750	         1.64824e+58
          1292.22380	         1.27504e+58
          1293.03010	         1.00492e+58
          1293.83640	         9.03637e+57
          1294.64270	         7.93300e+57
          1295.44900	         6.36967e+57
          1296.25530	         7.38981e+57
          1297.06160	         8.44886e+57
          1297.86790	         8.37354e+57
          1298.67420	         8.18128e+57
          1299.48050	         9.52712e+57
          1300.28680	         1.03151e+58
          1301.09310	         6.82930e+57
          1301.89940	         3.61496e+57
          1302.70570	         5.59135e+57
          1303.51200	         7.83768e+57
          1304.31830	         1.04053e+58
          1305.12460	         1.12306e+58
          1305.93090	         1.15696e+58
          1306.73720	         1.24422e+58
          1307.54350	         1.44220e+58
          1308.34980	         1.48693e+58
          1309.15610	         1.45006e+58
          1309.96240	         1.40698e+58
          1310.76870	         1.23279e+58
          1311.57500	         9.64499e+57
          1312.38130	         1.01912e+58
          1313.18760	         1.39175e+58
          1313.99390	         1.51788e+58
          1314.80020	         1.41660e+58
          1315.60650	         1.39964e+58
          1316.41280	         1.11896e+58
          1317.21910	         9.41759e+57
          1318.02540	         1.05246e+58
          1318.83170	         1.34538e+58
          1319.63800	         1.37054e+58
          1320.44430	         1.26748e+58
          1321.25060	         1.26463e+58
          1322.05690	         1.25193e+58
          1322.86320	         1.22121e+58
          1323.66950	         1.21550e+58
          1324.47580	         1.00139e+58
          1325.28210	         8.93683e+57
          1326.08840	         1.05378e+58
          1326.89470	         1.25415e+58
          1327.70100	         1.22013e+58
          1328.50730	         9.06522e+57
          1329.31360	         7.58909e+57
          1330.11990	         9.16639e+57
          1330.92620	         9.23322e+57
          1331.73250	         1.19601e+58
          1332.53880	         1.13585e+58
          1333.34510	         1.07247e+58
          1334.15140	         9.85575e+57
          1334.95770	         8.78215e+57
          1335.76400	         1.05173e+58
          1336.57030	         1.14520e+58
          1337.37660	         1.01816e+58
          1338.18290	         1.15889e+58
          1338.98920	         1.24065e+58
          1339.79550	         1.06105e+58
          1340.60180	         1.13739e+58
          1341.40810	         1.28967e+58
          1342.21440	         1.10721e+58
          1343.02070	         1.16733e+58
          1343.82700	         1.30061e+58
          1344.63330	         1.28201e+58
          1345.43960	         1.26737e+58
          1346.24590	         1.14007e+58
          1347.05220	         1.30045e+58
          1347.85850	         1.26944e+58
          1348.66480	         1.26833e+58
          1349.47110	         1.33302e+58
          1350.27740	         1.12401e+58
          1351.08370	         1.05631e+58
          1351.89000	         1.08772e+58
          1352.69630	         1.14843e+58
          1353.50260	         1.15365e+58
          1354.30890	         1.04603e+58
          1355.11520	         1.24102e+58
          1355.92150	         1.22722e+58
          1356.72780	         1.08910e+58
          1357.53410	         1.10082e+58
          1358.34040	         1.20689e+58
          1359.14670	         1.09809e+58
          1359.95300	         9.99253e+57
          1360.75930	         1.04928e+58
          1361.56560	         1.03467e+58
          1362.37190	         1.11243e+58
          1363.17820	         1.19094e+58
          1363.98450	         1.28679e+58
          1364.79080	         1.36685e+58
          1365.59710	         1.23746e+58
          1366.40340	         1.16928e+58
          1367.20970	         1.09663e+58
          1368.01600	         9.97612e+57
          1368.82230	         9.22682e+57
          1369.62860	         1.00765e+58
          1370.43490	         1.11747e+58
          1371.24120	         1.03185e+58
          1372.04750	         9.16499e+57
          1372.85380	         1.20159e+58
          1373.66010	         1.27729e+58
          1374.46640	         1.00434e+58
          1375.27270	         9.16164e+57
          1376.07900	         8.19780e+57
          1376.88530	         7.86303e+57
          1377.69160	         8.09303e+57
          1378.49790	         6.85312e+57
          1379.30420	         6.86897e+57
          1380.11050	         9.61110e+57
          1380.91680	         9.24244e+57
          1381.72310	         8.73578e+57
          1382.52940	         8.61228e+57
          1383.33570	         8.34405e+57
          1384.14200	         9.13437e+57
          1384.94830	         1.07441e+58
          1385.75460	         1.05853e+58
          1386.56090	         1.04805e+58
          1387.36720	         1.11094e+58
          1388.17350	         1.20094e+58
          1388.97980	         1.12014e+58
          1389.78610	         1.03365e+58
          1390.59240	         7.47467e+57
          1391.39870	         7.75713e+57
          1392.20500	         9.51918e+57
          1393.01130	         8.13804e+57
          1393.81760	         7.89526e+57
          1394.62390	         8.80482e+57
          1395.43020	         6.92171e+57
          1396.23650	         6.09854e+57
          1397.04280	         8.44488e+57
          1397.84910	         8.84355e+57
          1398.65540	         8.23056e+57
          1399.46170	         1.05010e+58
          1400.26800	         9.39465e+57
          1401.07430	         8.02190e+57
          1401.88060	         6.86820e+57
          1402.68690	         8.52979e+57
          1403.49320	         9.99954e+57
          1404.29950	         1.04232e+58
          1405.10580	         1.17829e+58
          1405.91210	         1.22943e+58
          1406.71840	         1.11341e+58
          1407.52470	         9.81109e+57
          1408.33100	         1.02382e+58
          1409.13730	         1.14621e+58
          1409.94360	         1.14030e+58
          1410.74990	         1.11366e+58
          1411.55620	         1.06558e+58
          1412.36250	         1.05183e+58
          1413.16880	         9.81261e+57
          1413.97510	         8.54375e+57
          1414.78140	         8.87449e+57
          1415.58770	         1.08519e+58
          1416.39400	         1.19937e+58
          1417.20030	         1.05328e+58
          1418.00660	         8.66826e+57
          1418.81290	         9.48812e+57
          1419.61920	         1.01367e+58
          1420.42550	         1.39164e+58
          1421.23180	         1.40905e+58
          1422.03810	         1.25840e+58
          1422.84440	         1.26658e+58
          1423.65070	         1.33974e+58
          1424.45700	         1.13714e+58
          1425.26330	         7.97205e+57
          1426.06960	         9.01287e+57
          1426.87590	         1.12527e+58
          1427.68220	         9.79364e+57
          1428.48850	         1.07259e+58
          1429.29480	         1.15409e+58
          1430.10110	         9.45543e+57
          1430.90740	         7.90632e+57
          1431.71370	         8.27783e+57
          1432.52000	         9.02642e+57
          1433.32630	         8.64484e+57
          1434.13260	         7.85456e+57
          1434.93890	         9.05366e+57
          1435.74520	         9.40520e+57
          1436.55150	         9.84651e+57
          1437.35780	         9.44323e+57
          1438.16410	         8.46287e+57
          1438.97040	         8.60437e+57
          1439.77670	         8.35098e+57
          1440.58300	         9.78245e+57
          1441.38930	         9.69181e+57
          1442.19560	         8.94317e+57
          1443.00190	         9.66132e+57
          1443.80820	         1.11320e+58
          1444.61450	         1.07315e+58
          1445.42080	         9.17231e+57
          1446.22710	         1.04998e+58
          1447.03340	         1.03583e+58
          1447.83970	         1.10747e+58
          1448.64600	         1.15733e+58
          1449.45230	         1.11722e+58
          1450.25860	         1.03674e+58
          1451.06490	         9.49869e+57
          1451.87120	         8.77559e+57
          1452.67750	         7.77505e+57
          1453.48380	         8.20238e+57
          1454.29010	         7.60277e+57
          1455.09640	         8.91287e+57
          1455.90270	         1.00262e+58
          1456.70900	         8.24921e+57
          1457.51530	         8.68015e+57
          1458.32160	         1.18908e+58
          1459.12790	         1.19119e+58
          1459.93420	         9.92880e+57
          1460.74050	         7.81001e+57
          1461.54680	         8.46881e+57
          1462.35310	         8.96798e+57
          1463.15940	         1.00308e+58
          1463.96570	         1.20265e+58
          1464.77200	         1.21913e+58
          1465.57830	         9.61808e+57
          1466.38460	         9.19655e+57
          1467.19090	         9.54717e+57
          1467.99720	         1.02296e+58
          1468.80350	         9.92475e+57
          1469.60980	         9.04080e+57
          1470.41610	         9.20111e+57
          1471.22240	         8.22051e+57
          1472.02870	         8.57899e+57
          1472.83500	         1.02094e+58
          1473.64130	         9.98947e+57
          1474.44760	         1.04455e+58
          1475.25390	         9.33291e+57
          1476.06020	         9.00962e+57
          1476.86650	         8.74286e+57
          1477.67280	         8.11364e+57
          1478.47910	         7.94179e+57
          1479.28540	         8.75654e+57
          1480.09170	         1.02169e+58
          1480.89800	         1.00680e+58
          1481.70430	         9.01625e+57
          1482.51060	         7.94679e+57
          1483.31690	         7.76273e+57
          1484.12320	         7.97398e+57
          1484.92950	         8.45413e+57
          1485.73580	         7.94454e+57
          1486.54210	         8.16196e+57
          1487.34840	         8.86697e+57
          1488.15470	         8.60421e+57
          1488.96100	         8.76816e+57
          1489.76730	         9.14914e+57
