#sample_29_stacked_spectrum_rest_UV-bands_median_H-alpha_noDC.txt
#median Lum: 1.70597e+42
#Rest-frame wavelength (A) | Luminosity (erg/s/A)
#
          1110.00000	         0.00000e+00
          1110.80630	         1.81445e+59
          1111.61260	        -1.26337e+59
          1112.41890	         7.47463e+57
          1113.22520	        -4.53990e+58
          1114.03150	        -1.35981e+59
          1114.83780	         2.76402e+59
          1115.64410	         3.36476e+59
          1116.45040	         1.11416e+59
          1117.25670	         9.67890e+58
          1118.06300	         2.22053e+59
          1118.86930	         1.31672e+59
          1119.67560	         1.45323e+59
          1120.48190	        -3.93500e+58
          1121.28820	        -1.37700e+59
          1122.09450	        -5.95827e+58
          1122.90080	        -2.88216e+58
          1123.70710	         5.00377e+58
          1124.51340	         6.49049e+58
          1125.31970	        -7.55648e+57
          1126.12600	         1.08969e+58
          1126.93230	        -4.78140e+58
          1127.73860	        -2.39985e+58
          1128.54490	         2.22601e+58
          1129.35120	         4.00729e+58
          1130.15750	        -4.35919e+58
          1130.96380	         1.14497e+58
          1131.77010	         2.21956e+58
          1132.57640	         2.74764e+58
          1133.38270	         3.90630e+58
          1134.18900	         5.92382e+57
          1134.99530	        -1.69436e+58
          1135.80160	         4.09258e+58
          1136.60790	         1.90794e+58
          1137.41420	        -1.95474e+58
          1138.22050	         3.18469e+58
          1139.02680	         2.01087e+58
          1139.83310	         4.05179e+57
          1140.63940	         1.52529e+58
          1141.44570	         6.03001e+57
          1142.25200	         6.72738e+57
          1143.05830	         2.91794e+58
          1143.86460	         4.35474e+58
          1144.67090	         2.93347e+58
          1145.47720	         1.90141e+58
          1146.28350	        -7.58884e+57
          1147.08980	         8.83563e+57
          1147.89610	         2.15058e+58
          1148.70240	         1.56367e+58
          1149.50870	         1.81605e+58
          1150.31500	         1.98585e+58
          1151.12130	         1.82159e+58
          1151.92760	         1.97059e+58
          1152.73390	        -4.37037e+57
          1153.54020	        -1.17991e+58
          1154.34650	         1.17540e+58
          1155.15280	         1.16578e+58
          1155.95910	        -1.50482e+57
          1156.76540	         1.41566e+58
          1157.57170	         5.37966e+57
          1158.37800	        -2.83300e+57
          1159.18430	        -2.54379e+57
          1159.99060	         2.57640e+57
          1160.79690	        -1.54548e+57
          1161.60320	         3.61524e+57
          1162.40950	         1.91530e+58
          1163.21580	         1.86822e+58
          1164.02210	         1.07314e+58
          1164.82840	         5.63680e+57
          1165.63470	         2.02647e+58
          1166.44100	         3.18623e+58
          1167.24730	         1.50902e+58
          1168.05360	         7.85309e+57
          1168.85990	        -1.98502e+57
          1169.66620	         5.32812e+57
          1170.47250	         1.16096e+58
          1171.27880	         9.94130e+57
          1172.08510	         1.78582e+58
          1172.89140	         1.35425e+58
          1173.69770	         8.09893e+57
          1174.50400	         1.17943e+58
          1175.31030	         1.27579e+58
          1176.11660	         1.77187e+58
          1176.92290	         1.60020e+58
          1177.72920	         1.11385e+58
          1178.53550	         6.10973e+57
          1179.34180	         5.49642e+57
          1180.14810	         7.01529e+57
          1180.95440	         5.66691e+57
          1181.76070	         3.39150e+57
          1182.56700	         8.07562e+57
          1183.37330	         8.07295e+57
          1184.17960	         1.02880e+58
          1184.98590	         1.19937e+58
          1185.79220	         9.29416e+57
          1186.59850	         1.27459e+58
          1187.40480	         1.03147e+58
          1188.21110	         1.41325e+58
          1189.01740	         8.61007e+57
          1189.82370	         8.84380e+57
          1190.63000	         1.17931e+58
          1191.43630	         1.07901e+58
          1192.24260	         9.76627e+57
          1193.04890	         1.16348e+58
          1193.85520	         1.00237e+58
          1194.66150	         7.28140e+57
          1195.46780	         1.09492e+58
          1196.27410	         1.22506e+58
          1197.08040	         9.66268e+57
          1197.88670	         1.53804e+58
          1198.69300	         1.50204e+58
          1199.49930	         1.34738e+58
          1200.30560	         1.06381e+58
          1201.11190	         7.97354e+57
          1201.91820	         8.28775e+57
          1202.72450	         6.87463e+57
          1203.53080	         1.12331e+58
          1204.33710	         5.75127e+57
          1205.14340	         6.70812e+57
          1205.94970	         7.60283e+57
          1206.75600	         5.49822e+57
          1207.56230	         1.00468e+58
          1208.36860	         1.17069e+58
          1209.17490	         7.11808e+57
          1209.98120	         1.01263e+58
          1210.78750	         1.48229e+58
          1211.59380	         1.55885e+58
          1212.40010	         1.77099e+58
          1213.20640	         2.13589e+58
          1214.01270	         2.24127e+58
          1214.81900	         2.68120e+58
          1215.62530	         4.64754e+58
          1216.43160	         9.50735e+58
          1217.23790	         1.55681e+59
          1218.04420	         1.17105e+59
          1218.85050	         8.86211e+58
          1219.65680	         5.57788e+58
          1220.46310	         2.85669e+58
          1221.26940	         2.02638e+58
          1222.07570	         1.48180e+58
          1222.88200	         1.49826e+58
          1223.68830	         1.46249e+58
          1224.49460	         7.25481e+57
          1225.30090	         5.97093e+57
          1226.10720	         7.37584e+57
          1226.91350	         7.27947e+57
          1227.71980	         9.14549e+57
          1228.52610	         1.21356e+58
          1229.33240	         7.56144e+57
          1230.13870	         6.10783e+57
          1230.94500	         6.52832e+57
          1231.75130	         3.97227e+57
          1232.55760	         8.08482e+57
          1233.36390	         1.07749e+58
          1234.17020	         9.83780e+57
          1234.97650	         7.88599e+57
          1235.78280	         6.79077e+57
          1236.58910	         8.11740e+57
          1237.39540	         1.18120e+58
          1238.20170	         1.18903e+58
          1239.00800	         1.31242e+58
          1239.81430	         1.54863e+58
          1240.62060	         1.17800e+58
          1241.42690	         1.12739e+58
          1242.23320	         1.18708e+58
          1243.03950	         8.49210e+57
          1243.84580	         9.06520e+57
          1244.65210	         9.61870e+57
          1245.45840	         1.00395e+58
          1246.26470	         1.23566e+58
          1247.07100	         1.07534e+58
          1247.87730	         8.02250e+57
          1248.68360	         5.88931e+57
          1249.48990	         6.65164e+57
          1250.29620	         9.55832e+57
          1251.10250	         8.01964e+57
          1251.90880	         5.14794e+57
          1252.71510	         4.75666e+57
          1253.52140	         6.42684e+57
          1254.32770	         1.06719e+58
          1255.13400	         1.47669e+58
          1255.94030	         1.29423e+58
          1256.74660	         9.98651e+57
          1257.55290	         1.02843e+58
          1258.35920	         9.21382e+57
          1259.16550	         4.75211e+57
          1259.97180	         5.63370e+57
          1260.77810	         8.42008e+57
          1261.58440	         1.11356e+58
          1262.39070	         9.54465e+57
          1263.19700	         9.77356e+57
          1264.00330	         8.30277e+57
          1264.80960	         8.85620e+57
          1265.61590	         1.15856e+58
          1266.42220	         1.08256e+58
          1267.22850	         9.57524e+57
          1268.03480	         1.34820e+58
          1268.84110	         1.53509e+58
          1269.64740	         1.38363e+58
          1270.45370	         1.34220e+58
          1271.26000	         1.04198e+58
          1272.06630	         1.07695e+58
          1272.87260	         1.21623e+58
          1273.67890	         1.46809e+58
          1274.48520	         1.51320e+58
          1275.29150	         1.26360e+58
          1276.09780	         1.13975e+58
          1276.90410	         1.34845e+58
          1277.71040	         1.25796e+58
          1278.51670	         1.07956e+58
          1279.32300	         1.11763e+58
          1280.12930	         1.05662e+58
          1280.93560	         1.10947e+58
          1281.74190	         1.29629e+58
          1282.54820	         1.34156e+58
          1283.35450	         1.10746e+58
          1284.16080	         1.05799e+58
          1284.96710	         1.43290e+58
          1285.77340	         1.34947e+58
          1286.57970	         1.08124e+58
          1287.38600	         1.53527e+58
          1288.19230	         1.75544e+58
          1288.99860	         1.57486e+58
          1289.80490	         1.14634e+58
          1290.61120	         1.24979e+58
          1291.41750	         1.66633e+58
          1292.22380	         1.67763e+58
          1293.03010	         1.27578e+58
          1293.83640	         1.10826e+58
          1294.64270	         9.28353e+57
          1295.44900	         5.41619e+57
          1296.25530	         6.91604e+57
          1297.06160	         9.03738e+57
          1297.86790	         1.17652e+58
          1298.67420	         1.24464e+58
          1299.48050	         1.13177e+58
          1300.28680	         1.08818e+58
          1301.09310	         9.04928e+57
          1301.89940	         4.82010e+57
          1302.70570	         5.61782e+57
          1303.51200	         7.79718e+57
          1304.31830	         1.09312e+58
          1305.12460	         1.17283e+58
          1305.93090	         1.09825e+58
          1306.73720	         1.27401e+58
          1307.54350	         1.35417e+58
          1308.34980	         1.34037e+58
          1309.15610	         1.39967e+58
          1309.96240	         1.45822e+58
          1310.76870	         1.38937e+58
          1311.57500	         1.14243e+58
          1312.38130	         1.27410e+58
          1313.18760	         1.54459e+58
          1313.99390	         1.54884e+58
          1314.80020	         1.54154e+58
          1315.60650	         1.48581e+58
          1316.41280	         1.48355e+58
          1317.21910	         1.28693e+58
          1318.02540	         1.15800e+58
          1318.83170	         1.34541e+58
          1319.63800	         1.30547e+58
          1320.44430	         1.26257e+58
          1321.25060	         1.38189e+58
          1322.05690	         1.32200e+58
          1322.86320	         1.19675e+58
          1323.66950	         1.20217e+58
          1324.47580	         9.51216e+57
          1325.28210	         1.00701e+58
          1326.08840	         1.22302e+58
          1326.89470	         1.16119e+58
          1327.70100	         9.82346e+57
          1328.50730	         8.41999e+57
          1329.31360	         8.38167e+57
          1330.11990	         9.42043e+57
          1330.92620	         9.65601e+57
          1331.73250	         1.08399e+58
          1332.53880	         1.08944e+58
          1333.34510	         9.72658e+57
          1334.15140	         8.83588e+57
          1334.95770	         9.25454e+57
          1335.76400	         1.14663e+58
          1336.57030	         1.19500e+58
          1337.37660	         1.19375e+58
          1338.18290	         1.25989e+58
          1338.98920	         1.18648e+58
          1339.79550	         1.19908e+58
          1340.60180	         1.32955e+58
          1341.40810	         1.43315e+58
          1342.21440	         1.25395e+58
          1343.02070	         1.27241e+58
          1343.82700	         1.54032e+58
          1344.63330	         1.51819e+58
          1345.43960	         1.45025e+58
          1346.24590	         1.05559e+58
          1347.05220	         1.07714e+58
          1347.85850	         1.08511e+58
          1348.66480	         1.24236e+58
          1349.47110	         1.35385e+58
          1350.27740	         1.15903e+58
          1351.08370	         1.08727e+58
          1351.89000	         1.21425e+58
          1352.69630	         1.21387e+58
          1353.50260	         1.08426e+58
          1354.30890	         1.04574e+58
          1355.11520	         1.08391e+58
          1355.92150	         9.70794e+57
          1356.72780	         9.11176e+57
          1357.53410	         9.13263e+57
          1358.34040	         1.02024e+58
          1359.14670	         1.12441e+58
          1359.95300	         1.09179e+58
          1360.75930	         1.18315e+58
          1361.56560	         1.18156e+58
          1362.37190	         1.18396e+58
          1363.17820	         1.10970e+58
          1363.98450	         1.12895e+58
          1364.79080	         1.17008e+58
          1365.59710	         1.02771e+58
          1366.40340	         9.68178e+57
          1367.20970	         1.12799e+58
          1368.01600	         1.08957e+58
          1368.82230	         1.02086e+58
          1369.62860	         9.39178e+57
          1370.43490	         8.49410e+57
          1371.24120	         1.00123e+58
          1372.04750	         9.98583e+57
          1372.85380	         1.12737e+58
          1373.66010	         1.14031e+58
          1374.46640	         1.07584e+58
          1375.27270	         1.13234e+58
          1376.07900	         9.04266e+57
          1376.88530	         8.57523e+57
          1377.69160	         9.37491e+57
          1378.49790	         7.35415e+57
          1379.30420	         7.68171e+57
          1380.11050	         9.73943e+57
          1380.91680	         7.80175e+57
          1381.72310	         7.69953e+57
          1382.52940	         8.09794e+57
          1383.33570	         8.13574e+57
          1384.14200	         9.60462e+57
          1384.94830	         1.03309e+58
          1385.75460	         1.07602e+58
          1386.56090	         1.12233e+58
          1387.36720	         1.09039e+58
          1388.17350	         1.26569e+58
          1388.97980	         1.04727e+58
          1389.78610	         9.21426e+57
          1390.59240	         9.26781e+57
          1391.39870	         7.98519e+57
          1392.20500	         9.05954e+57
          1393.01130	         7.76586e+57
          1393.81760	         7.93416e+57
          1394.62390	         9.27066e+57
          1395.43020	         7.55168e+57
          1396.23650	         5.75898e+57
          1397.04280	         6.14478e+57
          1397.84910	         7.50840e+57
          1398.65540	         8.30300e+57
          1399.46170	         8.65814e+57
          1400.26800	         7.73215e+57
          1401.07430	         7.12820e+57
          1401.88060	         7.86257e+57
          1402.68690	         9.09318e+57
          1403.49320	         9.30768e+57
          1404.29950	         9.25773e+57
          1405.10580	         1.10483e+58
          1405.91210	         1.12025e+58
          1406.71840	         1.04719e+58
          1407.52470	         1.01104e+58
          1408.33100	         8.48890e+57
          1409.13730	         1.05487e+58
          1409.94360	         1.09911e+58
          1410.74990	         1.06734e+58
          1411.55620	         9.90812e+57
          1412.36250	         8.64093e+57
          1413.16880	         8.66413e+57
          1413.97510	         8.58389e+57
          1414.78140	         8.90161e+57
          1415.58770	         1.07718e+58
          1416.39400	         1.15019e+58
          1417.20030	         1.00765e+58
          1418.00660	         7.68741e+57
          1418.81290	         8.67438e+57
          1419.61920	         1.00347e+58
          1420.42550	         1.19269e+58
          1421.23180	         1.36001e+58
          1422.03810	         1.18897e+58
          1422.84440	         1.09946e+58
          1423.65070	         1.18901e+58
          1424.45700	         1.04458e+58
          1425.26330	         8.60478e+57
          1426.06960	         8.39404e+57
          1426.87590	         8.96481e+57
          1427.68220	         1.01194e+58
          1428.48850	         1.07126e+58
          1429.29480	         1.02385e+58
          1430.10110	         1.01402e+58
          1430.90740	         8.75169e+57
          1431.71370	         8.84983e+57
          1432.52000	         9.64964e+57
          1433.32630	         8.02658e+57
          1434.13260	         7.78400e+57
          1434.93890	         9.34602e+57
          1435.74520	         9.48677e+57
          1436.55150	         9.56848e+57
          1437.35780	         9.67992e+57
          1438.16410	         9.19311e+57
          1438.97040	         8.37293e+57
          1439.77670	         8.65693e+57
          1440.58300	         9.19586e+57
          1441.38930	         8.72197e+57
          1442.19560	         9.42440e+57
          1443.00190	         9.55724e+57
          1443.80820	         1.05824e+58
          1444.61450	         9.35292e+57
          1445.42080	         8.73731e+57
          1446.22710	         1.04811e+58
          1447.03340	         1.01631e+58
          1447.83970	         1.09984e+58
          1448.64600	         1.10946e+58
          1449.45230	         1.01022e+58
          1450.25860	         1.00660e+58
          1451.06490	         9.08716e+57
          1451.87120	         7.47608e+57
          1452.67750	         7.07571e+57
          1453.48380	         9.42115e+57
          1454.29010	         8.82660e+57
          1455.09640	         7.64600e+57
          1455.90270	         8.59965e+57
          1456.70900	         9.07516e+57
          1457.51530	         9.23148e+57
          1458.32160	         1.13552e+58
          1459.12790	         1.14666e+58
          1459.93420	         1.00563e+58
          1460.74050	         7.56439e+57
          1461.54680	         7.80343e+57
          1462.35310	         8.18258e+57
          1463.15940	         9.02729e+57
          1463.96570	         1.06818e+58
          1464.77200	         1.14054e+58
          1465.57830	         1.03221e+58
          1466.38460	         8.71967e+57
          1467.19090	         8.05113e+57
          1467.99720	         8.35183e+57
          1468.80350	         9.21953e+57
          1469.60980	         1.07927e+58
          1470.41610	         1.16859e+58
          1471.22240	         9.74051e+57
          1472.02870	         9.33152e+57
          1472.83500	         9.90923e+57
          1473.64130	         9.29622e+57
          1474.44760	         8.99244e+57
          1475.25390	         8.77755e+57
          1476.06020	         7.99734e+57
          1476.86650	         8.10109e+57
          1477.67280	         7.13512e+57
          1478.47910	         6.37317e+57
          1479.28540	         7.66862e+57
          1480.09170	         8.97547e+57
          1480.89800	         8.68724e+57
          1481.70430	         8.98977e+57
          1482.51060	         8.59977e+57
          1483.31690	         8.15570e+57
          1484.12320	         7.43485e+57
          1484.92950	         6.98787e+57
          1485.73580	         7.73255e+57
          1486.54210	         8.13248e+57
          1487.34840	         8.87819e+57
          1488.15470	         8.68469e+57
          1488.96100	         9.89769e+57
          1489.76730	         1.02257e+58
