#sample_409_stacked_spectrum_rest_UV-bands_median_H-alpha_noDC.txt
#median Lum: 1.70359e+42
#Rest-frame wavelength (A) | Luminosity (erg/s/A)
#
          1110.00000	         0.00000e+00
          1110.80630	        -2.95598e+59
          1111.61260	         2.02839e+59
          1112.41890	         1.64431e+58
          1113.22520	         2.09411e+58
          1114.03150	        -1.56737e+59
          1114.83780	         3.37768e+58
          1115.64410	         9.92970e+58
          1116.45040	         8.42953e+58
          1117.25670	        -2.73026e+57
          1118.06300	         2.82617e+59
          1118.86930	         1.49548e+59
          1119.67560	         2.14357e+59
          1120.48190	         1.05991e+56
          1121.28820	        -9.62779e+58
          1122.09450	        -4.25111e+58
          1122.90080	         2.39151e+58
          1123.70710	         1.16275e+59
          1124.51340	         9.42837e+58
          1125.31970	         8.25452e+57
          1126.12600	        -4.70554e+57
          1126.93230	        -2.44523e+58
          1127.73860	        -2.61881e+58
          1128.54490	         1.43803e+56
          1129.35120	        -1.74318e+58
          1130.15750	        -5.30730e+58
          1130.96380	        -4.48794e+58
          1131.77010	         9.73059e+57
          1132.57640	         2.72486e+58
          1133.38270	         3.75004e+58
          1134.18900	         3.20180e+58
          1134.99530	         3.48656e+58
          1135.80160	         2.30194e+58
          1136.60790	         9.11257e+57
          1137.41420	         2.13182e+58
          1138.22050	         2.06687e+58
          1139.02680	         3.03580e+58
          1139.83310	         6.03943e+57
          1140.63940	         2.30944e+58
          1141.44570	        -6.51088e+57
          1142.25200	        -2.05082e+58
          1143.05830	         6.11169e+57
          1143.86460	         2.66107e+58
          1144.67090	         3.30768e+58
          1145.47720	         1.68123e+58
          1146.28350	         1.56384e+58
          1147.08980	         1.03840e+58
          1147.89610	         1.22641e+58
          1148.70240	         2.37823e+58
          1149.50870	         2.65001e+58
          1150.31500	         1.37392e+58
          1151.12130	         3.04802e+57
          1151.92760	        -2.65429e+57
          1152.73390	        -1.64786e+57
          1153.54020	         3.60931e+57
          1154.34650	         2.01345e+58
          1155.15280	         1.99087e+58
          1155.95910	         2.19814e+58
          1156.76540	         1.11305e+58
          1157.57170	         4.88002e+57
          1158.37800	         5.24581e+57
          1159.18430	        -8.02209e+56
          1159.99060	         1.19224e+58
          1160.79690	         3.83165e+57
          1161.60320	         7.73297e+57
          1162.40950	         1.27157e+58
          1163.21580	         1.83049e+58
          1164.02210	         1.59722e+58
          1164.82840	         1.68053e+58
          1165.63470	         1.65995e+58
          1166.44100	         2.63741e+58
          1167.24730	         1.64171e+58
          1168.05360	         8.14094e+57
          1168.85990	         8.85916e+57
          1169.66620	         1.64777e+58
          1170.47250	         1.43670e+58
          1171.27880	         9.80412e+57
          1172.08510	         7.91596e+57
          1172.89140	         7.05993e+57
          1173.69770	         1.30894e+58
          1174.50400	         1.40653e+58
          1175.31030	         1.43546e+58
          1176.11660	         1.28077e+58
          1176.92290	         1.35556e+58
          1177.72920	         1.31708e+58
          1178.53550	         7.54634e+57
          1179.34180	         3.31499e+57
          1180.14810	         9.57991e+57
          1180.95440	         1.48127e+58
          1181.76070	         1.15515e+58
          1182.56700	         1.07286e+58
          1183.37330	         6.33279e+57
          1184.17960	         1.05512e+58
          1184.98590	         1.11599e+58
          1185.79220	         7.31248e+57
          1186.59850	         1.05930e+58
          1187.40480	         1.51890e+58
          1188.21110	         2.00149e+58
          1189.01740	         8.36923e+57
          1189.82370	         1.07361e+58
          1190.63000	         1.45673e+58
          1191.43630	         1.55522e+58
          1192.24260	         1.20497e+58
          1193.04890	         1.05064e+58
          1193.85520	         1.27102e+58
          1194.66150	         3.14437e+57
          1195.46780	         1.47997e+58
          1196.27410	         1.50176e+58
          1197.08040	         1.18740e+58
          1197.88670	         1.20651e+58
          1198.69300	         1.54948e+58
          1199.49930	         1.90100e+58
          1200.30560	         1.13728e+58
          1201.11190	         8.91298e+57
          1201.91820	         1.29155e+58
          1202.72450	         7.18666e+57
          1203.53080	         1.40349e+58
          1204.33710	         7.88477e+57
          1205.14340	         9.76985e+57
          1205.94970	         1.10756e+58
          1206.75600	         8.92146e+57
          1207.56230	         4.69905e+57
          1208.36860	         6.02937e+57
          1209.17490	         1.01041e+58
          1209.98120	         1.08982e+58
          1210.78750	         1.07070e+58
          1211.59380	         1.39305e+58
          1212.40010	         1.67549e+58
          1213.20640	         1.85304e+58
          1214.01270	         2.13319e+58
          1214.81900	         2.55122e+58
          1215.62530	         4.79917e+58
          1216.43160	         9.57490e+58
          1217.23790	         1.52684e+59
          1218.04420	         1.13547e+59
          1218.85050	         8.49266e+58
          1219.65680	         5.70075e+58
          1220.46310	         3.08196e+58
          1221.26940	         2.05436e+58
          1222.07570	         1.19688e+58
          1222.88200	         1.06790e+58
          1223.68830	         1.04162e+58
          1224.49460	         7.47366e+57
          1225.30090	         8.56572e+57
          1226.10720	         5.72874e+57
          1226.91350	         6.35116e+57
          1227.71980	         1.08426e+58
          1228.52610	         1.05427e+58
          1229.33240	         1.01245e+58
          1230.13870	         1.31926e+58
          1230.94500	         1.21499e+58
          1231.75130	         5.10777e+57
          1232.55760	         7.46837e+57
          1233.36390	         8.87774e+57
          1234.17020	         7.72490e+57
          1234.97650	         8.25497e+57
          1235.78280	         7.53751e+57
          1236.58910	         7.86652e+57
          1237.39540	         1.05383e+58
          1238.20170	         7.66224e+57
          1239.00800	         8.57834e+57
          1239.81430	         1.12898e+58
          1240.62060	         9.90771e+57
          1241.42690	         1.08549e+58
          1242.23320	         1.16904e+58
          1243.03950	         8.88223e+57
          1243.84580	         8.50377e+57
          1244.65210	         1.02550e+58
          1245.45840	         1.04640e+58
          1246.26470	         9.08902e+57
          1247.07100	         7.01297e+57
          1247.87730	         4.83368e+57
          1248.68360	         3.39999e+57
          1249.48990	         8.17258e+57
          1250.29620	         1.00183e+58
          1251.10250	         8.27981e+57
          1251.90880	         6.95725e+57
          1252.71510	         7.43796e+57
          1253.52140	         7.03908e+57
          1254.32770	         9.44353e+57
          1255.13400	         1.39789e+58
          1255.94030	         1.15892e+58
          1256.74660	         8.29683e+57
          1257.55290	         9.38522e+57
          1258.35920	         7.01134e+57
          1259.16550	         3.58818e+57
          1259.97180	         5.45579e+57
          1260.77810	         7.52479e+57
          1261.58440	         1.16658e+58
          1262.39070	         9.57638e+57
          1263.19700	         8.51135e+57
          1264.00330	         1.03973e+58
          1264.80960	         1.05173e+58
          1265.61590	         1.21881e+58
          1266.42220	         1.29169e+58
          1267.22850	         1.12978e+58
          1268.03480	         1.23270e+58
          1268.84110	         1.41713e+58
          1269.64740	         1.27050e+58
          1270.45370	         1.23631e+58
          1271.26000	         1.08192e+58
          1272.06630	         1.27096e+58
          1272.87260	         1.44591e+58
          1273.67890	         1.32529e+58
          1274.48520	         1.29779e+58
          1275.29150	         1.37069e+58
          1276.09780	         1.06814e+58
          1276.90410	         1.27520e+58
          1277.71040	         1.27422e+58
          1278.51670	         1.11470e+58
          1279.32300	         1.36875e+58
          1280.12930	         1.23701e+58
          1280.93560	         1.16413e+58
          1281.74190	         1.24027e+58
          1282.54820	         1.30572e+58
          1283.35450	         1.38122e+58
          1284.16080	         1.41968e+58
          1284.96710	         1.23888e+58
          1285.77340	         9.86365e+57
          1286.57970	         1.29692e+58
          1287.38600	         1.50240e+58
          1288.19230	         1.54590e+58
          1288.99860	         1.52064e+58
          1289.80490	         1.23163e+58
          1290.61120	         1.28367e+58
          1291.41750	         1.32856e+58
          1292.22380	         1.04590e+58
          1293.03010	         9.19772e+57
          1293.83640	         1.12028e+58
          1294.64270	         9.98169e+57
          1295.44900	         7.22282e+57
          1296.25530	         6.86270e+57
          1297.06160	         8.21550e+57
          1297.86790	         9.20960e+57
          1298.67420	         7.86667e+57
          1299.48050	         8.86163e+57
          1300.28680	         1.07010e+58
          1301.09310	         9.26914e+57
          1301.89940	         5.67919e+57
          1302.70570	         6.56339e+57
          1303.51200	         6.28969e+57
          1304.31830	         8.68175e+57
          1305.12460	         1.03330e+58
          1305.93090	         9.70782e+57
          1306.73720	         1.16000e+58
          1307.54350	         1.17341e+58
          1308.34980	         1.36024e+58
          1309.15610	         1.54212e+58
          1309.96240	         1.43096e+58
          1310.76870	         1.14278e+58
          1311.57500	         1.15597e+58
          1312.38130	         1.29306e+58
          1313.18760	         1.45225e+58
          1313.99390	         1.58081e+58
          1314.80020	         1.56978e+58
          1315.60650	         1.55846e+58
          1316.41280	         1.28028e+58
          1317.21910	         9.64569e+57
          1318.02540	         1.07676e+58
          1318.83170	         1.21776e+58
          1319.63800	         1.07017e+58
          1320.44430	         1.02793e+58
          1321.25060	         1.16610e+58
          1322.05690	         1.24915e+58
          1322.86320	         1.23572e+58
          1323.66950	         1.09271e+58
          1324.47580	         9.14232e+57
          1325.28210	         1.02379e+58
          1326.08840	         1.17299e+58
          1326.89470	         1.15835e+58
          1327.70100	         9.13428e+57
          1328.50730	         7.08202e+57
          1329.31360	         8.81742e+57
          1330.11990	         9.29499e+57
          1330.92620	         7.72899e+57
          1331.73250	         9.03900e+57
          1332.53880	         9.74844e+57
          1333.34510	         9.93575e+57
          1334.15140	         9.46346e+57
          1334.95770	         9.59147e+57
          1335.76400	         1.07388e+58
          1336.57030	         1.19339e+58
          1337.37660	         1.20540e+58
          1338.18290	         1.20765e+58
          1338.98920	         1.11862e+58
          1339.79550	         1.06091e+58
          1340.60180	         1.22866e+58
          1341.40810	         1.22189e+58
          1342.21440	         1.05343e+58
          1343.02070	         1.31155e+58
          1343.82700	         1.44449e+58
          1344.63330	         1.45445e+58
          1345.43960	         1.35150e+58
          1346.24590	         8.41181e+57
          1347.05220	         9.84314e+57
          1347.85850	         1.14576e+58
          1348.66480	         1.25133e+58
          1349.47110	         1.28868e+58
          1350.27740	         1.19137e+58
          1351.08370	         1.22131e+58
          1351.89000	         1.13807e+58
          1352.69630	         1.14713e+58
          1353.50260	         1.17956e+58
          1354.30890	         1.10779e+58
          1355.11520	         1.06173e+58
          1355.92150	         9.41562e+57
          1356.72780	         8.47492e+57
          1357.53410	         9.23684e+57
          1358.34040	         1.02889e+58
          1359.14670	         9.80421e+57
          1359.95300	         9.77081e+57
          1360.75930	         1.15999e+58
          1361.56560	         1.10421e+58
          1362.37190	         9.77515e+57
          1363.17820	         1.01519e+58
          1363.98450	         1.01812e+58
          1364.79080	         1.12819e+58
          1365.59710	         1.24499e+58
          1366.40340	         1.18982e+58
          1367.20970	         9.63045e+57
          1368.01600	         8.17497e+57
          1368.82230	         1.03760e+58
          1369.62860	         1.21692e+58
          1370.43490	         1.01516e+58
          1371.24120	         9.35348e+57
          1372.04750	         9.81786e+57
          1372.85380	         1.17835e+58
          1373.66010	         1.12674e+58
          1374.46640	         1.10104e+58
          1375.27270	         1.08722e+58
          1376.07900	         8.79293e+57
          1376.88530	         7.52521e+57
          1377.69160	         7.79562e+57
          1378.49790	         6.44523e+57
          1379.30420	         7.39020e+57
          1380.11050	         8.63034e+57
          1380.91680	         8.21601e+57
          1381.72310	         7.88229e+57
          1382.52940	         7.65062e+57
          1383.33570	         9.07612e+57
          1384.14200	         9.36743e+57
          1384.94830	         1.01087e+58
          1385.75460	         1.10596e+58
          1386.56090	         1.23818e+58
          1387.36720	         1.13892e+58
          1388.17350	         1.22564e+58
          1388.97980	         1.02185e+58
          1389.78610	         8.49919e+57
          1390.59240	         8.30371e+57
          1391.39870	         7.69891e+57
          1392.20500	         8.57971e+57
          1393.01130	         6.77627e+57
          1393.81760	         7.18803e+57
          1394.62390	         7.91060e+57
          1395.43020	         6.91960e+57
          1396.23650	         7.12535e+57
          1397.04280	         7.04140e+57
          1397.84910	         7.66807e+57
          1398.65540	         8.58509e+57
          1399.46170	         9.44487e+57
          1400.26800	         9.28374e+57
          1401.07430	         8.38439e+57
          1401.88060	         8.86550e+57
          1402.68690	         9.57844e+57
          1403.49320	         7.97677e+57
          1404.29950	         7.81348e+57
          1405.10580	         1.01347e+58
          1405.91210	         1.15679e+58
          1406.71840	         1.06226e+58
          1407.52470	         9.37010e+57
          1408.33100	         9.95124e+57
          1409.13730	         1.03238e+58
          1409.94360	         1.10583e+58
          1410.74990	         1.19783e+58
          1411.55620	         1.01079e+58
          1412.36250	         9.22425e+57
          1413.16880	         8.83163e+57
          1413.97510	         6.32481e+57
          1414.78140	         7.99973e+57
          1415.58770	         1.03409e+58
          1416.39400	         1.08579e+58
          1417.20030	         1.07354e+58
          1418.00660	         9.22617e+57
          1418.81290	         9.58718e+57
          1419.61920	         8.98789e+57
          1420.42550	         1.19201e+58
          1421.23180	         1.39167e+58
          1422.03810	         1.24693e+58
          1422.84440	         1.11255e+58
          1423.65070	         1.17128e+58
          1424.45700	         1.08425e+58
          1425.26330	         9.85738e+57
          1426.06960	         8.43285e+57
          1426.87590	         9.26871e+57
          1427.68220	         9.20577e+57
          1428.48850	         9.88438e+57
          1429.29480	         1.01082e+58
          1430.10110	         9.13434e+57
          1430.90740	         7.81864e+57
          1431.71370	         8.15354e+57
          1432.52000	         8.64752e+57
          1433.32630	         7.96647e+57
          1434.13260	         7.86172e+57
          1434.93890	         8.56988e+57
          1435.74520	         9.15802e+57
          1436.55150	         8.64945e+57
          1437.35780	         8.64398e+57
          1438.16410	         9.66227e+57
          1438.97040	         9.81439e+57
          1439.77670	         8.93700e+57
          1440.58300	         8.83043e+57
          1441.38930	         9.71589e+57
          1442.19560	         9.19709e+57
          1443.00190	         9.50438e+57
          1443.80820	         1.11198e+58
          1444.61450	         9.86116e+57
          1445.42080	         9.00338e+57
          1446.22710	         1.10006e+58
          1447.03340	         1.08251e+58
          1447.83970	         1.08176e+58
          1448.64600	         1.10942e+58
          1449.45230	         1.09728e+58
          1450.25860	         1.02567e+58
          1451.06490	         8.34854e+57
          1451.87120	         6.82218e+57
          1452.67750	         6.66427e+57
          1453.48380	         7.46140e+57
          1454.29010	         7.68432e+57
          1455.09640	         7.91491e+57
          1455.90270	         8.62738e+57
          1456.70900	         8.27007e+57
          1457.51530	         8.47099e+57
          1458.32160	         1.03914e+58
          1459.12790	         9.79971e+57
          1459.93420	         8.69054e+57
          1460.74050	         7.36517e+57
          1461.54680	         7.89156e+57
          1462.35310	         7.76223e+57
          1463.15940	         8.64769e+57
          1463.96570	         9.30878e+57
          1464.77200	         1.03316e+58
          1465.57830	         1.03873e+58
          1466.38460	         9.62834e+57
          1467.19090	         8.20663e+57
          1467.99720	         8.42073e+57
          1468.80350	         9.08749e+57
          1469.60980	         8.65094e+57
          1470.41610	         9.91936e+57
          1471.22240	         9.15373e+57
          1472.02870	         8.64914e+57
          1472.83500	         1.00826e+58
          1473.64130	         1.04784e+58
          1474.44760	         9.44319e+57
          1475.25390	         8.56657e+57
          1476.06020	         7.84868e+57
          1476.86650	         8.45799e+57
          1477.67280	         7.81113e+57
          1478.47910	         7.03093e+57
          1479.28540	         7.19128e+57
          1480.09170	         6.85212e+57
          1480.89800	         8.26997e+57
          1481.70430	         8.15600e+57
          1482.51060	         7.75109e+57
          1483.31690	         7.63699e+57
          1484.12320	         6.97600e+57
          1484.92950	         7.38028e+57
          1485.73580	         7.96736e+57
          1486.54210	         8.52724e+57
          1487.34840	         8.74743e+57
          1488.15470	         8.04868e+57
          1488.96100	         7.84085e+57
          1489.76730	         8.49420e+57
