#sample_39_stacked_spectrum_rest_UV-bands_median_H-alpha_noDC.txt
#median Lum: 1.67641e+42
#Rest-frame wavelength (A) | Luminosity (erg/s/A)
#
          1110.00000	         0.00000e+00
          1110.80630	        -2.05955e+59
          1111.61260	         3.15630e+59
          1112.41890	         3.40662e+59
          1113.22520	         3.69824e+58
          1114.03150	        -9.86424e+58
          1114.83780	         2.38694e+59
          1115.64410	         1.11684e+59
          1116.45040	         4.68595e+58
          1117.25670	        -1.10851e+59
          1118.06300	         5.98904e+58
          1118.86930	         7.68965e+58
          1119.67560	         1.39176e+59
          1120.48190	         4.46740e+58
          1121.28820	        -9.13140e+58
          1122.09450	         8.36822e+58
          1122.90080	         4.80574e+58
          1123.70710	         9.38227e+58
          1124.51340	         8.96653e+58
          1125.31970	         9.11969e+57
          1126.12600	         2.51092e+58
          1126.93230	        -8.36962e+58
          1127.73860	        -8.02902e+58
          1128.54490	         5.87242e+57
          1129.35120	         2.43711e+58
          1130.15750	         1.45550e+58
          1130.96380	        -1.55147e+58
          1131.77010	         4.47597e+58
          1132.57640	         2.73604e+58
          1133.38270	         4.28055e+58
          1134.18900	         4.61799e+58
          1134.99530	        -2.65766e+57
          1135.80160	         9.02960e+57
          1136.60790	         3.01794e+58
          1137.41420	         1.02620e+58
          1138.22050	         2.72801e+58
          1139.02680	         3.62644e+58
          1139.83310	         2.27822e+58
          1140.63940	         8.33539e+57
          1141.44570	        -1.91452e+58
          1142.25200	        -2.08180e+58
          1143.05830	         6.26797e+57
          1143.86460	         2.83890e+58
          1144.67090	         1.80588e+58
          1145.47720	         4.39876e+57
          1146.28350	         3.28521e+57
          1147.08980	         9.94416e+57
          1147.89610	        -1.55198e+57
          1148.70240	         2.10009e+58
          1149.50870	         2.25700e+58
          1150.31500	         2.59669e+58
          1151.12130	         1.62052e+58
          1151.92760	        -7.26495e+57
          1152.73390	         5.98265e+57
          1153.54020	         3.93398e+57
          1154.34650	         2.29732e+58
          1155.15280	         2.36480e+58
          1155.95910	         1.03681e+58
          1156.76540	         7.11463e+57
          1157.57170	        -2.03757e+57
          1158.37800	        -1.39465e+58
          1159.18430	         1.34010e+57
          1159.99060	         1.44634e+58
          1160.79690	         8.74468e+57
          1161.60320	         2.04202e+58
          1162.40950	         1.93368e+58
          1163.21580	         2.68339e+58
          1164.02210	         1.21604e+58
          1164.82840	         7.50630e+57
          1165.63470	         7.99150e+57
          1166.44100	         2.65811e+58
          1167.24730	         1.81405e+58
          1168.05360	         7.86910e+57
          1168.85990	         9.23263e+57
          1169.66620	         1.29960e+58
          1170.47250	         1.31467e+58
          1171.27880	         1.73396e+58
          1172.08510	         1.67642e+58
          1172.89140	         1.27399e+58
          1173.69770	         1.52520e+58
          1174.50400	         1.67432e+58
          1175.31030	         1.88904e+58
          1176.11660	         1.43391e+58
          1176.92290	         1.28020e+58
          1177.72920	         1.16921e+58
          1178.53550	         1.00927e+58
          1179.34180	         9.45890e+57
          1180.14810	         1.14205e+58
          1180.95440	         9.46197e+57
          1181.76070	         7.30130e+57
          1182.56700	         1.00065e+58
          1183.37330	         5.97980e+57
          1184.17960	         1.06491e+58
          1184.98590	         1.09702e+58
          1185.79220	         6.75989e+57
          1186.59850	         9.62657e+57
          1187.40480	         9.53227e+57
          1188.21110	         1.86344e+58
          1189.01740	         1.05339e+58
          1189.82370	         5.28252e+57
          1190.63000	         9.41060e+57
          1191.43630	         1.19205e+58
          1192.24260	         1.15342e+58
          1193.04890	         1.18953e+58
          1193.85520	         1.24855e+58
          1194.66150	         3.36232e+57
          1195.46780	         4.36996e+57
          1196.27410	         1.23427e+58
          1197.08040	         8.37141e+57
          1197.88670	         8.16322e+57
          1198.69300	         1.44372e+58
          1199.49930	         1.90733e+58
          1200.30560	         1.56963e+58
          1201.11190	         1.13740e+58
          1201.91820	         1.14505e+58
          1202.72450	         1.27897e+58
          1203.53080	         1.42150e+58
          1204.33710	         1.01108e+58
          1205.14340	         4.36049e+57
          1205.94970	         8.15764e+57
          1206.75600	         5.74906e+57
          1207.56230	         5.20733e+57
          1208.36860	         1.00881e+58
          1209.17490	         6.80122e+57
          1209.98120	         8.59131e+57
          1210.78750	         5.73109e+57
          1211.59380	         7.73831e+57
          1212.40010	         1.79351e+58
          1213.20640	         2.14906e+58
          1214.01270	         2.06325e+58
          1214.81900	         2.66664e+58
          1215.62530	         4.81135e+58
          1216.43160	         9.29102e+58
          1217.23790	         1.51829e+59
          1218.04420	         1.16921e+59
          1218.85050	         8.71080e+58
          1219.65680	         5.36915e+58
          1220.46310	         3.20128e+58
          1221.26940	         2.43253e+58
          1222.07570	         1.54383e+58
          1222.88200	         1.28674e+58
          1223.68830	         8.95881e+57
          1224.49460	         7.86256e+57
          1225.30090	         5.27819e+57
          1226.10720	         7.58576e+57
          1226.91350	         6.68993e+57
          1227.71980	         6.79014e+57
          1228.52610	         9.90521e+57
          1229.33240	         7.90503e+57
          1230.13870	         9.50712e+57
          1230.94500	         1.01020e+58
          1231.75130	         8.19640e+57
          1232.55760	         9.91170e+57
          1233.36390	         8.91286e+57
          1234.17020	         6.20381e+57
          1234.97650	         7.87046e+57
          1235.78280	         6.67309e+57
          1236.58910	         8.35881e+57
          1237.39540	         1.17518e+58
          1238.20170	         9.50141e+57
          1239.00800	         1.16730e+58
          1239.81430	         1.70236e+58
          1240.62060	         1.10645e+58
          1241.42690	         9.52588e+57
          1242.23320	         1.34904e+58
          1243.03950	         9.03156e+57
          1243.84580	         7.83729e+57
          1244.65210	         9.62808e+57
          1245.45840	         1.05562e+58
          1246.26470	         9.91669e+57
          1247.07100	         1.02727e+58
          1247.87730	         7.19146e+57
          1248.68360	         3.34668e+57
          1249.48990	         9.44808e+57
          1250.29620	         1.17257e+58
          1251.10250	         1.08351e+58
          1251.90880	         7.60805e+57
          1252.71510	         6.67151e+57
          1253.52140	         5.89773e+57
          1254.32770	         1.00980e+58
          1255.13400	         1.25522e+58
          1255.94030	         1.16134e+58
          1256.74660	         1.17030e+58
          1257.55290	         1.05112e+58
          1258.35920	         8.32174e+57
          1259.16550	         6.92102e+57
          1259.97180	         6.86901e+57
          1260.77810	         8.23099e+57
          1261.58440	         1.06119e+58
          1262.39070	         7.41878e+57
          1263.19700	         5.75919e+57
          1264.00330	         8.37330e+57
          1264.80960	         1.16854e+58
          1265.61590	         1.41133e+58
          1266.42220	         1.26969e+58
          1267.22850	         1.16993e+58
          1268.03480	         1.47267e+58
          1268.84110	         1.30002e+58
          1269.64740	         1.33523e+58
          1270.45370	         1.39175e+58
          1271.26000	         1.37234e+58
          1272.06630	         1.38302e+58
          1272.87260	         1.28192e+58
          1273.67890	         1.17199e+58
          1274.48520	         1.16870e+58
          1275.29150	         1.28461e+58
          1276.09780	         1.24762e+58
          1276.90410	         1.39231e+58
          1277.71040	         1.19952e+58
          1278.51670	         1.12374e+58
          1279.32300	         1.48454e+58
          1280.12930	         1.38228e+58
          1280.93560	         1.32880e+58
          1281.74190	         1.39451e+58
          1282.54820	         1.14169e+58
          1283.35450	         9.83086e+57
          1284.16080	         1.22001e+58
          1284.96710	         1.43351e+58
          1285.77340	         1.41692e+58
          1286.57970	         1.33645e+58
          1287.38600	         1.70992e+58
          1288.19230	         1.89013e+58
          1288.99860	         1.57918e+58
          1289.80490	         1.15088e+58
          1290.61120	         1.25344e+58
          1291.41750	         1.37094e+58
          1292.22380	         1.20789e+58
          1293.03010	         1.16806e+58
          1293.83640	         1.12121e+58
          1294.64270	         1.06533e+58
          1295.44900	         6.30101e+57
          1296.25530	         7.41717e+57
          1297.06160	         1.02195e+58
          1297.86790	         1.03215e+58
          1298.67420	         9.06020e+57
          1299.48050	         9.15021e+57
          1300.28680	         1.04001e+58
          1301.09310	         6.39011e+57
          1301.89940	         2.81221e+57
          1302.70570	         7.61210e+57
          1303.51200	         8.80685e+57
          1304.31830	         9.72946e+57
          1305.12460	         1.03781e+58
          1305.93090	         1.03267e+58
          1306.73720	         1.24065e+58
          1307.54350	         1.49899e+58
          1308.34980	         1.60685e+58
          1309.15610	         1.55064e+58
          1309.96240	         1.41136e+58
          1310.76870	         1.24417e+58
          1311.57500	         1.33913e+58
          1312.38130	         1.80659e+58
          1313.18760	         1.61764e+58
          1313.99390	         1.66889e+58
          1314.80020	         1.74149e+58
          1315.60650	         1.70930e+58
          1316.41280	         1.43138e+58
          1317.21910	         1.17668e+58
          1318.02540	         1.38171e+58
          1318.83170	         1.48882e+58
          1319.63800	         1.25051e+58
          1320.44430	         1.08626e+58
          1321.25060	         1.09958e+58
          1322.05690	         1.06938e+58
          1322.86320	         1.21901e+58
          1323.66950	         1.28548e+58
          1324.47580	         1.03590e+58
          1325.28210	         9.54459e+57
          1326.08840	         1.21333e+58
          1326.89470	         1.38103e+58
          1327.70100	         1.14525e+58
          1328.50730	         8.41073e+57
          1329.31360	         9.25964e+57
          1330.11990	         1.01174e+58
          1330.92620	         9.11144e+57
          1331.73250	         1.01825e+58
          1332.53880	         9.18214e+57
          1333.34510	         8.11015e+57
          1334.15140	         8.57007e+57
          1334.95770	         8.17244e+57
          1335.76400	         9.65000e+57
          1336.57030	         1.03956e+58
          1337.37660	         1.03309e+58
          1338.18290	         1.12745e+58
          1338.98920	         1.22354e+58
          1339.79550	         1.22055e+58
          1340.60180	         1.14036e+58
          1341.40810	         1.32801e+58
          1342.21440	         1.32246e+58
          1343.02070	         1.27060e+58
          1343.82700	         1.35414e+58
          1344.63330	         1.18061e+58
          1345.43960	         1.32575e+58
          1346.24590	         1.26688e+58
          1347.05220	         1.11558e+58
          1347.85850	         9.96074e+57
          1348.66480	         1.11426e+58
          1349.47110	         1.32451e+58
          1350.27740	         1.19735e+58
          1351.08370	         1.20637e+58
          1351.89000	         1.14896e+58
          1352.69630	         1.17250e+58
          1353.50260	         1.13800e+58
          1354.30890	         1.06505e+58
          1355.11520	         1.26418e+58
          1355.92150	         1.05031e+58
          1356.72780	         1.01937e+58
          1357.53410	         1.13877e+58
          1358.34040	         1.00130e+58
          1359.14670	         1.02604e+58
          1359.95300	         1.11157e+58
          1360.75930	         1.08126e+58
          1361.56560	         9.77501e+57
          1362.37190	         1.15700e+58
          1363.17820	         1.14439e+58
          1363.98450	         1.09923e+58
          1364.79080	         1.19360e+58
          1365.59710	         1.37680e+58
          1366.40340	         1.23903e+58
          1367.20970	         9.93033e+57
          1368.01600	         9.42020e+57
          1368.82230	         8.95775e+57
          1369.62860	         9.09871e+57
          1370.43490	         8.24493e+57
          1371.24120	         8.62136e+57
          1372.04750	         8.23407e+57
          1372.85380	         9.37802e+57
          1373.66010	         1.03388e+58
          1374.46640	         9.86406e+57
          1375.27270	         9.89213e+57
          1376.07900	         9.83668e+57
          1376.88530	         9.78347e+57
          1377.69160	         8.54559e+57
          1378.49790	         7.72323e+57
          1379.30420	         8.35421e+57
          1380.11050	         8.61050e+57
          1380.91680	         8.73745e+57
          1381.72310	         9.18965e+57
          1382.52940	         8.90473e+57
          1383.33570	         9.26682e+57
          1384.14200	         1.07264e+58
          1384.94830	         1.13299e+58
          1385.75460	         1.03266e+58
          1386.56090	         9.91611e+57
          1387.36720	         1.05158e+58
          1388.17350	         1.25183e+58
          1388.97980	         1.08899e+58
          1389.78610	         9.41815e+57
          1390.59240	         8.51216e+57
          1391.39870	         8.28349e+57
          1392.20500	         7.89506e+57
          1393.01130	         6.72273e+57
          1393.81760	         7.26694e+57
          1394.62390	         7.84671e+57
          1395.43020	         7.93657e+57
          1396.23650	         7.53683e+57
          1397.04280	         7.14822e+57
          1397.84910	         7.78165e+57
          1398.65540	         8.21670e+57
          1399.46170	         9.91535e+57
          1400.26800	         9.16412e+57
          1401.07430	         6.77113e+57
          1401.88060	         7.46067e+57
          1402.68690	         9.41792e+57
          1403.49320	         9.33580e+57
          1404.29950	         9.43931e+57
          1405.10580	         1.00901e+58
          1405.91210	         1.05426e+58
          1406.71840	         1.11286e+58
          1407.52470	         1.11123e+58
          1408.33100	         1.05544e+58
          1409.13730	         1.10340e+58
          1409.94360	         1.16025e+58
          1410.74990	         1.29751e+58
          1411.55620	         1.17062e+58
          1412.36250	         9.68901e+57
          1413.16880	         9.11605e+57
          1413.97510	         8.34262e+57
          1414.78140	         8.65928e+57
          1415.58770	         9.25064e+57
          1416.39400	         9.75986e+57
          1417.20030	         1.05478e+58
          1418.00660	         1.01171e+58
          1418.81290	         1.05442e+58
          1419.61920	         9.70912e+57
          1420.42550	         1.22494e+58
          1421.23180	         1.37151e+58
          1422.03810	         1.31800e+58
          1422.84440	         1.15643e+58
          1423.65070	         1.30822e+58
          1424.45700	         1.14509e+58
          1425.26330	         9.28375e+57
          1426.06960	         8.57141e+57
          1426.87590	         9.64655e+57
          1427.68220	         1.02626e+58
          1428.48850	         1.05752e+58
          1429.29480	         1.03253e+58
          1430.10110	         1.02179e+58
          1430.90740	         8.45536e+57
          1431.71370	         7.89654e+57
          1432.52000	         9.09566e+57
          1433.32630	         8.98467e+57
          1434.13260	         7.97015e+57
          1434.93890	         7.75800e+57
          1435.74520	         8.17456e+57
          1436.55150	         9.42028e+57
          1437.35780	         9.16983e+57
          1438.16410	         9.36301e+57
          1438.97040	         9.66036e+57
          1439.77670	         9.01046e+57
          1440.58300	         8.44797e+57
          1441.38930	         9.59515e+57
          1442.19560	         9.65200e+57
          1443.00190	         9.60747e+57
          1443.80820	         1.10469e+58
          1444.61450	         9.92017e+57
          1445.42080	         7.61481e+57
          1446.22710	         9.15096e+57
          1447.03340	         1.01119e+58
          1447.83970	         1.08795e+58
          1448.64600	         1.08272e+58
          1449.45230	         9.37826e+57
          1450.25860	         1.01379e+58
          1451.06490	         9.94184e+57
          1451.87120	         8.46520e+57
          1452.67750	         6.88200e+57
          1453.48380	         8.04610e+57
          1454.29010	         8.50737e+57
          1455.09640	         7.82184e+57
          1455.90270	         8.97542e+57
          1456.70900	         9.27194e+57
          1457.51530	         9.45517e+57
          1458.32160	         1.03396e+58
          1459.12790	         1.08382e+58
          1459.93420	         9.91337e+57
          1460.74050	         8.04280e+57
          1461.54680	         8.12022e+57
          1462.35310	         8.33640e+57
          1463.15940	         8.21600e+57
          1463.96570	         1.02117e+58
          1464.77200	         1.06884e+58
          1465.57830	         1.00232e+58
          1466.38460	         9.82522e+57
          1467.19090	         9.56295e+57
          1467.99720	         9.44738e+57
          1468.80350	         9.99429e+57
          1469.60980	         9.62759e+57
          1470.41610	         1.01408e+58
          1471.22240	         1.01622e+58
          1472.02870	         9.83624e+57
          1472.83500	         9.66501e+57
          1473.64130	         1.04097e+58
          1474.44760	         1.09460e+58
          1475.25390	         9.11273e+57
          1476.06020	         8.43187e+57
          1476.86650	         8.66586e+57
          1477.67280	         7.85582e+57
          1478.47910	         6.64950e+57
          1479.28540	         6.73319e+57
          1480.09170	         7.87895e+57
          1480.89800	         8.36955e+57
          1481.70430	         8.40400e+57
          1482.51060	         8.59137e+57
          1483.31690	         7.47519e+57
          1484.12320	         7.59727e+57
          1484.92950	         8.05867e+57
          1485.73580	         7.91867e+57
          1486.54210	         8.63564e+57
          1487.34840	         8.84559e+57
          1488.15470	         7.91258e+57
          1488.96100	         8.09369e+57
          1489.76730	         8.85320e+57
