#sample_115_stacked_spectrum_rest_UV-bands_median_H-alpha_noDC.txt
#median Lum: 1.68715e+42
#Rest-frame wavelength (A) | Luminosity (erg/s/A)
#
          1110.00000	         0.00000e+00
          1110.80630	         7.32302e+58
          1111.61260	        -3.68063e+58
          1112.41890	         2.13694e+59
          1113.22520	         5.87908e+58
          1114.03150	        -3.40288e+58
          1114.83780	        -3.88371e+57
          1115.64410	         1.15020e+59
          1116.45040	         2.47402e+59
          1117.25670	         4.11261e+58
          1118.06300	         9.79971e+58
          1118.86930	         2.63518e+58
          1119.67560	         4.67313e+58
          1120.48190	        -1.73536e+58
          1121.28820	        -1.33260e+59
          1122.09450	         6.25269e+58
          1122.90080	         8.02219e+58
          1123.70710	         2.04128e+58
          1124.51340	         4.35467e+58
          1125.31970	         2.72305e+58
          1126.12600	        -1.29280e+58
          1126.93230	        -1.75411e+58
          1127.73860	        -2.79449e+58
          1128.54490	        -1.81989e+58
          1129.35120	        -2.61171e+58
          1130.15750	         1.84295e+58
          1130.96380	        -1.21805e+58
          1131.77010	         3.84448e+58
          1132.57640	         4.34060e+58
          1133.38270	         1.21260e+58
          1134.18900	         2.65512e+58
          1134.99530	         5.05304e+58
          1135.80160	         1.73216e+58
          1136.60790	         1.41456e+58
          1137.41420	        -1.05617e+58
          1138.22050	         3.44885e+58
          1139.02680	         4.16386e+58
          1139.83310	         8.38818e+57
          1140.63940	         1.62743e+58
          1141.44570	        -1.63383e+58
          1142.25200	        -1.08352e+58
          1143.05830	         1.69240e+57
          1143.86460	         1.90676e+58
          1144.67090	         4.17067e+58
          1145.47720	         8.83250e+57
          1146.28350	         6.63312e+57
          1147.08980	         1.39363e+58
          1147.89610	         7.12267e+57
          1148.70240	         1.45495e+58
          1149.50870	         2.05652e+58
          1150.31500	         2.20014e+58
          1151.12130	         9.00717e+57
          1151.92760	         9.19224e+57
          1152.73390	         5.25615e+57
          1153.54020	         1.01663e+58
          1154.34650	         2.40525e+58
          1155.15280	         2.84914e+58
          1155.95910	         4.26438e+57
          1156.76540	         1.30246e+57
          1157.57170	         4.93486e+57
          1158.37800	         1.95348e+57
          1159.18430	        -3.23076e+57
          1159.99060	         6.88260e+57
          1160.79690	         3.96822e+56
          1161.60320	         1.11972e+58
          1162.40950	         1.31216e+58
          1163.21580	         2.03158e+58
          1164.02210	         1.48611e+58
          1164.82840	         3.81840e+57
          1165.63470	         1.49516e+58
          1166.44100	         2.41992e+58
          1167.24730	         2.26652e+58
          1168.05360	         1.34206e+58
          1168.85990	         7.17813e+57
          1169.66620	         1.11702e+58
          1170.47250	         1.73602e+58
          1171.27880	         1.29955e+58
          1172.08510	         1.34424e+58
          1172.89140	         1.26687e+58
          1173.69770	         3.77233e+57
          1174.50400	         4.78628e+57
          1175.31030	         1.31614e+58
          1176.11660	         1.21067e+58
          1176.92290	         1.19733e+58
          1177.72920	         1.20442e+58
          1178.53550	         1.08581e+58
          1179.34180	         1.14861e+58
          1180.14810	         8.51801e+57
          1180.95440	         5.11262e+57
          1181.76070	         3.86555e+57
          1182.56700	         6.72343e+57
          1183.37330	         7.03266e+57
          1184.17960	         1.07291e+58
          1184.98590	         1.15561e+58
          1185.79220	         6.01637e+57
          1186.59850	         1.05878e+58
          1187.40480	         7.34432e+57
          1188.21110	         1.24415e+58
          1189.01740	         1.70186e+58
          1189.82370	         1.46347e+58
          1190.63000	         1.08534e+58
          1191.43630	         8.12551e+57
          1192.24260	         5.62954e+57
          1193.04890	         9.34736e+57
          1193.85520	         9.71644e+57
          1194.66150	         9.75554e+57
          1195.46780	         1.73461e+58
          1196.27410	         1.93138e+58
          1197.08040	         9.79479e+57
          1197.88670	         1.23379e+58
          1198.69300	         1.33104e+58
          1199.49930	         1.60262e+58
          1200.30560	         1.06592e+58
          1201.11190	         1.02913e+58
          1201.91820	         1.10699e+58
          1202.72450	         8.44598e+57
          1203.53080	         1.48082e+58
          1204.33710	         7.21026e+57
          1205.14340	         7.06850e+57
          1205.94970	         6.38972e+57
          1206.75600	         5.77671e+57
          1207.56230	         6.58358e+57
          1208.36860	         9.87995e+57
          1209.17490	         4.06961e+57
          1209.98120	         3.64936e+57
          1210.78750	         8.18039e+57
          1211.59380	         1.52910e+58
          1212.40010	         1.80832e+58
          1213.20640	         1.80047e+58
          1214.01270	         2.01515e+58
          1214.81900	         2.60981e+58
          1215.62530	         4.54482e+58
          1216.43160	         9.07223e+58
          1217.23790	         1.50963e+59
          1218.04420	         1.15551e+59
          1218.85050	         8.98995e+58
          1219.65680	         5.90105e+58
          1220.46310	         3.13739e+58
          1221.26940	         2.22109e+58
          1222.07570	         1.35339e+58
          1222.88200	         1.03439e+58
          1223.68830	         1.20332e+58
          1224.49460	         1.06144e+58
          1225.30090	         1.07328e+58
          1226.10720	         1.00942e+58
          1226.91350	         8.06561e+57
          1227.71980	         7.37224e+57
          1228.52610	         1.14362e+58
          1229.33240	         9.07889e+57
          1230.13870	         7.54831e+57
          1230.94500	         7.51364e+57
          1231.75130	         8.45341e+57
          1232.55760	         1.09794e+58
          1233.36390	         1.09838e+58
          1234.17020	         9.00829e+57
          1234.97650	         7.57933e+57
          1235.78280	         8.18094e+57
          1236.58910	         8.84992e+57
          1237.39540	         8.86112e+57
          1238.20170	         9.37538e+57
          1239.00800	         1.15946e+58
          1239.81430	         1.29683e+58
          1240.62060	         9.60367e+57
          1241.42690	         9.79588e+57
          1242.23320	         1.09847e+58
          1243.03950	         4.83561e+57
          1243.84580	         9.15029e+57
          1244.65210	         1.42922e+58
          1245.45840	         1.06552e+58
          1246.26470	         7.22814e+57
          1247.07100	         7.30394e+57
          1247.87730	         6.35170e+57
          1248.68360	         2.38754e+57
          1249.48990	         4.53157e+57
          1250.29620	         7.53136e+57
          1251.10250	         7.45506e+57
          1251.90880	         6.76227e+57
          1252.71510	         6.56666e+57
          1253.52140	         9.17507e+57
          1254.32770	         1.05052e+58
          1255.13400	         1.42918e+58
          1255.94030	         1.28658e+58
          1256.74660	         1.25365e+58
          1257.55290	         9.54072e+57
          1258.35920	         6.16308e+57
          1259.16550	         5.49913e+57
          1259.97180	         5.58282e+57
          1260.77810	         9.60892e+57
          1261.58440	         1.22351e+58
          1262.39070	         7.40209e+57
          1263.19700	         9.22528e+57
          1264.00330	         1.18915e+58
          1264.80960	         9.80457e+57
          1265.61590	         1.04511e+58
          1266.42220	         1.13500e+58
          1267.22850	         1.07656e+58
          1268.03480	         1.42783e+58
          1268.84110	         1.41430e+58
          1269.64740	         1.12662e+58
          1270.45370	         1.24942e+58
          1271.26000	         1.04636e+58
          1272.06630	         1.07489e+58
          1272.87260	         1.53225e+58
          1273.67890	         1.32221e+58
          1274.48520	         1.16697e+58
          1275.29150	         1.43488e+58
          1276.09780	         1.24481e+58
          1276.90410	         1.35216e+58
          1277.71040	         1.29252e+58
          1278.51670	         1.14313e+58
          1279.32300	         1.33682e+58
          1280.12930	         1.34778e+58
          1280.93560	         1.17207e+58
          1281.74190	         1.16677e+58
          1282.54820	         1.32640e+58
          1283.35450	         1.02474e+58
          1284.16080	         1.07190e+58
          1284.96710	         1.45751e+58
          1285.77340	         1.42730e+58
          1286.57970	         1.24102e+58
          1287.38600	         1.59407e+58
          1288.19230	         2.04367e+58
          1288.99860	         1.83269e+58
          1289.80490	         1.21480e+58
          1290.61120	         1.28256e+58
          1291.41750	         1.38019e+58
          1292.22380	         1.32158e+58
          1293.03010	         9.75013e+57
          1293.83640	         1.01282e+58
          1294.64270	         1.04859e+58
          1295.44900	         7.64115e+57
          1296.25530	         7.72296e+57
          1297.06160	         8.91089e+57
          1297.86790	         1.07301e+58
          1298.67420	         1.09580e+58
          1299.48050	         1.20978e+58
          1300.28680	         1.16235e+58
          1301.09310	         1.02241e+58
          1301.89940	         5.51520e+57
          1302.70570	         6.22579e+57
          1303.51200	         7.30104e+57
          1304.31830	         9.40183e+57
          1305.12460	         1.15887e+58
          1305.93090	         1.09639e+58
          1306.73720	         1.25746e+58
          1307.54350	         1.35051e+58
          1308.34980	         1.59152e+58
          1309.15610	         1.82034e+58
          1309.96240	         1.66653e+58
          1310.76870	         1.21554e+58
          1311.57500	         1.17905e+58
          1312.38130	         1.06744e+58
          1313.18760	         1.16650e+58
          1313.99390	         1.55666e+58
          1314.80020	         1.62836e+58
          1315.60650	         1.60547e+58
          1316.41280	         1.49829e+58
          1317.21910	         1.14055e+58
          1318.02540	         1.08874e+58
          1318.83170	         1.08940e+58
          1319.63800	         1.24610e+58
          1320.44430	         1.25520e+58
          1321.25060	         1.22926e+58
          1322.05690	         1.26557e+58
          1322.86320	         1.32970e+58
          1323.66950	         1.16731e+58
          1324.47580	         1.02023e+58
          1325.28210	         1.02881e+58
          1326.08840	         1.13661e+58
          1326.89470	         1.26382e+58
          1327.70100	         9.49927e+57
          1328.50730	         6.81870e+57
          1329.31360	         7.93440e+57
          1330.11990	         9.47741e+57
          1330.92620	         9.53087e+57
          1331.73250	         1.19117e+58
          1332.53880	         1.04247e+58
          1333.34510	         8.98298e+57
          1334.15140	         9.00193e+57
          1334.95770	         9.37671e+57
          1335.76400	         1.03435e+58
          1336.57030	         9.77261e+57
          1337.37660	         1.01581e+58
          1338.18290	         1.13050e+58
          1338.98920	         1.17305e+58
          1339.79550	         1.15539e+58
          1340.60180	         1.18841e+58
          1341.40810	         1.28985e+58
          1342.21440	         1.24655e+58
          1343.02070	         1.26500e+58
          1343.82700	         1.32120e+58
          1344.63330	         1.37287e+58
          1345.43960	         1.49264e+58
          1346.24590	         1.43372e+58
          1347.05220	         1.31617e+58
          1347.85850	         1.00029e+58
          1348.66480	         1.03623e+58
          1349.47110	         1.32680e+58
          1350.27740	         1.41822e+58
          1351.08370	         1.24111e+58
          1351.89000	         1.12666e+58
          1352.69630	         1.16336e+58
          1353.50260	         1.18004e+58
          1354.30890	         1.20295e+58
          1355.11520	         1.16297e+58
          1355.92150	         1.13549e+58
          1356.72780	         1.14314e+58
          1357.53410	         1.28395e+58
          1358.34040	         1.26692e+58
          1359.14670	         9.97917e+57
          1359.95300	         1.10331e+58
          1360.75930	         1.22227e+58
          1361.56560	         1.12378e+58
          1362.37190	         1.16497e+58
          1363.17820	         1.09958e+58
          1363.98450	         1.12770e+58
          1364.79080	         1.25796e+58
          1365.59710	         1.28353e+58
          1366.40340	         1.17455e+58
          1367.20970	         9.93821e+57
          1368.01600	         8.97635e+57
          1368.82230	         9.89730e+57
          1369.62860	         1.23943e+58
          1370.43490	         1.20331e+58
          1371.24120	         1.06082e+58
          1372.04750	         8.86034e+57
          1372.85380	         1.02685e+58
          1373.66010	         1.09985e+58
          1374.46640	         1.07766e+58
          1375.27270	         1.21054e+58
          1376.07900	         1.11657e+58
          1376.88530	         1.04781e+58
          1377.69160	         9.11770e+57
          1378.49790	         8.05829e+57
          1379.30420	         8.37338e+57
          1380.11050	         8.48203e+57
          1380.91680	         8.67756e+57
          1381.72310	         8.44784e+57
          1382.52940	         8.69888e+57
          1383.33570	         8.77071e+57
          1384.14200	         9.63049e+57
          1384.94830	         8.44442e+57
          1385.75460	         9.39225e+57
          1386.56090	         1.08977e+58
          1387.36720	         1.08041e+58
          1388.17350	         1.23808e+58
          1388.97980	         9.80885e+57
          1389.78610	         8.84024e+57
          1390.59240	         8.47333e+57
          1391.39870	         6.78873e+57
          1392.20500	         8.09436e+57
          1393.01130	         7.67695e+57
          1393.81760	         8.52470e+57
          1394.62390	         9.27347e+57
          1395.43020	         6.92096e+57
          1396.23650	         7.87033e+57
          1397.04280	         8.43553e+57
          1397.84910	         8.74679e+57
          1398.65540	         9.13424e+57
          1399.46170	         9.88335e+57
          1400.26800	         8.14643e+57
          1401.07430	         6.66702e+57
          1401.88060	         8.76784e+57
          1402.68690	         1.06676e+58
          1403.49320	         9.56321e+57
          1404.29950	         8.34665e+57
          1405.10580	         9.50972e+57
          1405.91210	         1.08139e+58
          1406.71840	         1.11407e+58
          1407.52470	         1.10481e+58
          1408.33100	         1.04076e+58
          1409.13730	         1.20081e+58
          1409.94360	         1.20205e+58
          1410.74990	         1.12609e+58
          1411.55620	         9.54857e+57
          1412.36250	         8.80151e+57
          1413.16880	         8.87190e+57
          1413.97510	         9.25826e+57
          1414.78140	         9.16592e+57
          1415.58770	         1.12016e+58
          1416.39400	         1.09030e+58
          1417.20030	         9.12090e+57
          1418.00660	         9.86239e+57
          1418.81290	         1.21038e+58
          1419.61920	         1.22139e+58
          1420.42550	         1.21824e+58
          1421.23180	         1.40672e+58
          1422.03810	         1.29439e+58
          1422.84440	         1.15096e+58
          1423.65070	         1.31936e+58
          1424.45700	         1.11919e+58
          1425.26330	         8.99502e+57
          1426.06960	         9.09252e+57
          1426.87590	         9.96580e+57
          1427.68220	         9.88234e+57
          1428.48850	         1.08182e+58
          1429.29480	         1.04664e+58
          1430.10110	         9.51676e+57
          1430.90740	         8.85227e+57
          1431.71370	         8.92580e+57
          1432.52000	         9.36095e+57
          1433.32630	         8.97743e+57
          1434.13260	         7.94876e+57
          1434.93890	         7.53784e+57
          1435.74520	         9.85621e+57
          1436.55150	         1.00049e+58
          1437.35780	         8.39599e+57
          1438.16410	         8.81496e+57
          1438.97040	         9.80983e+57
          1439.77670	         9.26546e+57
          1440.58300	         9.28309e+57
          1441.38930	         9.37820e+57
          1442.19560	         1.00187e+58
          1443.00190	         9.64008e+57
          1443.80820	         1.04493e+58
          1444.61450	         1.04355e+58
          1445.42080	         7.81670e+57
          1446.22710	         9.19673e+57
          1447.03340	         9.98991e+57
          1447.83970	         1.02516e+58
          1448.64600	         1.03863e+58
          1449.45230	         1.08030e+58
          1450.25860	         1.11211e+58
          1451.06490	         9.49228e+57
          1451.87120	         8.15173e+57
          1452.67750	         7.90384e+57
          1453.48380	         9.28549e+57
          1454.29010	         8.11924e+57
          1455.09640	         7.69274e+57
          1455.90270	         9.79759e+57
          1456.70900	         9.52206e+57
          1457.51530	         9.66963e+57
          1458.32160	         1.18271e+58
          1459.12790	         1.13215e+58
          1459.93420	         9.16313e+57
          1460.74050	         8.55770e+57
          1461.54680	         8.33301e+57
          1462.35310	         8.37351e+57
          1463.15940	         9.54236e+57
          1463.96570	         9.85583e+57
          1464.77200	         1.03973e+58
          1465.57830	         9.82841e+57
          1466.38460	         8.34052e+57
          1467.19090	         8.09572e+57
          1467.99720	         8.77864e+57
          1468.80350	         9.54202e+57
          1469.60980	         9.80685e+57
          1470.41610	         1.03076e+58
          1471.22240	         9.74307e+57
          1472.02870	         9.82569e+57
          1472.83500	         9.34690e+57
          1473.64130	         9.19289e+57
          1474.44760	         9.91280e+57
          1475.25390	         8.64995e+57
          1476.06020	         8.16458e+57
          1476.86650	         9.08510e+57
          1477.67280	         8.21809e+57
          1478.47910	         6.49958e+57
          1479.28540	         6.61610e+57
          1480.09170	         8.16983e+57
          1480.89800	         8.56248e+57
          1481.70430	         8.53574e+57
          1482.51060	         8.01155e+57
          1483.31690	         7.21743e+57
          1484.12320	         7.12687e+57
          1484.92950	         8.61282e+57
          1485.73580	         8.92303e+57
          1486.54210	         8.83521e+57
          1487.34840	         9.02646e+57
          1488.15470	         9.29810e+57
          1488.96100	         9.51918e+57
          1489.76730	         9.07332e+57
