#sample_271_stacked_spectrum_rest_UV-bands_median_H-alpha_noDC.txt
#median Lum: 1.64687e+42
#Rest-frame wavelength (A) | Luminosity (erg/s/A)
#
          1110.00000	         0.00000e+00
          1110.80630	         3.07930e+59
          1111.61260	        -1.18998e+59
          1112.41890	        -6.97486e+58
          1113.22520	        -2.90682e+59
          1114.03150	        -5.26552e+57
          1114.83780	         3.13379e+59
          1115.64410	         6.37954e+58
          1116.45040	         1.93785e+59
          1117.25670	        -1.03866e+59
          1118.06300	         2.26934e+59
          1118.86930	         1.83790e+58
          1119.67560	         1.09355e+59
          1120.48190	        -3.33417e+58
          1121.28820	        -1.72116e+59
          1122.09450	        -4.40533e+58
          1122.90080	        -8.19079e+57
          1123.70710	         2.81421e+58
          1124.51340	         1.04339e+59
          1125.31970	         9.41779e+58
          1126.12600	         3.53939e+58
          1126.93230	        -3.77416e+58
          1127.73860	        -2.72355e+58
          1128.54490	        -1.55061e+58
          1129.35120	        -1.67789e+58
          1130.15750	        -7.55991e+58
          1130.96380	        -4.13372e+58
          1131.77010	         3.97132e+58
          1132.57640	         4.84728e+58
          1133.38270	         2.16961e+58
          1134.18900	         7.51167e+57
          1134.99530	        -3.31708e+57
          1135.80160	         2.48778e+57
          1136.60790	         2.26998e+58
          1137.41420	         1.22259e+58
          1138.22050	         3.32296e+58
          1139.02680	         3.55243e+58
          1139.83310	         3.23015e+57
          1140.63940	         3.26156e+58
          1141.44570	        -8.22265e+57
          1142.25200	        -2.64321e+57
          1143.05830	         2.53929e+58
          1143.86460	         3.39838e+58
          1144.67090	         1.52891e+58
          1145.47720	         1.15381e+58
          1146.28350	         7.96555e+57
          1147.08980	         1.37334e+58
          1147.89610	         1.56644e+58
          1148.70240	         1.54308e+58
          1149.50870	         2.90050e+58
          1150.31500	         9.29293e+57
          1151.12130	        -6.77419e+55
          1151.92760	         8.61658e+57
          1152.73390	         7.54608e+57
          1153.54020	        -3.88524e+57
          1154.34650	         2.43779e+58
          1155.15280	         1.98630e+58
          1155.95910	         2.59791e+57
          1156.76540	         8.70307e+56
          1157.57170	        -9.06298e+57
          1158.37800	        -6.55716e+57
          1159.18430	        -5.79737e+57
          1159.99060	         8.48505e+57
          1160.79690	         1.87674e+57
          1161.60320	         1.36179e+58
          1162.40950	         1.08131e+58
          1163.21580	         2.32191e+58
          1164.02210	         2.11495e+58
          1164.82840	         8.34123e+57
          1165.63470	         1.41713e+58
          1166.44100	         2.59344e+58
          1167.24730	         2.09059e+58
          1168.05360	         7.86857e+57
          1168.85990	         1.16147e+58
          1169.66620	         1.06107e+58
          1170.47250	         1.54577e+58
          1171.27880	         1.13605e+58
          1172.08510	         1.68353e+58
          1172.89140	         1.76858e+58
          1173.69770	         6.23552e+57
          1174.50400	         1.13212e+58
          1175.31030	         1.79030e+58
          1176.11660	         1.41315e+58
          1176.92290	         1.64441e+58
          1177.72920	         1.31853e+58
          1178.53550	         4.73599e+57
          1179.34180	         4.08271e+57
          1180.14810	         1.05527e+58
          1180.95440	         1.07919e+58
          1181.76070	         1.11464e+58
          1182.56700	         1.02322e+58
          1183.37330	         7.62972e+57
          1184.17960	         1.25167e+58
          1184.98590	         1.18669e+58
          1185.79220	         8.85034e+57
          1186.59850	         1.18713e+58
          1187.40480	         1.12774e+58
          1188.21110	         8.66648e+57
          1189.01740	         6.86834e+57
          1189.82370	         5.73471e+57
          1190.63000	         8.89127e+57
          1191.43630	         1.33727e+58
          1192.24260	         1.10193e+58
          1193.04890	         9.25857e+57
          1193.85520	         6.43507e+57
          1194.66150	        -6.33430e+56
          1195.46780	         4.71351e+57
          1196.27410	         1.51892e+58
          1197.08040	         1.31976e+58
          1197.88670	         1.30171e+58
          1198.69300	         1.26273e+58
          1199.49930	         1.65688e+58
          1200.30560	         1.22352e+58
          1201.11190	         1.19643e+58
          1201.91820	         9.83010e+57
          1202.72450	         7.19067e+57
          1203.53080	         1.72923e+58
          1204.33710	         5.87949e+57
          1205.14340	         9.56060e+57
          1205.94970	         9.96691e+57
          1206.75600	         8.61418e+57
          1207.56230	         3.81057e+57
          1208.36860	         9.42152e+57
          1209.17490	         3.80602e+57
          1209.98120	         4.63732e+57
          1210.78750	         7.51939e+57
          1211.59380	         1.61462e+58
          1212.40010	         2.03106e+58
          1213.20640	         2.00967e+58
          1214.01270	         1.90966e+58
          1214.81900	         2.33851e+58
          1215.62530	         4.23387e+58
          1216.43160	         9.07772e+58
          1217.23790	         1.53819e+59
          1218.04420	         1.16486e+59
          1218.85050	         8.97888e+58
          1219.65680	         5.88539e+58
          1220.46310	         3.28705e+58
          1221.26940	         1.82358e+58
          1222.07570	         9.59206e+57
          1222.88200	         1.05331e+58
          1223.68830	         1.11303e+58
          1224.49460	         1.02661e+58
          1225.30090	         1.04747e+58
          1226.10720	         6.92960e+57
          1226.91350	         8.38453e+57
          1227.71980	         7.46517e+57
          1228.52610	         6.60149e+57
          1229.33240	         7.05472e+57
          1230.13870	         8.42508e+57
          1230.94500	         8.44908e+57
          1231.75130	         8.00650e+57
          1232.55760	         7.58867e+57
          1233.36390	         7.41445e+57
          1234.17020	         9.25017e+57
          1234.97650	         8.06464e+57
          1235.78280	         7.04806e+57
          1236.58910	         7.36476e+57
          1237.39540	         8.33601e+57
          1238.20170	         9.15486e+57
          1239.00800	         1.35413e+58
          1239.81430	         1.75328e+58
          1240.62060	         1.03538e+58
          1241.42690	         7.45456e+57
          1242.23320	         9.29521e+57
          1243.03950	         7.42387e+57
          1243.84580	         6.18579e+57
          1244.65210	         6.07433e+57
          1245.45840	         7.79480e+57
          1246.26470	         9.16306e+57
          1247.07100	         6.71221e+57
          1247.87730	         6.97936e+57
          1248.68360	         4.52015e+57
          1249.48990	         9.63422e+57
          1250.29620	         1.07196e+58
          1251.10250	         8.91294e+57
          1251.90880	         5.10478e+57
          1252.71510	         3.53110e+57
          1253.52140	         6.50163e+57
          1254.32770	         1.10827e+58
          1255.13400	         1.35126e+58
          1255.94030	         1.00757e+58
          1256.74660	         8.54469e+57
          1257.55290	         9.55832e+57
          1258.35920	         7.57130e+57
          1259.16550	         6.16949e+57
          1259.97180	         7.99388e+57
          1260.77810	         9.54918e+57
          1261.58440	         1.04616e+58
          1262.39070	         7.30855e+57
          1263.19700	         6.23099e+57
          1264.00330	         8.39220e+57
          1264.80960	         9.84114e+57
          1265.61590	         1.15923e+58
          1266.42220	         1.15513e+58
          1267.22850	         1.05443e+58
          1268.03480	         1.43595e+58
          1268.84110	         1.59208e+58
          1269.64740	         1.41298e+58
          1270.45370	         1.36915e+58
          1271.26000	         1.18912e+58
          1272.06630	         1.13593e+58
          1272.87260	         1.27117e+58
          1273.67890	         1.17819e+58
          1274.48520	         1.24511e+58
          1275.29150	         1.26503e+58
          1276.09780	         1.21908e+58
          1276.90410	         1.63748e+58
          1277.71040	         1.39346e+58
          1278.51670	         1.21781e+58
          1279.32300	         1.35845e+58
          1280.12930	         1.14663e+58
          1280.93560	         1.03438e+58
          1281.74190	         1.09875e+58
          1282.54820	         1.30089e+58
          1283.35450	         1.06668e+58
          1284.16080	         1.09724e+58
          1284.96710	         1.41630e+58
          1285.77340	         1.13684e+58
          1286.57970	         9.37796e+57
          1287.38600	         1.40295e+58
          1288.19230	         1.68856e+58
          1288.99860	         1.33793e+58
          1289.80490	         9.59747e+57
          1290.61120	         1.31103e+58
          1291.41750	         1.34556e+58
          1292.22380	         1.16480e+58
          1293.03010	         1.15650e+58
          1293.83640	         1.17930e+58
          1294.64270	         9.41777e+57
          1295.44900	         7.31342e+57
          1296.25530	         7.47592e+57
          1297.06160	         1.00548e+58
          1297.86790	         1.18553e+58
          1298.67420	         9.27980e+57
          1299.48050	         9.91908e+57
          1300.28680	         1.01208e+58
          1301.09310	         8.59997e+57
          1301.89940	         4.76502e+57
          1302.70570	         6.31867e+57
          1303.51200	         7.63976e+57
          1304.31830	         9.38747e+57
          1305.12460	         1.13899e+58
          1305.93090	         1.26628e+58
          1306.73720	         1.23052e+58
          1307.54350	         1.34112e+58
          1308.34980	         1.45065e+58
          1309.15610	         1.58127e+58
          1309.96240	         1.64378e+58
          1310.76870	         1.50842e+58
          1311.57500	         1.03815e+58
          1312.38130	         1.04422e+58
          1313.18760	         1.32203e+58
          1313.99390	         1.60207e+58
          1314.80020	         1.58669e+58
          1315.60650	         1.66052e+58
          1316.41280	         1.45542e+58
          1317.21910	         1.05684e+58
          1318.02540	         1.12013e+58
          1318.83170	         1.30929e+58
          1319.63800	         1.30514e+58
          1320.44430	         1.31098e+58
          1321.25060	         1.32387e+58
          1322.05690	         1.20281e+58
          1322.86320	         1.11841e+58
          1323.66950	         9.97727e+57
          1324.47580	         8.66935e+57
          1325.28210	         9.04409e+57
          1326.08840	         1.22570e+58
          1326.89470	         1.52136e+58
          1327.70100	         1.19690e+58
          1328.50730	         1.02923e+58
          1329.31360	         1.27078e+58
          1330.11990	         1.15255e+58
          1330.92620	         1.03053e+58
          1331.73250	         1.00082e+58
          1332.53880	         9.91823e+57
          1333.34510	         8.34784e+57
          1334.15140	         7.79247e+57
          1334.95770	         8.42421e+57
          1335.76400	         1.05384e+58
          1336.57030	         1.20968e+58
          1337.37660	         1.20527e+58
          1338.18290	         1.08545e+58
          1338.98920	         1.13553e+58
          1339.79550	         1.23078e+58
          1340.60180	         1.18922e+58
          1341.40810	         1.11162e+58
          1342.21440	         9.26952e+57
          1343.02070	         1.11193e+58
          1343.82700	         1.37594e+58
          1344.63330	         1.26310e+58
          1345.43960	         1.19201e+58
          1346.24590	         1.11510e+58
          1347.05220	         1.11756e+58
          1347.85850	         1.05393e+58
          1348.66480	         1.12434e+58
          1349.47110	         1.13081e+58
          1350.27740	         1.18914e+58
          1351.08370	         1.27699e+58
          1351.89000	         1.08261e+58
          1352.69630	         1.01390e+58
          1353.50260	         1.08575e+58
          1354.30890	         1.18723e+58
          1355.11520	         1.22088e+58
          1355.92150	         1.02172e+58
          1356.72780	         9.75133e+57
          1357.53410	         1.03432e+58
          1358.34040	         1.08203e+58
          1359.14670	         1.02599e+58
          1359.95300	         1.07513e+58
          1360.75930	         1.14286e+58
          1361.56560	         1.08427e+58
          1362.37190	         1.15751e+58
          1363.17820	         1.04259e+58
          1363.98450	         1.00275e+58
          1364.79080	         1.23562e+58
          1365.59710	         1.23678e+58
          1366.40340	         9.87631e+57
          1367.20970	         8.13822e+57
          1368.01600	         9.91103e+57
          1368.82230	         1.07285e+58
          1369.62860	         1.16275e+58
          1370.43490	         1.01000e+58
          1371.24120	         8.50981e+57
          1372.04750	         8.42364e+57
          1372.85380	         1.00764e+58
          1373.66010	         1.02373e+58
          1374.46640	         9.85149e+57
          1375.27270	         1.03937e+58
          1376.07900	         1.04561e+58
          1376.88530	         9.39095e+57
          1377.69160	         9.29303e+57
          1378.49790	         8.02996e+57
          1379.30420	         8.08229e+57
          1380.11050	         8.85228e+57
          1380.91680	         7.33208e+57
          1381.72310	         6.49960e+57
          1382.52940	         7.49391e+57
          1383.33570	         7.51733e+57
          1384.14200	         9.04110e+57
          1384.94830	         1.08640e+58
          1385.75460	         1.01335e+58
          1386.56090	         1.19609e+58
          1387.36720	         1.20343e+58
          1388.17350	         1.20523e+58
          1388.97980	         1.03905e+58
          1389.78610	         9.55399e+57
          1390.59240	         8.97938e+57
          1391.39870	         7.27817e+57
          1392.20500	         8.37634e+57
          1393.01130	         7.64209e+57
          1393.81760	         7.15448e+57
          1394.62390	         7.51807e+57
          1395.43020	         6.32086e+57
          1396.23650	         7.26784e+57
          1397.04280	         8.11073e+57
          1397.84910	         9.84977e+57
          1398.65540	         1.08309e+58
          1399.46170	         1.02819e+58
          1400.26800	         8.47220e+57
          1401.07430	         7.88720e+57
          1401.88060	         8.05547e+57
          1402.68690	         9.19866e+57
          1403.49320	         8.47515e+57
          1404.29950	         8.30393e+57
          1405.10580	         1.01683e+58
          1405.91210	         1.05483e+58
          1406.71840	         1.06595e+58
          1407.52470	         1.07423e+58
          1408.33100	         1.05423e+58
          1409.13730	         1.20072e+58
          1409.94360	         1.21553e+58
          1410.74990	         1.23685e+58
          1411.55620	         1.04780e+58
          1412.36250	         9.91625e+57
          1413.16880	         9.36177e+57
          1413.97510	         7.61434e+57
          1414.78140	         8.46742e+57
          1415.58770	         9.70681e+57
          1416.39400	         1.01857e+58
          1417.20030	         1.16822e+58
          1418.00660	         1.20018e+58
          1418.81290	         1.12736e+58
          1419.61920	         1.04782e+58
          1420.42550	         1.30278e+58
          1421.23180	         1.57085e+58
          1422.03810	         1.29721e+58
          1422.84440	         1.13784e+58
          1423.65070	         1.36824e+58
          1424.45700	         1.12781e+58
          1425.26330	         8.21229e+57
          1426.06960	         9.22054e+57
          1426.87590	         1.01657e+58
          1427.68220	         1.02111e+58
          1428.48850	         1.04711e+58
          1429.29480	         1.10583e+58
          1430.10110	         1.04507e+58
          1430.90740	         8.71625e+57
          1431.71370	         8.56214e+57
          1432.52000	         8.67198e+57
          1433.32630	         8.06908e+57
          1434.13260	         7.60681e+57
          1434.93890	         8.26760e+57
          1435.74520	         9.41295e+57
          1436.55150	         9.71117e+57
          1437.35780	         8.56863e+57
          1438.16410	         8.27471e+57
          1438.97040	         9.39303e+57
          1439.77670	         9.85451e+57
          1440.58300	         9.70814e+57
          1441.38930	         9.43117e+57
          1442.19560	         1.06215e+58
          1443.00190	         9.61266e+57
          1443.80820	         1.02951e+58
          1444.61450	         9.71741e+57
          1445.42080	         8.58513e+57
          1446.22710	         1.03852e+58
          1447.03340	         8.87052e+57
          1447.83970	         9.91388e+57
          1448.64600	         1.05878e+58
          1449.45230	         9.75176e+57
          1450.25860	         1.02689e+58
          1451.06490	         9.47131e+57
          1451.87120	         6.70957e+57
          1452.67750	         7.10578e+57
          1453.48380	         9.39650e+57
          1454.29010	         8.38764e+57
          1455.09640	         7.76461e+57
          1455.90270	         9.64211e+57
          1456.70900	         9.35663e+57
          1457.51530	         9.53385e+57
          1458.32160	         1.08935e+58
          1459.12790	         1.17126e+58
          1459.93420	         1.10367e+58
          1460.74050	         8.34573e+57
          1461.54680	         8.46667e+57
          1462.35310	         8.69318e+57
          1463.15940	         9.60109e+57
          1463.96570	         1.06265e+58
          1464.77200	         1.21553e+58
          1465.57830	         1.07724e+58
          1466.38460	         9.67166e+57
          1467.19090	         9.51909e+57
          1467.99720	         9.80484e+57
          1468.80350	         9.88663e+57
          1469.60980	         9.16764e+57
          1470.41610	         1.08787e+58
          1471.22240	         9.95809e+57
          1472.02870	         9.68078e+57
          1472.83500	         1.13206e+58
          1473.64130	         1.09713e+58
          1474.44760	         9.72684e+57
          1475.25390	         9.77274e+57
          1476.06020	         8.56224e+57
          1476.86650	         7.89054e+57
          1477.67280	         6.34535e+57
          1478.47910	         6.29279e+57
          1479.28540	         8.24336e+57
          1480.09170	         7.87920e+57
          1480.89800	         7.34660e+57
          1481.70430	         9.29470e+57
          1482.51060	         9.01962e+57
          1483.31690	         8.38096e+57
          1484.12320	         8.72704e+57
          1484.92950	         8.56249e+57
          1485.73580	         8.07248e+57
          1486.54210	         8.23915e+57
          1487.34840	         8.24519e+57
          1488.15470	         7.78387e+57
          1488.96100	         8.18424e+57
          1489.76730	         9.98006e+57
