#sample_308_stacked_spectrum_rest_UV-bands_median_H-alpha_noDC.txt
#median Lum: 1.69979e+42
#Rest-frame wavelength (A) | Luminosity (erg/s/A)
#
          1110.00000	         0.00000e+00
          1110.80630	         3.81607e+59
          1111.61260	         4.73310e+59
          1112.41890	         2.42943e+59
          1113.22520	         2.17752e+59
          1114.03150	        -1.08328e+59
          1114.83780	         1.55745e+59
          1115.64410	         1.60746e+59
          1116.45040	         1.76324e+59
          1117.25670	         1.31015e+59
          1118.06300	         7.89457e+58
          1118.86930	        -8.52873e+57
          1119.67560	         1.00237e+59
          1120.48190	         6.97398e+58
          1121.28820	        -4.12590e+58
          1122.09450	         4.42710e+58
          1122.90080	         1.16569e+58
          1123.70710	         2.71311e+58
          1124.51340	         1.01165e+59
          1125.31970	         1.01710e+59
          1126.12600	         6.63296e+58
          1126.93230	        -4.28691e+58
          1127.73860	        -3.90883e+58
          1128.54490	         4.44305e+58
          1129.35120	         2.93489e+58
          1130.15750	         2.02196e+57
          1130.96380	        -8.29908e+57
          1131.77010	         3.66957e+58
          1132.57640	         5.03548e+58
          1133.38270	         1.39777e+58
          1134.18900	         3.43265e+58
          1134.99530	        -7.27674e+57
          1135.80160	         1.64390e+58
          1136.60790	         6.79600e+57
          1137.41420	         7.10886e+56
          1138.22050	         5.22766e+58
          1139.02680	         3.52154e+58
          1139.83310	         2.44366e+58
          1140.63940	         1.66159e+58
          1141.44570	        -1.48765e+58
          1142.25200	        -1.47095e+58
          1143.05830	         2.94858e+58
          1143.86460	         4.17529e+58
          1144.67090	         4.73436e+58
          1145.47720	         9.16626e+57
          1146.28350	         4.19385e+57
          1147.08980	         1.16866e+58
          1147.89610	         1.99231e+58
          1148.70240	         2.67716e+58
          1149.50870	         2.11740e+58
          1150.31500	         2.08573e+58
          1151.12130	         5.77577e+57
          1151.92760	         3.12769e+57
          1152.73390	         1.04332e+58
          1153.54020	         2.30251e+57
          1154.34650	         2.13593e+58
          1155.15280	         1.30501e+58
          1155.95910	         6.98426e+57
          1156.76540	         5.63213e+56
          1157.57170	         8.71743e+56
          1158.37800	         2.72141e+57
          1159.18430	        -5.65215e+56
          1159.99060	         4.77503e+57
          1160.79690	         6.12111e+57
          1161.60320	         1.78070e+58
          1162.40950	         2.52625e+58
          1163.21580	         2.43950e+58
          1164.02210	         1.49804e+58
          1164.82840	         2.10908e+58
          1165.63470	         2.13813e+58
          1166.44100	         2.69886e+58
          1167.24730	         1.95471e+58
          1168.05360	         6.75721e+57
          1168.85990	         3.17619e+57
          1169.66620	         1.42991e+57
          1170.47250	         8.98972e+57
          1171.27880	         3.97211e+57
          1172.08510	         1.13695e+58
          1172.89140	         1.11075e+58
          1173.69770	         1.00476e+58
          1174.50400	         1.35832e+58
          1175.31030	         1.35214e+58
          1176.11660	         1.44871e+58
          1176.92290	         1.57695e+58
          1177.72920	         1.88026e+58
          1178.53550	         1.28133e+58
          1179.34180	         5.96432e+57
          1180.14810	         8.06091e+57
          1180.95440	         1.18350e+58
          1181.76070	         1.11541e+58
          1182.56700	         7.52020e+57
          1183.37330	         7.39689e+57
          1184.17960	         1.38841e+58
          1184.98590	         1.39493e+58
          1185.79220	         7.57801e+57
          1186.59850	         1.03138e+58
          1187.40480	         3.73222e+57
          1188.21110	         1.32782e+58
          1189.01740	         5.71399e+57
          1189.82370	         1.89692e+57
          1190.63000	         7.00282e+57
          1191.43630	         1.07652e+58
          1192.24260	         6.63477e+57
          1193.04890	         9.13586e+57
          1193.85520	         1.08681e+58
          1194.66150	         1.30949e+58
          1195.46780	         1.41274e+58
          1196.27410	         1.58694e+58
          1197.08040	         1.16146e+58
          1197.88670	         1.38732e+58
          1198.69300	         1.49225e+58
          1199.49930	         1.48744e+58
          1200.30560	         1.22521e+58
          1201.11190	         1.34677e+58
          1201.91820	         1.32333e+58
          1202.72450	         7.06076e+57
          1203.53080	         1.29456e+58
          1204.33710	         1.02542e+58
          1205.14340	         7.24523e+57
          1205.94970	         5.35357e+57
          1206.75600	         6.37560e+57
          1207.56230	         7.67013e+57
          1208.36860	         7.59453e+57
          1209.17490	         5.49127e+57
          1209.98120	         5.22228e+57
          1210.78750	         6.80627e+57
          1211.59380	         1.12385e+58
          1212.40010	         2.00238e+58
          1213.20640	         2.02727e+58
          1214.01270	         1.93411e+58
          1214.81900	         2.38905e+58
          1215.62530	         4.52559e+58
          1216.43160	         8.98980e+58
          1217.23790	         1.46636e+59
          1218.04420	         1.11079e+59
          1218.85050	         8.66840e+58
          1219.65680	         5.75609e+58
          1220.46310	         3.17769e+58
          1221.26940	         2.33460e+58
          1222.07570	         1.40112e+58
          1222.88200	         8.37557e+57
          1223.68830	         7.98810e+57
          1224.49460	         6.73558e+57
          1225.30090	         7.60798e+57
          1226.10720	         9.86694e+57
          1226.91350	         8.20294e+57
          1227.71980	         8.72906e+57
          1228.52610	         1.18277e+58
          1229.33240	         7.11734e+57
          1230.13870	         7.32878e+57
          1230.94500	         7.56516e+57
          1231.75130	         7.34060e+57
          1232.55760	         9.95758e+57
          1233.36390	         9.34928e+57
          1234.17020	         9.92137e+57
          1234.97650	         8.60586e+57
          1235.78280	         9.82025e+57
          1236.58910	         9.59554e+57
          1237.39540	         1.14084e+58
          1238.20170	         1.16908e+58
          1239.00800	         1.13274e+58
          1239.81430	         1.43274e+58
          1240.62060	         1.25149e+58
          1241.42690	         1.00864e+58
          1242.23320	         1.21022e+58
          1243.03950	         8.58130e+57
          1243.84580	         7.13191e+57
          1244.65210	         9.01361e+57
          1245.45840	         1.24428e+58
          1246.26470	         1.08984e+58
          1247.07100	         6.55757e+57
          1247.87730	         4.31951e+57
          1248.68360	         4.97097e+57
          1249.48990	         5.17608e+57
          1250.29620	         6.29145e+57
          1251.10250	         3.43127e+57
          1251.90880	         1.99882e+57
          1252.71510	         5.35745e+57
          1253.52140	         7.29314e+57
          1254.32770	         1.05968e+58
          1255.13400	         1.51219e+58
          1255.94030	         1.32575e+58
          1256.74660	         1.08847e+58
          1257.55290	         1.24096e+58
          1258.35920	         9.81411e+57
          1259.16550	         3.53450e+57
          1259.97180	         4.36399e+57
          1260.77810	         1.04010e+58
          1261.58440	         1.22815e+58
          1262.39070	         6.86226e+57
          1263.19700	         6.70441e+57
          1264.00330	         8.74257e+57
          1264.80960	         1.13905e+58
          1265.61590	         1.42300e+58
          1266.42220	         1.32555e+58
          1267.22850	         1.16816e+58
          1268.03480	         1.39455e+58
          1268.84110	         1.57312e+58
          1269.64740	         1.35135e+58
          1270.45370	         1.18611e+58
          1271.26000	         9.27253e+57
          1272.06630	         1.02346e+58
          1272.87260	         1.32085e+58
          1273.67890	         1.06816e+58
          1274.48520	         1.04546e+58
          1275.29150	         1.34944e+58
          1276.09780	         1.02306e+58
          1276.90410	         1.26578e+58
          1277.71040	         1.32813e+58
          1278.51670	         1.16433e+58
          1279.32300	         1.29115e+58
          1280.12930	         1.28405e+58
          1280.93560	         1.17564e+58
          1281.74190	         1.09634e+58
          1282.54820	         1.16290e+58
          1283.35450	         9.79031e+57
          1284.16080	         7.99530e+57
          1284.96710	         1.18685e+58
          1285.77340	         1.09251e+58
          1286.57970	         9.90470e+57
          1287.38600	         1.57391e+58
          1288.19230	         1.73939e+58
          1288.99860	         1.36911e+58
          1289.80490	         8.96848e+57
          1290.61120	         1.19737e+58
          1291.41750	         1.49020e+58
          1292.22380	         1.36421e+58
          1293.03010	         1.03769e+58
          1293.83640	         9.78874e+57
          1294.64270	         8.86138e+57
          1295.44900	         5.25997e+57
          1296.25530	         7.59443e+57
          1297.06160	         1.13717e+58
          1297.86790	         1.04391e+58
          1298.67420	         9.76726e+57
          1299.48050	         1.13265e+58
          1300.28680	         1.12924e+58
          1301.09310	         7.17975e+57
          1301.89940	         3.59070e+57
          1302.70570	         4.38182e+57
          1303.51200	         7.42517e+57
          1304.31830	         9.92771e+57
          1305.12460	         9.88976e+57
          1305.93090	         9.64850e+57
          1306.73720	         1.17847e+58
          1307.54350	         1.39411e+58
          1308.34980	         1.42876e+58
          1309.15610	         1.53086e+58
          1309.96240	         1.60558e+58
          1310.76870	         1.40144e+58
          1311.57500	         1.05505e+58
          1312.38130	         1.03489e+58
          1313.18760	         1.53775e+58
          1313.99390	         1.66533e+58
          1314.80020	         1.74483e+58
          1315.60650	         1.63692e+58
          1316.41280	         1.24244e+58
          1317.21910	         9.71626e+57
          1318.02540	         1.12301e+58
          1318.83170	         1.38143e+58
          1319.63800	         1.14443e+58
          1320.44430	         1.09623e+58
          1321.25060	         1.29752e+58
          1322.05690	         1.22140e+58
          1322.86320	         1.14712e+58
          1323.66950	         1.13840e+58
          1324.47580	         9.24915e+57
          1325.28210	         1.01686e+58
          1326.08840	         1.15582e+58
          1326.89470	         1.13985e+58
          1327.70100	         1.04553e+58
          1328.50730	         8.01771e+57
          1329.31360	         9.44689e+57
          1330.11990	         1.03098e+58
          1330.92620	         9.87716e+57
          1331.73250	         1.18321e+58
          1332.53880	         1.11850e+58
          1333.34510	         1.00258e+58
          1334.15140	         9.01588e+57
          1334.95770	         8.41659e+57
          1335.76400	         8.72686e+57
          1336.57030	         9.78371e+57
          1337.37660	         1.11243e+58
          1338.18290	         1.24019e+58
          1338.98920	         1.14232e+58
          1339.79550	         9.35984e+57
          1340.60180	         1.17160e+58
          1341.40810	         1.45896e+58
          1342.21440	         1.21430e+58
          1343.02070	         1.15959e+58
          1343.82700	         1.31345e+58
          1344.63330	         1.13514e+58
          1345.43960	         1.19426e+58
          1346.24590	         1.23080e+58
          1347.05220	         1.33438e+58
          1347.85850	         1.12040e+58
          1348.66480	         1.23671e+58
          1349.47110	         1.25271e+58
          1350.27740	         1.16686e+58
          1351.08370	         1.13901e+58
          1351.89000	         1.02136e+58
          1352.69630	         1.20165e+58
          1353.50260	         1.29542e+58
          1354.30890	         1.19179e+58
          1355.11520	         1.13664e+58
          1355.92150	         1.08472e+58
          1356.72780	         8.95305e+57
          1357.53410	         1.00257e+58
          1358.34040	         1.11639e+58
          1359.14670	         1.07857e+58
          1359.95300	         1.13568e+58
          1360.75930	         1.02078e+58
          1361.56560	         9.65804e+57
          1362.37190	         1.17622e+58
          1363.17820	         1.12020e+58
          1363.98450	         1.01279e+58
          1364.79080	         1.11842e+58
          1365.59710	         1.27445e+58
          1366.40340	         1.29276e+58
          1367.20970	         1.07572e+58
          1368.01600	         1.03779e+58
          1368.82230	         9.05737e+57
          1369.62860	         1.00916e+58
          1370.43490	         9.79907e+57
          1371.24120	         1.01397e+58
          1372.04750	         8.45826e+57
          1372.85380	         1.04302e+58
          1373.66010	         1.14825e+58
          1374.46640	         1.08437e+58
          1375.27270	         1.07277e+58
          1376.07900	         9.06780e+57
          1376.88530	         8.22573e+57
          1377.69160	         7.89482e+57
          1378.49790	         7.66508e+57
          1379.30420	         8.20953e+57
          1380.11050	         9.11852e+57
          1380.91680	         9.32756e+57
          1381.72310	         9.37982e+57
          1382.52940	         8.38155e+57
          1383.33570	         8.97465e+57
          1384.14200	         1.05923e+58
          1384.94830	         1.22601e+58
          1385.75460	         1.05845e+58
          1386.56090	         1.00445e+58
          1387.36720	         1.03954e+58
          1388.17350	         1.22616e+58
          1388.97980	         1.07903e+58
          1389.78610	         8.87834e+57
          1390.59240	         8.12974e+57
          1391.39870	         7.58127e+57
          1392.20500	         9.24573e+57
          1393.01130	         9.35360e+57
          1393.81760	         7.01401e+57
          1394.62390	         6.41812e+57
          1395.43020	         6.35324e+57
          1396.23650	         7.50479e+57
          1397.04280	         8.80413e+57
          1397.84910	         9.37734e+57
          1398.65540	         8.86386e+57
          1399.46170	         9.72429e+57
          1400.26800	         9.79062e+57
          1401.07430	         8.41294e+57
          1401.88060	         7.06474e+57
          1402.68690	         8.27384e+57
          1403.49320	         9.68659e+57
          1404.29950	         8.69564e+57
          1405.10580	         9.42026e+57
          1405.91210	         1.10349e+58
          1406.71840	         1.13709e+58
          1407.52470	         9.57529e+57
          1408.33100	         1.02132e+58
          1409.13730	         1.20567e+58
          1409.94360	         1.12870e+58
          1410.74990	         1.06611e+58
          1411.55620	         9.76801e+57
          1412.36250	         8.83694e+57
          1413.16880	         8.86491e+57
          1413.97510	         8.14825e+57
          1414.78140	         8.44202e+57
          1415.58770	         1.00280e+58
          1416.39400	         1.18550e+58
          1417.20030	         1.22582e+58
          1418.00660	         9.27602e+57
          1418.81290	         8.03134e+57
          1419.61920	         8.43779e+57
          1420.42550	         1.17981e+58
          1421.23180	         1.34797e+58
          1422.03810	         1.15898e+58
          1422.84440	         1.13564e+58
          1423.65070	         1.29181e+58
          1424.45700	         1.06080e+58
          1425.26330	         8.12832e+57
          1426.06960	         7.24241e+57
          1426.87590	         9.58767e+57
          1427.68220	         9.44331e+57
          1428.48850	         9.39735e+57
          1429.29480	         1.06477e+58
          1430.10110	         1.07459e+58
          1430.90740	         9.11111e+57
          1431.71370	         9.08774e+57
          1432.52000	         8.29697e+57
          1433.32630	         6.35130e+57
          1434.13260	         7.66638e+57
          1434.93890	         8.41722e+57
          1435.74520	         9.17883e+57
          1436.55150	         1.01620e+58
          1437.35780	         9.12855e+57
          1438.16410	         8.39754e+57
          1438.97040	         9.65204e+57
          1439.77670	         9.55447e+57
          1440.58300	         8.44498e+57
          1441.38930	         8.24663e+57
          1442.19560	         8.69265e+57
          1443.00190	         9.39329e+57
          1443.80820	         1.01874e+58
          1444.61450	         9.49612e+57
          1445.42080	         7.93226e+57
          1446.22710	         9.52111e+57
          1447.03340	         9.67072e+57
          1447.83970	         9.63919e+57
          1448.64600	         1.08704e+58
          1449.45230	         9.65175e+57
          1450.25860	         9.35247e+57
          1451.06490	         8.49221e+57
          1451.87120	         6.98649e+57
          1452.67750	         6.93485e+57
          1453.48380	         8.78539e+57
          1454.29010	         7.82059e+57
          1455.09640	         7.72691e+57
          1455.90270	         8.67449e+57
          1456.70900	         8.26682e+57
          1457.51530	         9.05024e+57
          1458.32160	         1.13496e+58
          1459.12790	         1.23723e+58
          1459.93420	         1.11689e+58
          1460.74050	         7.69701e+57
          1461.54680	         7.63366e+57
          1462.35310	         6.88652e+57
          1463.15940	         8.96733e+57
          1463.96570	         1.11705e+58
          1464.77200	         1.25198e+58
          1465.57830	         1.16067e+58
          1466.38460	         1.06177e+58
          1467.19090	         9.38650e+57
          1467.99720	         8.12216e+57
          1468.80350	         7.96755e+57
          1469.60980	         9.49024e+57
          1470.41610	         1.06260e+58
          1471.22240	         8.83017e+57
          1472.02870	         8.30696e+57
          1472.83500	         8.51949e+57
          1473.64130	         9.93974e+57
          1474.44760	         9.69331e+57
          1475.25390	         8.97952e+57
          1476.06020	         8.38678e+57
          1476.86650	         7.51994e+57
          1477.67280	         7.43963e+57
          1478.47910	         6.90028e+57
          1479.28540	         6.64737e+57
          1480.09170	         7.41139e+57
          1480.89800	         8.61785e+57
          1481.70430	         9.29009e+57
          1482.51060	         8.56337e+57
          1483.31690	         7.89129e+57
          1484.12320	         6.59281e+57
          1484.92950	         5.83260e+57
          1485.73580	         7.81577e+57
          1486.54210	         8.59335e+57
          1487.34840	         9.48475e+57
          1488.15470	         9.25930e+57
          1488.96100	         9.36323e+57
          1489.76730	         9.35773e+57
