#sample_483_stacked_spectrum_rest_UV-bands_median_H-alpha_noDC.txt
#median Lum: 1.67946e+42
#Rest-frame wavelength (A) | Luminosity (erg/s/A)
#
          1110.00000	         0.00000e+00
          1110.80630	         1.11219e+59
          1111.61260	         1.22944e+59
          1112.41890	         1.25793e+59
          1113.22520	         1.68038e+59
          1114.03150	         4.64398e+58
          1114.83780	         1.31049e+59
          1115.64410	         3.44565e+58
          1116.45040	         2.56636e+58
          1117.25670	         5.07487e+58
          1118.06300	         1.65356e+59
          1118.86930	         2.99571e+58
          1119.67560	         1.50057e+59
          1120.48190	         5.01714e+58
          1121.28820	        -6.75468e+58
          1122.09450	        -3.84191e+58
          1122.90080	        -3.33340e+58
          1123.70710	         4.90902e+58
          1124.51340	         8.57375e+58
          1125.31970	         3.34543e+58
          1126.12600	         6.36422e+58
          1126.93230	        -2.50121e+58
          1127.73860	        -5.53467e+58
          1128.54490	        -3.54292e+58
          1129.35120	        -2.80017e+57
          1130.15750	        -1.36519e+58
          1130.96380	         3.80160e+57
          1131.77010	         3.84098e+58
          1132.57640	         1.09220e+58
          1133.38270	         5.28252e+57
          1134.18900	         1.25922e+58
          1134.99530	         5.83584e+58
          1135.80160	         6.40780e+58
          1136.60790	         1.44805e+58
          1137.41420	        -3.93669e+58
          1138.22050	        -2.89630e+57
          1139.02680	         3.15637e+58
          1139.83310	         3.47418e+58
          1140.63940	         2.59465e+58
          1141.44570	        -2.03365e+57
          1142.25200	         1.13653e+58
          1143.05830	         1.50960e+58
          1143.86460	         1.04524e+58
          1144.67090	         1.08953e+58
          1145.47720	         1.93923e+58
          1146.28350	         2.51297e+58
          1147.08980	         1.85889e+58
          1147.89610	         1.82340e+58
          1148.70240	         2.42270e+58
          1149.50870	         2.73157e+58
          1150.31500	         1.18248e+58
          1151.12130	         4.23177e+57
          1151.92760	         2.30531e+57
          1152.73390	        -5.89584e+57
          1153.54020	         6.19706e+57
          1154.34650	         1.81022e+58
          1155.15280	         2.10596e+58
          1155.95910	         9.45436e+57
          1156.76540	         1.33412e+58
          1157.57170	         1.76351e+58
          1158.37800	        -5.97612e+56
          1159.18430	        -2.93974e+57
          1159.99060	         5.28659e+57
          1160.79690	         1.94832e+57
          1161.60320	         1.38203e+58
          1162.40950	         2.04001e+58
          1163.21580	         2.72087e+58
          1164.02210	         7.44372e+57
          1164.82840	         1.83014e+58
          1165.63470	         1.72878e+58
          1166.44100	         2.76129e+58
          1167.24730	         1.70487e+58
          1168.05360	         1.58591e+58
          1168.85990	         4.45807e+57
          1169.66620	         1.87475e+57
          1170.47250	         2.10547e+57
          1171.27880	         1.15933e+58
          1172.08510	         1.95650e+58
          1172.89140	         7.17397e+57
          1173.69770	         4.95496e+57
          1174.50400	         5.62988e+57
          1175.31030	         1.53212e+58
          1176.11660	         1.91993e+58
          1176.92290	         1.23842e+58
          1177.72920	         1.26531e+58
          1178.53550	         8.20709e+57
          1179.34180	         1.00848e+58
          1180.14810	         1.34000e+58
          1180.95440	         9.52888e+57
          1181.76070	         1.26094e+58
          1182.56700	         1.10459e+58
          1183.37330	         6.27342e+57
          1184.17960	         1.39478e+58
          1184.98590	         1.29018e+58
          1185.79220	         1.21819e+58
          1186.59850	         1.81813e+58
          1187.40480	         7.39035e+57
          1188.21110	         1.06108e+58
          1189.01740	         1.36541e+58
          1189.82370	         7.58669e+57
          1190.63000	         1.49986e+58
          1191.43630	         1.57830e+58
          1192.24260	         1.06265e+58
          1193.04890	         1.29001e+58
          1193.85520	         8.52038e+57
          1194.66150	         9.35800e+57
          1195.46780	         1.55360e+58
          1196.27410	         1.50228e+58
          1197.08040	         1.08668e+58
          1197.88670	         1.39363e+58
          1198.69300	         1.58223e+58
          1199.49930	         1.43067e+58
          1200.30560	         1.24079e+58
          1201.11190	         1.20608e+58
          1201.91820	         1.16539e+58
          1202.72450	         6.56343e+57
          1203.53080	         1.13153e+58
          1204.33710	         7.71636e+57
          1205.14340	         7.20621e+57
          1205.94970	         7.51755e+57
          1206.75600	         6.65751e+57
          1207.56230	         6.28080e+57
          1208.36860	         1.36860e+58
          1209.17490	         5.15508e+57
          1209.98120	         4.99451e+57
          1210.78750	         6.76833e+57
          1211.59380	         1.17370e+58
          1212.40010	         1.75470e+58
          1213.20640	         1.68579e+58
          1214.01270	         1.91788e+58
          1214.81900	         2.57364e+58
          1215.62530	         4.34376e+58
          1216.43160	         8.73231e+58
          1217.23790	         1.49706e+59
          1218.04420	         1.15787e+59
          1218.85050	         8.77566e+58
          1219.65680	         5.51770e+58
          1220.46310	         3.04036e+58
          1221.26940	         2.41123e+58
          1222.07570	         1.41196e+58
          1222.88200	         1.05924e+58
          1223.68830	         9.32613e+57
          1224.49460	         9.18613e+57
          1225.30090	         8.80731e+57
          1226.10720	         6.45165e+57
          1226.91350	         6.22590e+57
          1227.71980	         7.82063e+57
          1228.52610	         1.26460e+58
          1229.33240	         8.20002e+57
          1230.13870	         8.69433e+57
          1230.94500	         9.52275e+57
          1231.75130	         6.57931e+57
          1232.55760	         9.87144e+57
          1233.36390	         9.99872e+57
          1234.17020	         6.48498e+57
          1234.97650	         7.34009e+57
          1235.78280	         9.93518e+57
          1236.58910	         9.11132e+57
          1237.39540	         7.62634e+57
          1238.20170	         8.99962e+57
          1239.00800	         1.35687e+58
          1239.81430	         1.43716e+58
          1240.62060	         9.72531e+57
          1241.42690	         1.08046e+58
          1242.23320	         1.26423e+58
          1243.03950	         1.20032e+58
          1243.84580	         1.06729e+58
          1244.65210	         1.06818e+58
          1245.45840	         1.01816e+58
          1246.26470	         8.16903e+57
          1247.07100	         7.77529e+57
          1247.87730	         9.78206e+57
          1248.68360	         4.81651e+57
          1249.48990	         7.62022e+57
          1250.29620	         8.51229e+57
          1251.10250	         9.19871e+57
          1251.90880	         5.57683e+57
          1252.71510	         4.45633e+57
          1253.52140	         7.68152e+57
          1254.32770	         1.13086e+58
          1255.13400	         1.36711e+58
          1255.94030	         1.15014e+58
          1256.74660	         9.67140e+57
          1257.55290	         1.17975e+58
          1258.35920	         1.01109e+58
          1259.16550	         7.78299e+57
          1259.97180	         5.36865e+57
          1260.77810	         9.19546e+57
          1261.58440	         1.22778e+58
          1262.39070	         7.37848e+57
          1263.19700	         6.85976e+57
          1264.00330	         8.64715e+57
          1264.80960	         8.94158e+57
          1265.61590	         1.24921e+58
          1266.42220	         1.19317e+58
          1267.22850	         8.74314e+57
          1268.03480	         1.28159e+58
          1268.84110	         1.41340e+58
          1269.64740	         1.33071e+58
          1270.45370	         1.25369e+58
          1271.26000	         1.16488e+58
          1272.06630	         1.30015e+58
          1272.87260	         1.33882e+58
          1273.67890	         1.20864e+58
          1274.48520	         1.11084e+58
          1275.29150	         1.25822e+58
          1276.09780	         1.08786e+58
          1276.90410	         1.38356e+58
          1277.71040	         1.43843e+58
          1278.51670	         1.28340e+58
          1279.32300	         1.44684e+58
          1280.12930	         1.43402e+58
          1280.93560	         1.14518e+58
          1281.74190	         1.09210e+58
          1282.54820	         1.05682e+58
          1283.35450	         1.05376e+58
          1284.16080	         1.26949e+58
          1284.96710	         1.26068e+58
          1285.77340	         1.11528e+58
          1286.57970	         1.13758e+58
          1287.38600	         1.51454e+58
          1288.19230	         1.62435e+58
          1288.99860	         1.47581e+58
          1289.80490	         1.22466e+58
          1290.61120	         1.21456e+58
          1291.41750	         1.29825e+58
          1292.22380	         1.14236e+58
          1293.03010	         9.95615e+57
          1293.83640	         1.05280e+58
          1294.64270	         8.88187e+57
          1295.44900	         6.55053e+57
          1296.25530	         7.00441e+57
          1297.06160	         1.00949e+58
          1297.86790	         1.15791e+58
          1298.67420	         9.94117e+57
          1299.48050	         9.94452e+57
          1300.28680	         1.02279e+58
          1301.09310	         9.69426e+57
          1301.89940	         5.67585e+57
          1302.70570	         6.14890e+57
          1303.51200	         7.52920e+57
          1304.31830	         9.33611e+57
          1305.12460	         1.09276e+58
          1305.93090	         1.05307e+58
          1306.73720	         1.12218e+58
          1307.54350	         1.37950e+58
          1308.34980	         1.50713e+58
          1309.15610	         1.52812e+58
          1309.96240	         1.56302e+58
          1310.76870	         1.38199e+58
          1311.57500	         1.09529e+58
          1312.38130	         1.07272e+58
          1313.18760	         1.45629e+58
          1313.99390	         1.64515e+58
          1314.80020	         1.47431e+58
          1315.60650	         1.32789e+58
          1316.41280	         1.19644e+58
          1317.21910	         1.15576e+58
          1318.02540	         1.25536e+58
          1318.83170	         1.28686e+58
          1319.63800	         1.14718e+58
          1320.44430	         1.13893e+58
          1321.25060	         1.30719e+58
          1322.05690	         1.20656e+58
          1322.86320	         1.17255e+58
          1323.66950	         1.04181e+58
          1324.47580	         8.35664e+57
          1325.28210	         9.70120e+57
          1326.08840	         1.06830e+58
          1326.89470	         1.14128e+58
          1327.70100	         1.18517e+58
          1328.50730	         9.61430e+57
          1329.31360	         8.52454e+57
          1330.11990	         8.53523e+57
          1330.92620	         7.39505e+57
          1331.73250	         1.06660e+58
          1332.53880	         1.11010e+58
          1333.34510	         8.80816e+57
          1334.15140	         8.56845e+57
          1334.95770	         9.09655e+57
          1335.76400	         1.05203e+58
          1336.57030	         1.05464e+58
          1337.37660	         1.01838e+58
          1338.18290	         1.07835e+58
          1338.98920	         1.23465e+58
          1339.79550	         1.30514e+58
          1340.60180	         1.16285e+58
          1341.40810	         1.19905e+58
          1342.21440	         1.11278e+58
          1343.02070	         9.80986e+57
          1343.82700	         1.08020e+58
          1344.63330	         1.08706e+58
          1345.43960	         1.33409e+58
          1346.24590	         1.44772e+58
          1347.05220	         1.33421e+58
          1347.85850	         9.78138e+57
          1348.66480	         1.03480e+58
          1349.47110	         1.18049e+58
          1350.27740	         1.22261e+58
          1351.08370	         1.15539e+58
          1351.89000	         1.17282e+58
          1352.69630	         1.27495e+58
          1353.50260	         1.23239e+58
          1354.30890	         1.15418e+58
          1355.11520	         1.17121e+58
          1355.92150	         1.11077e+58
          1356.72780	         1.00302e+58
          1357.53410	         1.05422e+58
          1358.34040	         1.14143e+58
          1359.14670	         8.91875e+57
          1359.95300	         9.36436e+57
          1360.75930	         1.17667e+58
          1361.56560	         1.07200e+58
          1362.37190	         1.11194e+58
          1363.17820	         1.04552e+58
          1363.98450	         1.09114e+58
          1364.79080	         1.27793e+58
          1365.59710	         1.24021e+58
          1366.40340	         1.10681e+58
          1367.20970	         1.17408e+58
          1368.01600	         1.02384e+58
          1368.82230	         8.75913e+57
          1369.62860	         1.11978e+58
          1370.43490	         1.11168e+58
          1371.24120	         9.60150e+57
          1372.04750	         9.42806e+57
          1372.85380	         1.21503e+58
          1373.66010	         1.14961e+58
          1374.46640	         1.05177e+58
          1375.27270	         1.03581e+58
          1376.07900	         8.67597e+57
          1376.88530	         8.50378e+57
          1377.69160	         7.95168e+57
          1378.49790	         6.47868e+57
          1379.30420	         6.91427e+57
          1380.11050	         9.30041e+57
          1380.91680	         8.60086e+57
          1381.72310	         7.98523e+57
          1382.52940	         8.57258e+57
          1383.33570	         8.63973e+57
          1384.14200	         9.43686e+57
          1384.94830	         9.77517e+57
          1385.75460	         1.03558e+58
          1386.56090	         1.17085e+58
          1387.36720	         9.99468e+57
          1388.17350	         1.00630e+58
          1388.97980	         9.12216e+57
          1389.78610	         8.81322e+57
          1390.59240	         1.00008e+58
          1391.39870	         9.07264e+57
          1392.20500	         8.17206e+57
          1393.01130	         8.58740e+57
          1393.81760	         7.84900e+57
          1394.62390	         8.61028e+57
          1395.43020	         7.49619e+57
          1396.23650	         7.04369e+57
          1397.04280	         7.77001e+57
          1397.84910	         9.56110e+57
          1398.65540	         9.53286e+57
          1399.46170	         9.64392e+57
          1400.26800	         8.89746e+57
          1401.07430	         7.66209e+57
          1401.88060	         9.16974e+57
          1402.68690	         9.30250e+57
          1403.49320	         8.61127e+57
          1404.29950	         8.23941e+57
          1405.10580	         9.63192e+57
          1405.91210	         1.07267e+58
          1406.71840	         1.10088e+58
          1407.52470	         1.09345e+58
          1408.33100	         1.05821e+58
          1409.13730	         1.17034e+58
          1409.94360	         1.33565e+58
          1410.74990	         1.16089e+58
          1411.55620	         9.83085e+57
          1412.36250	         9.62313e+57
          1413.16880	         8.19224e+57
          1413.97510	         8.23355e+57
          1414.78140	         9.24326e+57
          1415.58770	         1.09366e+58
          1416.39400	         1.21042e+58
          1417.20030	         1.09055e+58
          1418.00660	         9.76242e+57
          1418.81290	         1.04891e+58
          1419.61920	         9.89721e+57
          1420.42550	         1.10254e+58
          1421.23180	         1.27797e+58
          1422.03810	         1.24394e+58
          1422.84440	         1.07187e+58
          1423.65070	         1.25498e+58
          1424.45700	         1.23668e+58
          1425.26330	         9.22107e+57
          1426.06960	         7.92823e+57
          1426.87590	         9.95022e+57
          1427.68220	         1.06366e+58
          1428.48850	         1.04973e+58
          1429.29480	         1.01397e+58
          1430.10110	         9.49152e+57
          1430.90740	         8.78054e+57
          1431.71370	         9.10947e+57
          1432.52000	         9.21349e+57
          1433.32630	         8.12365e+57
          1434.13260	         7.97924e+57
          1434.93890	         7.96954e+57
          1435.74520	         8.40174e+57
          1436.55150	         8.51302e+57
          1437.35780	         9.27212e+57
          1438.16410	         1.02247e+58
          1438.97040	         8.43272e+57
          1439.77670	         8.34488e+57
          1440.58300	         8.63135e+57
          1441.38930	         9.99737e+57
          1442.19560	         1.01052e+58
          1443.00190	         9.55790e+57
          1443.80820	         1.15642e+58
          1444.61450	         1.01925e+58
          1445.42080	         8.02764e+57
          1446.22710	         1.05658e+58
          1447.03340	         1.08688e+58
          1447.83970	         1.05026e+58
          1448.64600	         1.00572e+58
          1449.45230	         9.34737e+57
          1450.25860	         1.06640e+58
          1451.06490	         8.46193e+57
          1451.87120	         7.09875e+57
          1452.67750	         7.27674e+57
          1453.48380	         8.30903e+57
          1454.29010	         7.94385e+57
          1455.09640	         7.62415e+57
          1455.90270	         8.33670e+57
          1456.70900	         9.09190e+57
          1457.51530	         1.00153e+58
          1458.32160	         1.12177e+58
          1459.12790	         1.10710e+58
          1459.93420	         9.46840e+57
          1460.74050	         8.79296e+57
          1461.54680	         8.02070e+57
          1462.35310	         6.82320e+57
          1463.15940	         9.36104e+57
          1463.96570	         1.07711e+58
          1464.77200	         1.02303e+58
          1465.57830	         1.09387e+58
          1466.38460	         9.46359e+57
          1467.19090	         8.20284e+57
          1467.99720	         8.83722e+57
          1468.80350	         1.02824e+58
          1469.60980	         9.85512e+57
          1470.41610	         1.01787e+58
          1471.22240	         1.00024e+58
          1472.02870	         9.63065e+57
          1472.83500	         1.00030e+58
          1473.64130	         9.77751e+57
          1474.44760	         9.49905e+57
          1475.25390	         1.03098e+58
          1476.06020	         8.91855e+57
          1476.86650	         7.93997e+57
          1477.67280	         7.46235e+57
          1478.47910	         6.39179e+57
          1479.28540	         6.91411e+57
          1480.09170	         8.56961e+57
          1480.89800	         8.82524e+57
          1481.70430	         9.08052e+57
          1482.51060	         8.12001e+57
          1483.31690	         7.67523e+57
          1484.12320	         8.04369e+57
          1484.92950	         8.53051e+57
          1485.73580	         8.34998e+57
          1486.54210	         8.06063e+57
          1487.34840	         9.59690e+57
          1488.15470	         9.36410e+57
          1488.96100	         8.22229e+57
          1489.76730	         8.23433e+57
