#sample_367_stacked_spectrum_rest_UV-bands_median_H-alpha_noDC.txt
#median Lum: 1.66544e+42
#Rest-frame wavelength (A) | Luminosity (erg/s/A)
#
          1110.00000	         0.00000e+00
          1110.80630	        -9.12577e+58
          1111.61260	         1.30115e+59
          1112.41890	         1.21753e+59
          1113.22520	         1.02323e+59
          1114.03150	        -1.00355e+59
          1114.83780	         5.11791e+57
          1115.64410	        -7.18912e+58
          1116.45040	         1.82257e+58
          1117.25670	         4.20261e+58
          1118.06300	        -2.77297e+58
          1118.86930	        -6.62774e+57
          1119.67560	         1.59628e+58
          1120.48190	        -8.41533e+58
          1121.28820	        -2.18803e+59
          1122.09450	        -3.03172e+58
          1122.90080	         3.45303e+58
          1123.70710	         1.33884e+58
          1124.51340	         3.54112e+58
          1125.31970	         3.92107e+58
          1126.12600	         7.39236e+57
          1126.93230	        -7.24000e+58
          1127.73860	        -2.66041e+58
          1128.54490	        -8.67256e+57
          1129.35120	         7.31562e+57
          1130.15750	        -2.84406e+58
          1130.96380	        -8.16479e+57
          1131.77010	         2.48992e+58
          1132.57640	         5.53105e+58
          1133.38270	         5.21769e+58
          1134.18900	         1.65836e+58
          1134.99530	         2.37726e+58
          1135.80160	         1.05465e+58
          1136.60790	        -3.04645e+57
          1137.41420	        -1.56237e+58
          1138.22050	         2.56632e+58
          1139.02680	         1.91593e+58
          1139.83310	        -4.02880e+57
          1140.63940	         1.18001e+58
          1141.44570	        -1.84179e+58
          1142.25200	        -6.76417e+57
          1143.05830	         3.36130e+58
          1143.86460	         2.37808e+58
          1144.67090	         3.00095e+58
          1145.47720	         1.69213e+58
          1146.28350	         1.78809e+58
          1147.08980	         1.19428e+58
          1147.89610	         1.80909e+58
          1148.70240	         3.29075e+58
          1149.50870	         2.59355e+58
          1150.31500	         1.14130e+58
          1151.12130	         1.25763e+58
          1151.92760	         6.12232e+57
          1152.73390	         6.57276e+57
          1153.54020	         8.05979e+57
          1154.34650	         2.37301e+58
          1155.15280	         1.49266e+58
          1155.95910	         9.13834e+57
          1156.76540	         3.21077e+57
          1157.57170	        -4.62533e+57
          1158.37800	         7.69414e+56
          1159.18430	         3.84516e+57
          1159.99060	         2.10529e+57
          1160.79690	        -7.98711e+57
          1161.60320	         1.26725e+58
          1162.40950	         1.09534e+58
          1163.21580	         1.70849e+58
          1164.02210	         2.16884e+58
          1164.82840	         1.24684e+58
          1165.63470	         1.97507e+58
          1166.44100	         3.05307e+58
          1167.24730	         2.63926e+58
          1168.05360	         1.14194e+58
          1168.85990	         1.11791e+58
          1169.66620	         7.70509e+57
          1170.47250	         1.21825e+58
          1171.27880	         1.19204e+58
          1172.08510	         1.65345e+58
          1172.89140	         9.34191e+57
          1173.69770	         9.60463e+57
          1174.50400	         1.06080e+58
          1175.31030	         1.39130e+58
          1176.11660	         1.88311e+58
          1176.92290	         1.79768e+58
          1177.72920	         1.03712e+58
          1178.53550	         3.31378e+57
          1179.34180	         2.47348e+57
          1180.14810	         7.38282e+57
          1180.95440	         1.16818e+58
          1181.76070	         9.80204e+57
          1182.56700	         1.17013e+58
          1183.37330	         8.96564e+57
          1184.17960	         1.34637e+58
          1184.98590	         1.73177e+58
          1185.79220	         1.13442e+58
          1186.59850	         1.25169e+58
          1187.40480	         1.32079e+58
          1188.21110	         1.59140e+58
          1189.01740	         1.25223e+58
          1189.82370	         1.38581e+58
          1190.63000	         8.08550e+57
          1191.43630	         9.39303e+57
          1192.24260	         5.20669e+57
          1193.04890	         9.40083e+57
          1193.85520	         1.35278e+58
          1194.66150	         8.51718e+57
          1195.46780	         8.18611e+57
          1196.27410	         1.45463e+58
          1197.08040	         1.02148e+58
          1197.88670	         1.24882e+58
          1198.69300	         1.75081e+58
          1199.49930	         1.74761e+58
          1200.30560	         1.08314e+58
          1201.11190	         1.40209e+58
          1201.91820	         1.39953e+58
          1202.72450	         9.68575e+57
          1203.53080	         1.41738e+58
          1204.33710	         6.73347e+57
          1205.14340	         5.76810e+57
          1205.94970	         3.88050e+57
          1206.75600	         4.06318e+57
          1207.56230	         8.64058e+57
          1208.36860	         1.20493e+58
          1209.17490	         8.31048e+57
          1209.98120	         6.00819e+57
          1210.78750	         8.65675e+57
          1211.59380	         1.13750e+58
          1212.40010	         1.77256e+58
          1213.20640	         2.03256e+58
          1214.01270	         2.31707e+58
          1214.81900	         2.50482e+58
          1215.62530	         4.22141e+58
          1216.43160	         8.98318e+58
          1217.23790	         1.50464e+59
          1218.04420	         1.12906e+59
          1218.85050	         8.61363e+58
          1219.65680	         5.49008e+58
          1220.46310	         3.23902e+58
          1221.26940	         2.28842e+58
          1222.07570	         1.01630e+58
          1222.88200	         1.08121e+58
          1223.68830	         1.32590e+58
          1224.49460	         9.90489e+57
          1225.30090	         8.15317e+57
          1226.10720	         6.58677e+57
          1226.91350	         5.98199e+57
          1227.71980	         9.12636e+57
          1228.52610	         1.23253e+58
          1229.33240	         1.20594e+58
          1230.13870	         1.06508e+58
          1230.94500	         8.06853e+57
          1231.75130	         4.47543e+57
          1232.55760	         6.92396e+57
          1233.36390	         7.27646e+57
          1234.17020	         7.61221e+57
          1234.97650	         7.47632e+57
          1235.78280	         8.30908e+57
          1236.58910	         1.10158e+58
          1237.39540	         1.38860e+58
          1238.20170	         1.10045e+58
          1239.00800	         9.90566e+57
          1239.81430	         1.33272e+58
          1240.62060	         1.26708e+58
          1241.42690	         1.32426e+58
          1242.23320	         1.26772e+58
          1243.03950	         8.31937e+57
          1243.84580	         8.17039e+57
          1244.65210	         1.04053e+58
          1245.45840	         1.26527e+58
          1246.26470	         1.20056e+58
          1247.07100	         1.03388e+58
          1247.87730	         7.62611e+57
          1248.68360	         2.19418e+57
          1249.48990	         4.80851e+57
          1250.29620	         1.05368e+58
          1251.10250	         7.84351e+57
          1251.90880	         4.46523e+57
          1252.71510	         4.80227e+57
          1253.52140	         6.11543e+57
          1254.32770	         7.69192e+57
          1255.13400	         1.15578e+58
          1255.94030	         1.20760e+58
          1256.74660	         9.94775e+57
          1257.55290	         8.82863e+57
          1258.35920	         7.61775e+57
          1259.16550	         4.17513e+57
          1259.97180	         4.13289e+57
          1260.77810	         7.54301e+57
          1261.58440	         1.11385e+58
          1262.39070	         1.01201e+58
          1263.19700	         8.29624e+57
          1264.00330	         9.78251e+57
          1264.80960	         9.73646e+57
          1265.61590	         1.07701e+58
          1266.42220	         1.05261e+58
          1267.22850	         9.32070e+57
          1268.03480	         1.29618e+58
          1268.84110	         1.53798e+58
          1269.64740	         1.44229e+58
          1270.45370	         1.22998e+58
          1271.26000	         9.95635e+57
          1272.06630	         1.24326e+58
          1272.87260	         1.39950e+58
          1273.67890	         1.36430e+58
          1274.48520	         1.15404e+58
          1275.29150	         1.11751e+58
          1276.09780	         1.15189e+58
          1276.90410	         1.43129e+58
          1277.71040	         1.36703e+58
          1278.51670	         1.26016e+58
          1279.32300	         1.53401e+58
          1280.12930	         1.35377e+58
          1280.93560	         1.08680e+58
          1281.74190	         1.24088e+58
          1282.54820	         1.15591e+58
          1283.35450	         1.10250e+58
          1284.16080	         1.21207e+58
          1284.96710	         1.33827e+58
          1285.77340	         1.02797e+58
          1286.57970	         1.03569e+58
          1287.38600	         1.44789e+58
          1288.19230	         1.70847e+58
          1288.99860	         1.59143e+58
          1289.80490	         1.13276e+58
          1290.61120	         1.24944e+58
          1291.41750	         1.41402e+58
          1292.22380	         1.29577e+58
          1293.03010	         1.30541e+58
          1293.83640	         1.44278e+58
          1294.64270	         1.18331e+58
          1295.44900	         7.29632e+57
          1296.25530	         9.47986e+57
          1297.06160	         9.75819e+57
          1297.86790	         8.51424e+57
          1298.67420	         8.09000e+57
          1299.48050	         9.43240e+57
          1300.28680	         1.03366e+58
          1301.09310	         8.57322e+57
          1301.89940	         4.24780e+57
          1302.70570	         5.41034e+57
          1303.51200	         6.48036e+57
          1304.31830	         9.97392e+57
          1305.12460	         1.06550e+58
          1305.93090	         1.04981e+58
          1306.73720	         1.16539e+58
          1307.54350	         1.35756e+58
          1308.34980	         1.41193e+58
          1309.15610	         1.41603e+58
          1309.96240	         1.45393e+58
          1310.76870	         1.43450e+58
          1311.57500	         1.20405e+58
          1312.38130	         1.25408e+58
          1313.18760	         1.64334e+58
          1313.99390	         1.53646e+58
          1314.80020	         1.46655e+58
          1315.60650	         1.49682e+58
          1316.41280	         1.24509e+58
          1317.21910	         1.06928e+58
          1318.02540	         1.22503e+58
          1318.83170	         1.41574e+58
          1319.63800	         1.28024e+58
          1320.44430	         1.05830e+58
          1321.25060	         1.20305e+58
          1322.05690	         1.19502e+58
          1322.86320	         1.17573e+58
          1323.66950	         1.05950e+58
          1324.47580	         9.19497e+57
          1325.28210	         9.75131e+57
          1326.08840	         1.10454e+58
          1326.89470	         1.31917e+58
          1327.70100	         1.00722e+58
          1328.50730	         6.96071e+57
          1329.31360	         7.91332e+57
          1330.11990	         8.89439e+57
          1330.92620	         9.40854e+57
          1331.73250	         1.11588e+58
          1332.53880	         1.02129e+58
          1333.34510	         8.98669e+57
          1334.15140	         9.03567e+57
          1334.95770	         9.38729e+57
          1335.76400	         9.46645e+57
          1336.57030	         1.06476e+58
          1337.37660	         1.06376e+58
          1338.18290	         1.09321e+58
          1338.98920	         1.26917e+58
          1339.79550	         1.22208e+58
          1340.60180	         1.09143e+58
          1341.40810	         1.29718e+58
          1342.21440	         1.18695e+58
          1343.02070	         1.13351e+58
          1343.82700	         1.30606e+58
          1344.63330	         1.29589e+58
          1345.43960	         1.29362e+58
          1346.24590	         1.02138e+58
          1347.05220	         1.11742e+58
          1347.85850	         1.06874e+58
          1348.66480	         1.03267e+58
          1349.47110	         1.16493e+58
          1350.27740	         1.11668e+58
          1351.08370	         1.16738e+58
          1351.89000	         1.27364e+58
          1352.69630	         1.13012e+58
          1353.50260	         1.25440e+58
          1354.30890	         1.31533e+58
          1355.11520	         1.25926e+58
          1355.92150	         1.08487e+58
          1356.72780	         1.03562e+58
          1357.53410	         1.14128e+58
          1358.34040	         1.10524e+58
          1359.14670	         1.12760e+58
          1359.95300	         1.08039e+58
          1360.75930	         1.19861e+58
          1361.56560	         1.17496e+58
          1362.37190	         1.24238e+58
          1363.17820	         1.22937e+58
          1363.98450	         1.16053e+58
          1364.79080	         1.25933e+58
          1365.59710	         1.39741e+58
          1366.40340	         1.11818e+58
          1367.20970	         8.31709e+57
          1368.01600	         9.60566e+57
          1368.82230	         1.07800e+58
          1369.62860	         9.94637e+57
          1370.43490	         7.68335e+57
          1371.24120	         9.06970e+57
          1372.04750	         9.13695e+57
          1372.85380	         1.17626e+58
          1373.66010	         1.16274e+58
          1374.46640	         9.40251e+57
          1375.27270	         9.07000e+57
          1376.07900	         9.45315e+57
          1376.88530	         1.00081e+58
          1377.69160	         8.25547e+57
          1378.49790	         6.15852e+57
          1379.30420	         6.95448e+57
          1380.11050	         7.86852e+57
          1380.91680	         8.27809e+57
          1381.72310	         9.23323e+57
          1382.52940	         8.09199e+57
          1383.33570	         7.54367e+57
          1384.14200	         9.45840e+57
          1384.94830	         1.20653e+58
          1385.75460	         1.19676e+58
          1386.56090	         1.11831e+58
          1387.36720	         1.06378e+58
          1388.17350	         1.18086e+58
          1388.97980	         1.13359e+58
          1389.78610	         9.21473e+57
          1390.59240	         8.23898e+57
          1391.39870	         5.99020e+57
          1392.20500	         8.50195e+57
          1393.01130	         8.61787e+57
          1393.81760	         6.28986e+57
          1394.62390	         7.42852e+57
          1395.43020	         7.83508e+57
          1396.23650	         7.24113e+57
          1397.04280	         7.46693e+57
          1397.84910	         9.11564e+57
          1398.65540	         8.72185e+57
          1399.46170	         9.71361e+57
          1400.26800	         8.80910e+57
          1401.07430	         7.59394e+57
          1401.88060	         7.78718e+57
          1402.68690	         9.32913e+57
          1403.49320	         1.00749e+58
          1404.29950	         9.58389e+57
          1405.10580	         9.68222e+57
          1405.91210	         9.84661e+57
          1406.71840	         1.03462e+58
          1407.52470	         1.07880e+58
          1408.33100	         9.47472e+57
          1409.13730	         1.03655e+58
          1409.94360	         1.15896e+58
          1410.74990	         1.15748e+58
          1411.55620	         1.01740e+58
          1412.36250	         1.00786e+58
          1413.16880	         1.04180e+58
          1413.97510	         9.92426e+57
          1414.78140	         1.00379e+58
          1415.58770	         1.17192e+58
          1416.39400	         1.03728e+58
          1417.20030	         9.45859e+57
          1418.00660	         1.01991e+58
          1418.81290	         1.05272e+58
          1419.61920	         1.02810e+58
          1420.42550	         1.23299e+58
          1421.23180	         1.33788e+58
          1422.03810	         1.20114e+58
          1422.84440	         1.08630e+58
          1423.65070	         1.20622e+58
          1424.45700	         1.15856e+58
          1425.26330	         9.42700e+57
          1426.06960	         9.63425e+57
          1426.87590	         1.07694e+58
          1427.68220	         1.07582e+58
          1428.48850	         1.18263e+58
          1429.29480	         1.11509e+58
          1430.10110	         9.56600e+57
          1430.90740	         8.50952e+57
          1431.71370	         8.33976e+57
          1432.52000	         8.93685e+57
          1433.32630	         8.09807e+57
          1434.13260	         8.07385e+57
          1434.93890	         8.58692e+57
          1435.74520	         9.53375e+57
          1436.55150	         9.41294e+57
          1437.35780	         8.37605e+57
          1438.16410	         9.12081e+57
          1438.97040	         8.37462e+57
          1439.77670	         8.21686e+57
          1440.58300	         9.90968e+57
          1441.38930	         9.40461e+57
          1442.19560	         9.40816e+57
          1443.00190	         1.00987e+58
          1443.80820	         1.09083e+58
          1444.61450	         9.28991e+57
          1445.42080	         7.42400e+57
          1446.22710	         8.68404e+57
          1447.03340	         9.71693e+57
          1447.83970	         1.17285e+58
          1448.64600	         1.11554e+58
          1449.45230	         1.00034e+58
          1450.25860	         1.05943e+58
          1451.06490	         8.79596e+57
          1451.87120	         7.37129e+57
          1452.67750	         6.97022e+57
          1453.48380	         8.59274e+57
          1454.29010	         7.58353e+57
          1455.09640	         7.09337e+57
          1455.90270	         8.80614e+57
          1456.70900	         8.79225e+57
          1457.51530	         1.00167e+58
          1458.32160	         1.25365e+58
          1459.12790	         1.18014e+58
          1459.93420	         1.07481e+58
          1460.74050	         8.99509e+57
          1461.54680	         7.98453e+57
          1462.35310	         8.57260e+57
          1463.15940	         1.05544e+58
          1463.96570	         1.11493e+58
          1464.77200	         1.16953e+58
          1465.57830	         1.12365e+58
          1466.38460	         9.91675e+57
          1467.19090	         8.65724e+57
          1467.99720	         1.00275e+58
          1468.80350	         9.77018e+57
          1469.60980	         9.10333e+57
          1470.41610	         1.05311e+58
          1471.22240	         1.01054e+58
          1472.02870	         9.69043e+57
          1472.83500	         1.07929e+58
          1473.64130	         1.01487e+58
          1474.44760	         9.94777e+57
          1475.25390	         9.06094e+57
          1476.06020	         8.25353e+57
          1476.86650	         8.19458e+57
          1477.67280	         8.15151e+57
          1478.47910	         7.43341e+57
          1479.28540	         7.67060e+57
          1480.09170	         9.18580e+57
          1480.89800	         8.73376e+57
          1481.70430	         7.57571e+57
          1482.51060	         7.63185e+57
          1483.31690	         7.27437e+57
          1484.12320	         7.15975e+57
          1484.92950	         6.79742e+57
          1485.73580	         7.84060e+57
          1486.54210	         8.43528e+57
          1487.34840	         8.23948e+57
          1488.15470	         9.06166e+57
          1488.96100	         9.50352e+57
          1489.76730	         8.84453e+57
