#sample_299_stacked_spectrum_rest_UV-bands_median_H-alpha_noDC.txt
#median Lum: 1.69210e+42
#Rest-frame wavelength (A) | Luminosity (erg/s/A)
#
          1110.00000	         0.00000e+00
          1110.80630	         2.23190e+59
          1111.61260	         9.75788e+58
          1112.41890	         1.55149e+59
          1113.22520	         4.53833e+58
          1114.03150	        -2.10333e+59
          1114.83780	         9.05377e+58
          1115.64410	         1.37586e+59
          1116.45040	         6.04308e+58
          1117.25670	         9.89725e+58
          1118.06300	         6.17979e+58
          1118.86930	        -3.71726e+58
          1119.67560	         8.36762e+58
          1120.48190	         9.01076e+57
          1121.28820	        -1.15082e+59
          1122.09450	        -1.99285e+58
          1122.90080	        -3.42684e+58
          1123.70710	        -3.15442e+58
          1124.51340	         7.30242e+58
          1125.31970	         9.71976e+57
          1126.12600	         1.67955e+58
          1126.93230	        -3.58229e+58
          1127.73860	        -7.19785e+58
          1128.54490	        -1.14250e+58
          1129.35120	         1.72978e+58
          1130.15750	        -7.78258e+57
          1130.96380	        -8.51525e+57
          1131.77010	         4.51628e+58
          1132.57640	         1.54818e+58
          1133.38270	         2.90247e+58
          1134.18900	         9.44355e+57
          1134.99530	         1.86144e+58
          1135.80160	        -3.37070e+57
          1136.60790	        -1.12459e+58
          1137.41420	        -8.56015e+57
          1138.22050	         4.30736e+58
          1139.02680	         4.93885e+57
          1139.83310	         7.27338e+57
          1140.63940	         1.19941e+58
          1141.44570	        -1.43624e+58
          1142.25200	         1.13683e+58
          1143.05830	         3.04980e+58
          1143.86460	         2.65535e+58
          1144.67090	         3.39138e+58
          1145.47720	         1.65758e+58
          1146.28350	         7.84167e+57
          1147.08980	         1.56816e+58
          1147.89610	         1.53839e+58
          1148.70240	         2.39443e+58
          1149.50870	         2.49877e+58
          1150.31500	         1.34958e+58
          1151.12130	         5.38990e+57
          1151.92760	         2.12968e+57
          1152.73390	         5.05121e+57
          1153.54020	         1.20442e+58
          1154.34650	         2.19193e+58
          1155.15280	         1.35236e+58
          1155.95910	         1.16620e+58
          1156.76540	         1.91198e+58
          1157.57170	        -6.39464e+56
          1158.37800	         8.46175e+57
          1159.18430	         7.27721e+57
          1159.99060	         1.84869e+58
          1160.79690	         1.31946e+58
          1161.60320	         1.72913e+58
          1162.40950	         1.56191e+58
          1163.21580	         1.30260e+58
          1164.02210	         1.93919e+57
          1164.82840	         5.27065e+57
          1165.63470	         1.57092e+58
          1166.44100	         2.98358e+58
          1167.24730	         2.12977e+58
          1168.05360	         7.00624e+57
          1168.85990	         1.14570e+57
          1169.66620	         1.03336e+58
          1170.47250	         1.74534e+58
          1171.27880	         1.35894e+58
          1172.08510	         2.35795e+58
          1172.89140	         1.47675e+58
          1173.69770	         1.14422e+58
          1174.50400	         1.21814e+58
          1175.31030	         1.27516e+58
          1176.11660	         1.51682e+58
          1176.92290	         1.61464e+58
          1177.72920	         1.68845e+58
          1178.53550	         1.14042e+58
          1179.34180	         1.09296e+58
          1180.14810	         1.30095e+58
          1180.95440	         8.35548e+57
          1181.76070	         3.89287e+57
          1182.56700	         6.00666e+57
          1183.37330	         9.25701e+57
          1184.17960	         1.21901e+58
          1184.98590	         9.40967e+57
          1185.79220	         7.37107e+57
          1186.59850	         7.37700e+57
          1187.40480	         1.08723e+58
          1188.21110	         2.10750e+58
          1189.01740	         1.12016e+58
          1189.82370	         1.60941e+58
          1190.63000	         1.09331e+58
          1191.43630	         1.01558e+58
          1192.24260	         8.43514e+57
          1193.04890	         1.11527e+58
          1193.85520	         7.56117e+57
          1194.66150	         2.79107e+57
          1195.46780	         1.26400e+58
          1196.27410	         1.58357e+58
          1197.08040	         8.86341e+57
          1197.88670	         1.53585e+58
          1198.69300	         1.98407e+58
          1199.49930	         2.05019e+58
          1200.30560	         1.01378e+58
          1201.11190	         7.12991e+57
          1201.91820	         1.08613e+58
          1202.72450	         9.85536e+57
          1203.53080	         1.55565e+58
          1204.33710	         8.02310e+57
          1205.14340	         5.46213e+57
          1205.94970	         4.73123e+57
          1206.75600	         8.74408e+57
          1207.56230	         5.24482e+57
          1208.36860	         8.31784e+57
          1209.17490	         5.06350e+57
          1209.98120	         4.08652e+57
          1210.78750	         8.19801e+57
          1211.59380	         1.16386e+58
          1212.40010	         1.86383e+58
          1213.20640	         2.22479e+58
          1214.01270	         2.17179e+58
          1214.81900	         2.93184e+58
          1215.62530	         4.45527e+58
          1216.43160	         8.93183e+58
          1217.23790	         1.52921e+59
          1218.04420	         1.17212e+59
          1218.85050	         8.57296e+58
          1219.65680	         5.38973e+58
          1220.46310	         3.29827e+58
          1221.26940	         2.48219e+58
          1222.07570	         1.51206e+58
          1222.88200	         1.16464e+58
          1223.68830	         9.50063e+57
          1224.49460	         6.02482e+57
          1225.30090	         6.27849e+57
          1226.10720	         4.89390e+57
          1226.91350	         6.38349e+57
          1227.71980	         7.06786e+57
          1228.52610	         1.05803e+58
          1229.33240	         8.19619e+57
          1230.13870	         7.97260e+57
          1230.94500	         1.00906e+58
          1231.75130	         8.32453e+57
          1232.55760	         9.99606e+57
          1233.36390	         7.01081e+57
          1234.17020	         9.38980e+57
          1234.97650	         8.15097e+57
          1235.78280	         5.65064e+57
          1236.58910	         5.94698e+57
          1237.39540	         9.65444e+57
          1238.20170	         1.11059e+58
          1239.00800	         1.24995e+58
          1239.81430	         1.36798e+58
          1240.62060	         9.07184e+57
          1241.42690	         9.71483e+57
          1242.23320	         1.38754e+58
          1243.03950	         8.55208e+57
          1243.84580	         7.69856e+57
          1244.65210	         1.06064e+58
          1245.45840	         1.17208e+58
          1246.26470	         1.14899e+58
          1247.07100	         9.63234e+57
          1247.87730	         6.90777e+57
          1248.68360	         3.72717e+57
          1249.48990	         4.98198e+57
          1250.29620	         8.55524e+57
          1251.10250	         7.78425e+57
          1251.90880	         5.86897e+57
          1252.71510	         7.52627e+57
          1253.52140	         6.70656e+57
          1254.32770	         8.25407e+57
          1255.13400	         1.36507e+58
          1255.94030	         1.20123e+58
          1256.74660	         8.79542e+57
          1257.55290	         9.37378e+57
          1258.35920	         8.28545e+57
          1259.16550	         6.50840e+57
          1259.97180	         4.84661e+57
          1260.77810	         8.69746e+57
          1261.58440	         1.03648e+58
          1262.39070	         5.27344e+57
          1263.19700	         8.83920e+57
          1264.00330	         1.23659e+58
          1264.80960	         1.37365e+58
          1265.61590	         1.38282e+58
          1266.42220	         1.35574e+58
          1267.22850	         1.21965e+58
          1268.03480	         1.58443e+58
          1268.84110	         1.59536e+58
          1269.64740	         1.31443e+58
          1270.45370	         1.42013e+58
          1271.26000	         1.40177e+58
          1272.06630	         1.36438e+58
          1272.87260	         1.31907e+58
          1273.67890	         1.30521e+58
          1274.48520	         1.27256e+58
          1275.29150	         1.49337e+58
          1276.09780	         1.24784e+58
          1276.90410	         1.50131e+58
          1277.71040	         1.31950e+58
          1278.51670	         1.22924e+58
          1279.32300	         1.39706e+58
          1280.12930	         1.21698e+58
          1280.93560	         1.20548e+58
          1281.74190	         1.46873e+58
          1282.54820	         1.46155e+58
          1283.35450	         1.20437e+58
          1284.16080	         1.32393e+58
          1284.96710	         1.41684e+58
          1285.77340	         1.08853e+58
          1286.57970	         1.23776e+58
          1287.38600	         1.68091e+58
          1288.19230	         2.09275e+58
          1288.99860	         1.91888e+58
          1289.80490	         1.00256e+58
          1290.61120	         1.15422e+58
          1291.41750	         1.42232e+58
          1292.22380	         1.32853e+58
          1293.03010	         1.09997e+58
          1293.83640	         1.45876e+58
          1294.64270	         1.40930e+58
          1295.44900	         8.69189e+57
          1296.25530	         7.29028e+57
          1297.06160	         1.02131e+58
          1297.86790	         1.10945e+58
          1298.67420	         9.75040e+57
          1299.48050	         8.90918e+57
          1300.28680	         9.06873e+57
          1301.09310	         8.14411e+57
          1301.89940	         6.37783e+57
          1302.70570	         6.88497e+57
          1303.51200	         7.90015e+57
          1304.31830	         1.03839e+58
          1305.12460	         1.18810e+58
          1305.93090	         1.12487e+58
          1306.73720	         1.22018e+58
          1307.54350	         1.43323e+58
          1308.34980	         1.56072e+58
          1309.15610	         1.63013e+58
          1309.96240	         1.58834e+58
          1310.76870	         1.48214e+58
          1311.57500	         1.15611e+58
          1312.38130	         1.10041e+58
          1313.18760	         1.34489e+58
          1313.99390	         1.41697e+58
          1314.80020	         1.46987e+58
          1315.60650	         1.54149e+58
          1316.41280	         1.14720e+58
          1317.21910	         8.18857e+57
          1318.02540	         1.17850e+58
          1318.83170	         1.39703e+58
          1319.63800	         1.31347e+58
          1320.44430	         1.17881e+58
          1321.25060	         1.30030e+58
          1322.05690	         1.28841e+58
          1322.86320	         1.09920e+58
          1323.66950	         1.06123e+58
          1324.47580	         1.00054e+58
          1325.28210	         9.08053e+57
          1326.08840	         1.05958e+58
          1326.89470	         1.25166e+58
          1327.70100	         1.18121e+58
          1328.50730	         1.03502e+58
          1329.31360	         1.13068e+58
          1330.11990	         1.06055e+58
          1330.92620	         9.96305e+57
          1331.73250	         1.15417e+58
          1332.53880	         1.03340e+58
          1333.34510	         8.80594e+57
          1334.15140	         9.06080e+57
          1334.95770	         8.35394e+57
          1335.76400	         9.58537e+57
          1336.57030	         9.93544e+57
          1337.37660	         9.50453e+57
          1338.18290	         1.04018e+58
          1338.98920	         1.18872e+58
          1339.79550	         1.11401e+58
          1340.60180	         1.23518e+58
          1341.40810	         1.35790e+58
          1342.21440	         1.19048e+58
          1343.02070	         1.19741e+58
          1343.82700	         1.27895e+58
          1344.63330	         1.19727e+58
          1345.43960	         1.29264e+58
          1346.24590	         1.31163e+58
          1347.05220	         1.26945e+58
          1347.85850	         1.11813e+58
          1348.66480	         1.18934e+58
          1349.47110	         1.31850e+58
          1350.27740	         1.26286e+58
          1351.08370	         1.12806e+58
          1351.89000	         1.05854e+58
          1352.69630	         1.12864e+58
          1353.50260	         1.16354e+58
          1354.30890	         1.16290e+58
          1355.11520	         1.28086e+58
          1355.92150	         1.15915e+58
          1356.72780	         1.05565e+58
          1357.53410	         1.10320e+58
          1358.34040	         1.19027e+58
          1359.14670	         1.08624e+58
          1359.95300	         1.01789e+58
          1360.75930	         1.15651e+58
          1361.56560	         1.32199e+58
          1362.37190	         1.29080e+58
          1363.17820	         1.10655e+58
          1363.98450	         1.19489e+58
          1364.79080	         1.30993e+58
          1365.59710	         1.26136e+58
          1366.40340	         1.11033e+58
          1367.20970	         9.66381e+57
          1368.01600	         9.24276e+57
          1368.82230	         1.15989e+58
          1369.62860	         1.13677e+58
          1370.43490	         9.92116e+57
          1371.24120	         1.07340e+58
          1372.04750	         1.04604e+58
          1372.85380	         1.19595e+58
          1373.66010	         1.12514e+58
          1374.46640	         1.16621e+58
          1375.27270	         1.11999e+58
          1376.07900	         9.53033e+57
          1376.88530	         7.98442e+57
          1377.69160	         8.25756e+57
          1378.49790	         7.29977e+57
          1379.30420	         7.28417e+57
          1380.11050	         1.03430e+58
          1380.91680	         8.90968e+57
          1381.72310	         6.98376e+57
          1382.52940	         7.78178e+57
          1383.33570	         7.82443e+57
          1384.14200	         9.45516e+57
          1384.94830	         1.08915e+58
          1385.75460	         1.03888e+58
          1386.56090	         1.07604e+58
          1387.36720	         1.21559e+58
          1388.17350	         1.24859e+58
          1388.97980	         1.02180e+58
          1389.78610	         8.32463e+57
          1390.59240	         8.53291e+57
          1391.39870	         8.40941e+57
          1392.20500	         8.12571e+57
          1393.01130	         6.42336e+57
          1393.81760	         6.75758e+57
          1394.62390	         7.02972e+57
          1395.43020	         6.20612e+57
          1396.23650	         6.62990e+57
          1397.04280	         8.02515e+57
          1397.84910	         1.00368e+58
          1398.65540	         9.43851e+57
          1399.46170	         1.06748e+58
          1400.26800	         9.01492e+57
          1401.07430	         7.32912e+57
          1401.88060	         8.27151e+57
          1402.68690	         9.86047e+57
          1403.49320	         1.04161e+58
          1404.29950	         1.07930e+58
          1405.10580	         1.19093e+58
          1405.91210	         1.28387e+58
          1406.71840	         1.28635e+58
          1407.52470	         1.19451e+58
          1408.33100	         1.13204e+58
          1409.13730	         1.18392e+58
          1409.94360	         1.23574e+58
          1410.74990	         1.28490e+58
          1411.55620	         1.08838e+58
          1412.36250	         9.57784e+57
          1413.16880	         9.86337e+57
          1413.97510	         9.63852e+57
          1414.78140	         8.49451e+57
          1415.58770	         9.48304e+57
          1416.39400	         1.18976e+58
          1417.20030	         1.07730e+58
          1418.00660	         1.04041e+58
          1418.81290	         1.13589e+58
          1419.61920	         1.08478e+58
          1420.42550	         1.32444e+58
          1421.23180	         1.42238e+58
          1422.03810	         1.19108e+58
          1422.84440	         9.36293e+57
          1423.65070	         1.35749e+58
          1424.45700	         1.31258e+58
          1425.26330	         8.73919e+57
          1426.06960	         7.85954e+57
          1426.87590	         9.12134e+57
          1427.68220	         1.07419e+58
          1428.48850	         1.21574e+58
          1429.29480	         1.13515e+58
          1430.10110	         1.11560e+58
          1430.90740	         9.62691e+57
          1431.71370	         8.66890e+57
          1432.52000	         8.86679e+57
          1433.32630	         8.52966e+57
          1434.13260	         8.07651e+57
          1434.93890	         8.61173e+57
          1435.74520	         9.08442e+57
          1436.55150	         9.84872e+57
          1437.35780	         9.14540e+57
          1438.16410	         9.80293e+57
          1438.97040	         9.53020e+57
          1439.77670	         8.88791e+57
          1440.58300	         9.44060e+57
          1441.38930	         9.97187e+57
          1442.19560	         1.05462e+58
          1443.00190	         1.04274e+58
          1443.80820	         1.09034e+58
          1444.61450	         9.22861e+57
          1445.42080	         8.32976e+57
          1446.22710	         1.01354e+58
          1447.03340	         1.04186e+58
          1447.83970	         1.06652e+58
          1448.64600	         1.00530e+58
          1449.45230	         9.50691e+57
          1450.25860	         1.04825e+58
          1451.06490	         9.88381e+57
          1451.87120	         9.01691e+57
          1452.67750	         8.37283e+57
          1453.48380	         8.33392e+57
          1454.29010	         7.12942e+57
          1455.09640	         6.74632e+57
          1455.90270	         8.11313e+57
          1456.70900	         8.83405e+57
          1457.51530	         9.65948e+57
          1458.32160	         1.14088e+58
          1459.12790	         1.16671e+58
          1459.93420	         1.10011e+58
          1460.74050	         8.38028e+57
          1461.54680	         8.07387e+57
          1462.35310	         7.49781e+57
          1463.15940	         9.17361e+57
          1463.96570	         1.21901e+58
          1464.77200	         1.21222e+58
          1465.57830	         1.08690e+58
          1466.38460	         9.98415e+57
          1467.19090	         8.62318e+57
          1467.99720	         7.94030e+57
          1468.80350	         9.40873e+57
          1469.60980	         1.04925e+58
          1470.41610	         1.13273e+58
          1471.22240	         9.95648e+57
          1472.02870	         9.68220e+57
          1472.83500	         1.00765e+58
          1473.64130	         1.03097e+58
          1474.44760	         9.92321e+57
          1475.25390	         9.78397e+57
          1476.06020	         9.44348e+57
          1476.86650	         9.38657e+57
          1477.67280	         8.05387e+57
          1478.47910	         6.28043e+57
          1479.28540	         7.42609e+57
          1480.09170	         8.56809e+57
          1480.89800	         8.51320e+57
          1481.70430	         8.98437e+57
          1482.51060	         8.21386e+57
          1483.31690	         6.90214e+57
          1484.12320	         7.85491e+57
          1484.92950	         8.78657e+57
          1485.73580	         9.06275e+57
          1486.54210	         9.55466e+57
          1487.34840	         8.15407e+57
          1488.15470	         7.52350e+57
          1488.96100	         9.87299e+57
          1489.76730	         1.01847e+58
