#sample_411_stacked_spectrum_rest_UV-bands_median_H-alpha_noDC.txt
#median Lum: 1.70204e+42
#Rest-frame wavelength (A) | Luminosity (erg/s/A)
#
          1110.00000	         0.00000e+00
          1110.80630	         1.45236e+59
          1111.61260	         2.47338e+59
          1112.41890	         1.47385e+59
          1113.22520	        -4.04205e+58
          1114.03150	        -4.05047e+58
          1114.83780	         2.24965e+59
          1115.64410	         1.21903e+59
          1116.45040	         1.83453e+59
          1117.25670	        -1.89011e+58
          1118.06300	         2.24040e+59
          1118.86930	        -1.37040e+59
          1119.67560	         4.73529e+58
          1120.48190	         2.72563e+58
          1121.28820	        -1.17356e+59
          1122.09450	         8.71187e+58
          1122.90080	         9.34657e+58
          1123.70710	         6.29295e+58
          1124.51340	         9.27243e+58
          1125.31970	         3.59093e+57
          1126.12600	        -1.04777e+58
          1126.93230	        -4.00115e+58
          1127.73860	        -3.96915e+58
          1128.54490	         9.56127e+57
          1129.35120	         5.61122e+58
          1130.15750	         2.01491e+58
          1130.96380	         2.46498e+58
          1131.77010	         6.15359e+58
          1132.57640	         2.55171e+58
          1133.38270	         4.65907e+58
          1134.18900	         1.11242e+58
          1134.99530	        -1.62257e+57
          1135.80160	         1.32159e+58
          1136.60790	         1.25520e+58
          1137.41420	        -6.55809e+57
          1138.22050	         4.81894e+58
          1139.02680	         4.42274e+58
          1139.83310	         3.93601e+58
          1140.63940	         4.17601e+58
          1141.44570	         9.49441e+57
          1142.25200	        -3.13386e+57
          1143.05830	        -2.80531e+57
          1143.86460	         1.41908e+58
          1144.67090	         2.26160e+58
          1145.47720	         4.07976e+57
          1146.28350	         1.09439e+58
          1147.08980	         6.49144e+57
          1147.89610	         1.11805e+58
          1148.70240	         1.29342e+58
          1149.50870	         1.65147e+58
          1150.31500	         5.63961e+57
          1151.12130	         1.74130e+57
          1151.92760	         5.26929e+57
          1152.73390	        -9.40606e+56
          1153.54020	        -7.92416e+57
          1154.34650	         9.56657e+57
          1155.15280	         1.45239e+58
          1155.95910	         1.32438e+58
          1156.76540	         1.31183e+58
          1157.57170	        -6.15516e+57
          1158.37800	        -8.35541e+57
          1159.18430	        -2.21723e+57
          1159.99060	         3.88837e+57
          1160.79690	         3.66930e+57
          1161.60320	         1.68378e+58
          1162.40950	         1.35376e+58
          1163.21580	         1.70667e+58
          1164.02210	         1.58283e+58
          1164.82840	         1.58495e+58
          1165.63470	         1.09214e+58
          1166.44100	         2.43103e+58
          1167.24730	         1.94733e+58
          1168.05360	         7.02905e+57
          1168.85990	         3.88093e+57
          1169.66620	         7.89526e+57
          1170.47250	         1.42917e+58
          1171.27880	         1.79856e+58
          1172.08510	         1.94634e+58
          1172.89140	         1.03956e+58
          1173.69770	         2.49063e+57
          1174.50400	         8.85072e+57
          1175.31030	         1.90458e+58
          1176.11660	         2.23934e+58
          1176.92290	         1.59190e+58
          1177.72920	         1.25529e+58
          1178.53550	         1.08689e+58
          1179.34180	         1.36846e+57
          1180.14810	         6.85265e+57
          1180.95440	         9.93309e+57
          1181.76070	         3.91224e+57
          1182.56700	         6.22104e+57
          1183.37330	         7.66535e+57
          1184.17960	         1.19537e+58
          1184.98590	         1.25857e+58
          1185.79220	         9.85954e+57
          1186.59850	         1.12199e+58
          1187.40480	         9.35947e+57
          1188.21110	         1.30238e+58
          1189.01740	         1.34547e+58
          1189.82370	         1.02188e+58
          1190.63000	         9.94350e+57
          1191.43630	         9.10014e+57
          1192.24260	         9.33983e+57
          1193.04890	         1.18809e+58
          1193.85520	         9.01317e+57
          1194.66150	         6.99146e+57
          1195.46780	         1.10372e+58
          1196.27410	         1.49408e+58
          1197.08040	         1.20228e+58
          1197.88670	         1.40140e+58
          1198.69300	         1.82293e+58
          1199.49930	         1.92511e+58
          1200.30560	         1.47354e+58
          1201.11190	         1.60245e+58
          1201.91820	         8.46600e+57
          1202.72450	         4.92416e+57
          1203.53080	         1.42782e+58
          1204.33710	         5.57997e+57
          1205.14340	         5.56254e+57
          1205.94970	         9.37208e+57
          1206.75600	         9.33880e+57
          1207.56230	         8.81123e+57
          1208.36860	         1.20904e+58
          1209.17490	         4.37260e+57
          1209.98120	         4.84940e+57
          1210.78750	         7.68802e+57
          1211.59380	         1.23246e+58
          1212.40010	         1.81066e+58
          1213.20640	         2.24755e+58
          1214.01270	         1.94591e+58
          1214.81900	         2.66254e+58
          1215.62530	         4.86703e+58
          1216.43160	         9.40397e+58
          1217.23790	         1.53236e+59
          1218.04420	         1.18500e+59
          1218.85050	         8.90827e+58
          1219.65680	         5.82526e+58
          1220.46310	         3.74685e+58
          1221.26940	         2.52735e+58
          1222.07570	         1.26095e+58
          1222.88200	         1.11374e+58
          1223.68830	         1.08802e+58
          1224.49460	         7.40605e+57
          1225.30090	         5.76031e+57
          1226.10720	         6.25449e+57
          1226.91350	         7.04757e+57
          1227.71980	         8.93578e+57
          1228.52610	         1.20682e+58
          1229.33240	         8.73438e+57
          1230.13870	         7.78767e+57
          1230.94500	         8.11556e+57
          1231.75130	         7.41076e+57
          1232.55760	         7.91104e+57
          1233.36390	         8.44831e+57
          1234.17020	         8.60985e+57
          1234.97650	         8.61986e+57
          1235.78280	         9.01051e+57
          1236.58910	         9.00063e+57
          1237.39540	         1.00614e+58
          1238.20170	         9.88176e+57
          1239.00800	         1.15573e+58
          1239.81430	         1.32864e+58
          1240.62060	         9.93705e+57
          1241.42690	         1.10106e+58
          1242.23320	         1.16292e+58
          1243.03950	         7.69947e+57
          1243.84580	         6.26026e+57
          1244.65210	         1.01122e+58
          1245.45840	         1.12731e+58
          1246.26470	         9.23829e+57
          1247.07100	         8.28123e+57
          1247.87730	         8.42529e+57
          1248.68360	         4.38741e+57
          1249.48990	         1.05811e+58
          1250.29620	         1.19246e+58
          1251.10250	         9.53456e+57
          1251.90880	         9.00711e+57
          1252.71510	         7.63155e+57
          1253.52140	         6.33965e+57
          1254.32770	         1.02412e+58
          1255.13400	         1.39223e+58
          1255.94030	         1.01690e+58
          1256.74660	         8.32478e+57
          1257.55290	         1.13584e+58
          1258.35920	         1.02793e+58
          1259.16550	         5.38055e+57
          1259.97180	         4.96686e+57
          1260.77810	         9.68496e+57
          1261.58440	         1.38867e+58
          1262.39070	         1.07599e+58
          1263.19700	         6.79291e+57
          1264.00330	         7.48603e+57
          1264.80960	         8.49701e+57
          1265.61590	         1.12741e+58
          1266.42220	         1.13366e+58
          1267.22850	         1.06949e+58
          1268.03480	         1.38920e+58
          1268.84110	         1.65128e+58
          1269.64740	         1.36886e+58
          1270.45370	         1.25337e+58
          1271.26000	         1.15868e+58
          1272.06630	         1.12177e+58
          1272.87260	         1.23542e+58
          1273.67890	         1.21031e+58
          1274.48520	         1.22548e+58
          1275.29150	         1.34471e+58
          1276.09780	         1.27728e+58
          1276.90410	         1.32200e+58
          1277.71040	         1.28502e+58
          1278.51670	         1.26612e+58
          1279.32300	         1.41660e+58
          1280.12930	         1.41107e+58
          1280.93560	         1.16436e+58
          1281.74190	         1.10357e+58
          1282.54820	         1.22481e+58
          1283.35450	         1.27413e+58
          1284.16080	         1.25074e+58
          1284.96710	         1.38741e+58
          1285.77340	         1.40553e+58
          1286.57970	         9.90779e+57
          1287.38600	         1.34369e+58
          1288.19230	         1.72399e+58
          1288.99860	         1.51511e+58
          1289.80490	         1.32380e+58
          1290.61120	         1.45243e+58
          1291.41750	         1.39943e+58
          1292.22380	         1.17108e+58
          1293.03010	         9.92793e+57
          1293.83640	         1.22323e+58
          1294.64270	         1.13602e+58
          1295.44900	         7.36998e+57
          1296.25530	         7.30009e+57
          1297.06160	         8.41360e+57
          1297.86790	         1.01902e+58
          1298.67420	         9.91083e+57
          1299.48050	         9.43290e+57
          1300.28680	         1.12782e+58
          1301.09310	         9.84377e+57
          1301.89940	         5.21286e+57
          1302.70570	         5.69811e+57
          1303.51200	         7.90168e+57
          1304.31830	         1.05996e+58
          1305.12460	         1.13034e+58
          1305.93090	         1.16241e+58
          1306.73720	         1.25638e+58
          1307.54350	         1.37445e+58
          1308.34980	         1.49364e+58
          1309.15610	         1.63087e+58
          1309.96240	         1.67869e+58
          1310.76870	         1.25141e+58
          1311.57500	         1.22449e+58
          1312.38130	         1.34563e+58
          1313.18760	         1.29240e+58
          1313.99390	         1.41476e+58
          1314.80020	         1.52298e+58
          1315.60650	         1.74851e+58
          1316.41280	         1.34556e+58
          1317.21910	         1.14390e+58
          1318.02540	         1.03594e+58
          1318.83170	         1.17692e+58
          1319.63800	         1.19446e+58
          1320.44430	         1.03082e+58
          1321.25060	         1.09712e+58
          1322.05690	         1.19147e+58
          1322.86320	         1.22869e+58
          1323.66950	         1.11700e+58
          1324.47580	         1.04562e+58
          1325.28210	         9.83445e+57
          1326.08840	         1.05170e+58
          1326.89470	         1.17341e+58
          1327.70100	         1.07766e+58
          1328.50730	         9.66878e+57
          1329.31360	         1.04435e+58
          1330.11990	         1.01751e+58
          1330.92620	         1.02714e+58
          1331.73250	         1.15012e+58
          1332.53880	         9.75768e+57
          1333.34510	         8.71633e+57
          1334.15140	         8.31531e+57
          1334.95770	         7.74365e+57
          1335.76400	         1.05665e+58
          1336.57030	         1.15091e+58
          1337.37660	         1.02207e+58
          1338.18290	         1.08672e+58
          1338.98920	         1.02587e+58
          1339.79550	         9.92931e+57
          1340.60180	         1.16009e+58
          1341.40810	         1.42985e+58
          1342.21440	         1.31335e+58
          1343.02070	         1.27442e+58
          1343.82700	         1.37113e+58
          1344.63330	         1.23902e+58
          1345.43960	         1.22512e+58
          1346.24590	         1.03307e+58
          1347.05220	         1.00993e+58
          1347.85850	         9.20428e+57
          1348.66480	         1.04450e+58
          1349.47110	         1.16539e+58
          1350.27740	         1.13162e+58
          1351.08370	         1.18878e+58
          1351.89000	         1.23127e+58
          1352.69630	         1.24228e+58
          1353.50260	         1.13593e+58
          1354.30890	         1.11359e+58
          1355.11520	         1.15942e+58
          1355.92150	         1.16510e+58
          1356.72780	         1.09843e+58
          1357.53410	         1.07632e+58
          1358.34040	         1.18584e+58
          1359.14670	         1.16172e+58
          1359.95300	         1.03169e+58
          1360.75930	         1.15614e+58
          1361.56560	         1.18356e+58
          1362.37190	         1.25567e+58
          1363.17820	         1.20928e+58
          1363.98450	         1.23544e+58
          1364.79080	         1.25698e+58
          1365.59710	         1.21904e+58
          1366.40340	         1.06450e+58
          1367.20970	         1.03697e+58
          1368.01600	         1.08133e+58
          1368.82230	         1.01333e+58
          1369.62860	         1.04806e+58
          1370.43490	         9.92043e+57
          1371.24120	         9.73264e+57
          1372.04750	         8.25021e+57
          1372.85380	         9.60203e+57
          1373.66010	         1.16387e+58
          1374.46640	         1.14454e+58
          1375.27270	         1.10356e+58
          1376.07900	         8.87455e+57
          1376.88530	         8.76979e+57
          1377.69160	         7.89718e+57
          1378.49790	         7.04916e+57
          1379.30420	         7.77130e+57
          1380.11050	         9.64952e+57
          1380.91680	         9.51909e+57
          1381.72310	         7.38949e+57
          1382.52940	         7.26599e+57
          1383.33570	         9.09156e+57
          1384.14200	         1.03133e+58
          1384.94830	         1.05515e+58
          1385.75460	         1.14921e+58
          1386.56090	         1.06484e+58
          1387.36720	         8.44659e+57
          1388.17350	         1.11782e+58
          1388.97980	         1.18633e+58
          1389.78610	         9.93503e+57
          1390.59240	         7.74704e+57
          1391.39870	         7.86249e+57
          1392.20500	         9.38302e+57
          1393.01130	         5.66241e+57
          1393.81760	         6.27430e+57
          1394.62390	         8.07783e+57
          1395.43020	         7.32898e+57
          1396.23650	         7.94782e+57
          1397.04280	         7.66248e+57
          1397.84910	         7.96153e+57
          1398.65540	         8.50170e+57
          1399.46170	         9.09638e+57
          1400.26800	         6.88535e+57
          1401.07430	         6.78451e+57
          1401.88060	         8.28505e+57
          1402.68690	         9.05857e+57
          1403.49320	         9.58137e+57
          1404.29950	         9.18375e+57
          1405.10580	         1.02282e+58
          1405.91210	         1.18221e+58
          1406.71840	         1.12904e+58
          1407.52470	         1.05733e+58
          1408.33100	         9.11905e+57
          1409.13730	         1.05094e+58
          1409.94360	         1.21381e+58
          1410.74990	         1.14986e+58
          1411.55620	         9.34782e+57
          1412.36250	         8.73096e+57
          1413.16880	         9.01653e+57
          1413.97510	         9.96524e+57
          1414.78140	         8.82241e+57
          1415.58770	         9.89623e+57
          1416.39400	         1.06960e+58
          1417.20030	         1.00793e+58
          1418.00660	         9.33434e+57
          1418.81290	         1.01044e+58
          1419.61920	         9.95477e+57
          1420.42550	         1.13412e+58
          1421.23180	         1.26143e+58
          1422.03810	         1.19956e+58
          1422.84440	         1.04747e+58
          1423.65070	         1.02597e+58
          1424.45700	         9.65472e+57
          1425.26330	         8.49055e+57
          1426.06960	         8.17855e+57
          1426.87590	         9.22689e+57
          1427.68220	         1.05406e+58
          1428.48850	         1.17263e+58
          1429.29480	         1.05474e+58
          1430.10110	         1.00482e+58
          1430.90740	         8.39083e+57
          1431.71370	         8.38385e+57
          1432.52000	         8.40730e+57
          1433.32630	         7.53863e+57
          1434.13260	         8.18884e+57
          1434.93890	         8.49583e+57
          1435.74520	         8.49195e+57
          1436.55150	         9.05684e+57
          1437.35780	         8.86716e+57
          1438.16410	         8.68424e+57
          1438.97040	         9.22728e+57
          1439.77670	         9.36974e+57
          1440.58300	         8.39789e+57
          1441.38930	         8.93631e+57
          1442.19560	         9.28525e+57
          1443.00190	         9.24400e+57
          1443.80820	         1.10299e+58
          1444.61450	         9.92420e+57
          1445.42080	         8.13596e+57
          1446.22710	         9.85205e+57
          1447.03340	         1.11282e+58
          1447.83970	         1.05861e+58
          1448.64600	         1.09908e+58
          1449.45230	         1.03440e+58
          1450.25860	         1.09093e+58
          1451.06490	         9.03870e+57
          1451.87120	         6.38214e+57
          1452.67750	         6.64755e+57
          1453.48380	         9.06764e+57
          1454.29010	         8.23857e+57
          1455.09640	         7.38665e+57
          1455.90270	         8.08002e+57
          1456.70900	         8.16138e+57
          1457.51530	         1.01217e+58
          1458.32160	         1.20206e+58
          1459.12790	         1.15412e+58
          1459.93420	         1.01979e+58
          1460.74050	         8.83926e+57
          1461.54680	         8.37713e+57
          1462.35310	         8.23348e+57
          1463.15940	         8.95515e+57
          1463.96570	         1.00582e+58
          1464.77200	         1.17650e+58
          1465.57830	         1.06705e+58
          1466.38460	         8.17457e+57
          1467.19090	         7.79183e+57
          1467.99720	         8.08265e+57
          1468.80350	         9.32796e+57
          1469.60980	         9.91820e+57
          1470.41610	         1.04640e+58
          1471.22240	         9.24158e+57
          1472.02870	         8.68028e+57
          1472.83500	         9.47221e+57
          1473.64130	         9.24582e+57
          1474.44760	         9.17464e+57
          1475.25390	         1.02397e+58
          1476.06020	         9.58809e+57
          1476.86650	         9.10463e+57
          1477.67280	         8.40857e+57
          1478.47910	         7.59932e+57
          1479.28540	         8.53756e+57
          1480.09170	         8.27689e+57
          1480.89800	         8.52537e+57
          1481.70430	         9.29355e+57
          1482.51060	         8.53179e+57
          1483.31690	         7.67937e+57
          1484.12320	         7.04576e+57
          1484.92950	         6.99403e+57
          1485.73580	         8.02442e+57
          1486.54210	         9.00797e+57
          1487.34840	         8.48248e+57
          1488.15470	         7.80532e+57
          1488.96100	         8.34201e+57
          1489.76730	         7.76258e+57
