#sample_173_stacked_spectrum_rest_UV-bands_median_H-alpha_noDC.txt
#median Lum: 1.69406e+42
#Rest-frame wavelength (A) | Luminosity (erg/s/A)
#
          1110.00000	         0.00000e+00
          1110.80630	         5.12401e+59
          1111.61260	         2.60224e+59
          1112.41890	         7.92907e+58
          1113.22520	        -2.42940e+58
          1114.03150	        -6.00358e+58
          1114.83780	         8.19216e+58
          1115.64410	        -1.06916e+59
          1116.45040	        -1.24872e+59
          1117.25670	         1.87032e+59
          1118.06300	         7.18913e+58
          1118.86930	        -6.57190e+58
          1119.67560	         6.83929e+58
          1120.48190	         2.63764e+58
          1121.28820	        -2.45620e+58
          1122.09450	         3.48386e+58
          1122.90080	        -3.13230e+58
          1123.70710	         6.48761e+58
          1124.51340	         1.00178e+59
          1125.31970	         2.10830e+58
          1126.12600	        -2.88817e+58
          1126.93230	        -4.97674e+58
          1127.73860	        -2.06523e+58
          1128.54490	         4.11378e+58
          1129.35120	         1.63494e+58
          1130.15750	        -1.88802e+58
          1130.96380	        -1.25630e+58
          1131.77010	         1.68795e+58
          1132.57640	         3.68200e+58
          1133.38270	         3.17281e+58
          1134.18900	         4.25827e+58
          1134.99530	         2.62943e+58
          1135.80160	         3.47219e+58
          1136.60790	         2.24391e+58
          1137.41420	         1.25584e+58
          1138.22050	         4.33248e+58
          1139.02680	         1.42236e+58
          1139.83310	         1.13840e+58
          1140.63940	         3.97914e+58
          1141.44570	         1.75401e+58
          1142.25200	         1.05659e+58
          1143.05830	         2.27076e+58
          1143.86460	         1.26002e+58
          1144.67090	         3.64493e+58
          1145.47720	         1.32301e+58
          1146.28350	         8.10507e+57
          1147.08980	         1.29149e+58
          1147.89610	         1.71941e+58
          1148.70240	         1.49076e+58
          1149.50870	         1.35860e+58
          1150.31500	         3.76606e+57
          1151.12130	         4.59186e+57
          1151.92760	        -4.01665e+57
          1152.73390	        -8.86016e+57
          1153.54020	         1.48973e+57
          1154.34650	         2.69322e+58
          1155.15280	         2.51901e+58
          1155.95910	         2.32402e+57
          1156.76540	         4.71246e+57
          1157.57170	        -3.75601e+57
          1158.37800	         8.28031e+56
          1159.18430	        -6.58088e+56
          1159.99060	         6.36713e+57
          1160.79690	         5.78669e+57
          1161.60320	         1.91335e+58
          1162.40950	         1.59956e+58
          1163.21580	         2.09271e+58
          1164.02210	         1.51163e+58
          1164.82840	         9.73851e+57
          1165.63470	         2.09510e+58
          1166.44100	         2.99465e+58
          1167.24730	         1.99950e+58
          1168.05360	         1.45205e+58
          1168.85990	         9.15731e+57
          1169.66620	        -6.71941e+55
          1170.47250	         5.34120e+57
          1171.27880	         1.80762e+58
          1172.08510	         2.22734e+58
          1172.89140	         1.30224e+58
          1173.69770	        -2.80270e+57
          1174.50400	         7.41540e+57
          1175.31030	         1.69169e+58
          1176.11660	         1.63615e+58
          1176.92290	         1.20797e+58
          1177.72920	         8.23366e+57
          1178.53550	         6.67123e+57
          1179.34180	         4.81665e+57
          1180.14810	         5.27304e+57
          1180.95440	         7.26820e+57
          1181.76070	         7.37020e+57
          1182.56700	         7.05796e+57
          1183.37330	         9.45853e+57
          1184.17960	         1.55006e+58
          1184.98590	         1.13836e+58
          1185.79220	         8.62497e+57
          1186.59850	         1.14382e+58
          1187.40480	         1.00454e+58
          1188.21110	         1.64458e+58
          1189.01740	         1.07205e+58
          1189.82370	         1.37363e+58
          1190.63000	         1.27790e+58
          1191.43630	         1.10632e+58
          1192.24260	         7.38217e+57
          1193.04890	         1.12587e+58
          1193.85520	         1.26822e+58
          1194.66150	         7.63633e+57
          1195.46780	         1.56814e+58
          1196.27410	         1.76634e+58
          1197.08040	         1.38057e+58
          1197.88670	         1.19860e+58
          1198.69300	         1.36559e+58
          1199.49930	         1.75458e+58
          1200.30560	         1.62166e+58
          1201.11190	         1.58091e+58
          1201.91820	         8.16668e+57
          1202.72450	         7.66529e+57
          1203.53080	         1.30614e+58
          1204.33710	         8.40975e+57
          1205.14340	         9.10196e+57
          1205.94970	         4.32715e+57
          1206.75600	         7.30694e+57
          1207.56230	         8.39953e+57
          1208.36860	         1.28590e+58
          1209.17490	         6.78303e+57
          1209.98120	         7.33125e+57
          1210.78750	         1.00748e+58
          1211.59380	         8.73191e+57
          1212.40010	         1.19008e+58
          1213.20640	         2.14425e+58
          1214.01270	         2.28515e+58
          1214.81900	         2.66442e+58
          1215.62530	         4.59173e+58
          1216.43160	         8.99910e+58
          1217.23790	         1.51895e+59
          1218.04420	         1.24122e+59
          1218.85050	         9.19745e+58
          1219.65680	         5.89003e+58
          1220.46310	         3.43019e+58
          1221.26940	         2.41744e+58
          1222.07570	         1.85743e+58
          1222.88200	         1.59832e+58
          1223.68830	         1.46354e+58
          1224.49460	         1.07596e+58
          1225.30090	         5.57782e+57
          1226.10720	         4.99403e+57
          1226.91350	         8.99567e+57
          1227.71980	         1.20218e+58
          1228.52610	         1.38767e+58
          1229.33240	         1.32672e+58
          1230.13870	         1.15251e+58
          1230.94500	         8.10152e+57
          1231.75130	         5.81758e+57
          1232.55760	         5.15875e+57
          1233.36390	         8.36978e+57
          1234.17020	         8.00613e+57
          1234.97650	         6.85964e+57
          1235.78280	         9.95706e+57
          1236.58910	         1.10828e+58
          1237.39540	         8.36765e+57
          1238.20170	         8.36188e+57
          1239.00800	         1.38400e+58
          1239.81430	         1.77495e+58
          1240.62060	         1.32078e+58
          1241.42690	         1.03921e+58
          1242.23320	         1.34102e+58
          1243.03950	         1.11966e+58
          1243.84580	         9.42261e+57
          1244.65210	         9.93552e+57
          1245.45840	         1.06350e+58
          1246.26470	         9.03131e+57
          1247.07100	         5.05855e+57
          1247.87730	         7.88122e+57
          1248.68360	         6.11962e+57
          1249.48990	         1.15532e+58
          1250.29620	         1.31070e+58
          1251.10250	         1.03149e+58
          1251.90880	         7.36318e+57
          1252.71510	         4.43001e+57
          1253.52140	         7.14682e+57
          1254.32770	         1.05190e+58
          1255.13400	         1.42587e+58
          1255.94030	         1.22494e+58
          1256.74660	         9.61792e+57
          1257.55290	         1.24431e+58
          1258.35920	         9.11237e+57
          1259.16550	         5.51816e+57
          1259.97180	         5.71644e+57
          1260.77810	         7.66423e+57
          1261.58440	         9.21487e+57
          1262.39070	         8.36117e+57
          1263.19700	         1.02116e+58
          1264.00330	         1.07779e+58
          1264.80960	         1.16934e+58
          1265.61590	         1.37516e+58
          1266.42220	         1.46505e+58
          1267.22850	         1.24364e+58
          1268.03480	         1.23500e+58
          1268.84110	         1.55684e+58
          1269.64740	         1.49805e+58
          1270.45370	         1.32191e+58
          1271.26000	         1.15658e+58
          1272.06630	         1.41626e+58
          1272.87260	         1.46710e+58
          1273.67890	         1.34885e+58
          1274.48520	         1.34261e+58
          1275.29150	         1.37248e+58
          1276.09780	         1.40172e+58
          1276.90410	         1.59924e+58
          1277.71040	         1.36610e+58
          1278.51670	         1.13656e+58
          1279.32300	         1.43508e+58
          1280.12930	         1.39188e+58
          1280.93560	         1.12851e+58
          1281.74190	         1.11147e+58
          1282.54820	         1.33877e+58
          1283.35450	         1.12897e+58
          1284.16080	         1.05404e+58
          1284.96710	         1.31087e+58
          1285.77340	         1.31695e+58
          1286.57970	         1.16580e+58
          1287.38600	         1.36618e+58
          1288.19230	         1.63642e+58
          1288.99860	         1.96977e+58
          1289.80490	         1.37816e+58
          1290.61120	         1.27512e+58
          1291.41750	         1.45004e+58
          1292.22380	         1.13535e+58
          1293.03010	         8.69885e+57
          1293.83640	         1.15778e+58
          1294.64270	         1.15581e+58
          1295.44900	         5.33999e+57
          1296.25530	         7.06657e+57
          1297.06160	         1.11610e+58
          1297.86790	         1.06830e+58
          1298.67420	         7.47889e+57
          1299.48050	         9.05857e+57
          1300.28680	         1.09565e+58
          1301.09310	         8.22326e+57
          1301.89940	         3.82245e+57
          1302.70570	         5.96259e+57
          1303.51200	         8.35424e+57
          1304.31830	         1.10016e+58
          1305.12460	         1.13878e+58
          1305.93090	         1.09449e+58
          1306.73720	         1.37881e+58
          1307.54350	         1.48341e+58
          1308.34980	         1.49314e+58
          1309.15610	         1.53465e+58
          1309.96240	         1.52701e+58
          1310.76870	         1.16271e+58
          1311.57500	         1.02084e+58
          1312.38130	         1.21334e+58
          1313.18760	         1.22511e+58
          1313.99390	         1.45015e+58
          1314.80020	         1.75359e+58
          1315.60650	         1.58087e+58
          1316.41280	         1.35439e+58
          1317.21910	         1.26045e+58
          1318.02540	         1.17924e+58
          1318.83170	         1.35141e+58
          1319.63800	         1.29734e+58
          1320.44430	         1.15589e+58
          1321.25060	         1.11866e+58
          1322.05690	         1.23353e+58
          1322.86320	         1.35012e+58
          1323.66950	         1.22333e+58
          1324.47580	         9.31978e+57
          1325.28210	         9.25967e+57
          1326.08840	         1.11254e+58
          1326.89470	         1.28029e+58
          1327.70100	         1.23677e+58
          1328.50730	         1.05071e+58
          1329.31360	         1.09738e+58
          1330.11990	         1.02427e+58
          1330.92620	         8.04507e+57
          1331.73250	         1.00442e+58
          1332.53880	         1.19549e+58
          1333.34510	         9.33501e+57
          1334.15140	         8.15308e+57
          1334.95770	         8.85337e+57
          1335.76400	         1.10779e+58
          1336.57030	         1.08514e+58
          1337.37660	         1.00206e+58
          1338.18290	         1.10758e+58
          1338.98920	         1.20153e+58
          1339.79550	         1.07935e+58
          1340.60180	         1.03127e+58
          1341.40810	         1.20092e+58
          1342.21440	         1.22590e+58
          1343.02070	         1.29753e+58
          1343.82700	         1.37079e+58
          1344.63330	         1.27757e+58
          1345.43960	         1.29249e+58
          1346.24590	         1.29180e+58
          1347.05220	         1.27235e+58
          1347.85850	         1.10431e+58
          1348.66480	         1.06119e+58
          1349.47110	         1.22007e+58
          1350.27740	         1.18021e+58
          1351.08370	         1.20651e+58
          1351.89000	         1.20722e+58
          1352.69630	         1.31725e+58
          1353.50260	         1.26921e+58
          1354.30890	         1.14189e+58
          1355.11520	         1.19417e+58
          1355.92150	         1.14447e+58
          1356.72780	         1.05260e+58
          1357.53410	         1.09261e+58
          1358.34040	         1.15027e+58
          1359.14670	         1.05378e+58
          1359.95300	         1.11981e+58
          1360.75930	         1.19233e+58
          1361.56560	         1.13994e+58
          1362.37190	         1.17854e+58
          1363.17820	         1.10949e+58
          1363.98450	         1.17019e+58
          1364.79080	         1.22492e+58
          1365.59710	         1.09556e+58
          1366.40340	         1.03088e+58
          1367.20970	         1.09244e+58
          1368.01600	         1.10901e+58
          1368.82230	         1.03376e+58
          1369.62860	         1.01220e+58
          1370.43490	         8.68606e+57
          1371.24120	         9.03347e+57
          1372.04750	         9.31587e+57
          1372.85380	         1.24095e+58
          1373.66010	         1.19120e+58
          1374.46640	         9.51975e+57
          1375.27270	         1.03118e+58
          1376.07900	         9.70199e+57
          1376.88530	         8.64306e+57
          1377.69160	         7.87361e+57
          1378.49790	         7.49292e+57
          1379.30420	         9.12784e+57
          1380.11050	         1.07645e+58
          1380.91680	         7.98322e+57
          1381.72310	         7.98290e+57
          1382.52940	         9.50239e+57
          1383.33570	         8.56459e+57
          1384.14200	         1.07662e+58
          1384.94830	         1.16342e+58
          1385.75460	         8.53657e+57
          1386.56090	         1.02909e+58
          1387.36720	         1.28497e+58
          1388.17350	         1.56795e+58
          1388.97980	         1.16139e+58
          1389.78610	         7.23870e+57
          1390.59240	         8.10055e+57
          1391.39870	         7.77755e+57
          1392.20500	         8.27286e+57
          1393.01130	         8.22441e+57
          1393.81760	         7.70859e+57
          1394.62390	         6.27744e+57
          1395.43020	         5.63631e+57
          1396.23650	         7.43276e+57
          1397.04280	         8.07487e+57
          1397.84910	         8.40914e+57
          1398.65540	         9.19554e+57
          1399.46170	         1.01306e+58
          1400.26800	         8.88630e+57
          1401.07430	         8.40469e+57
          1401.88060	         8.72132e+57
          1402.68690	         9.32660e+57
          1403.49320	         9.33231e+57
          1404.29950	         9.00336e+57
          1405.10580	         1.10551e+58
          1405.91210	         1.22917e+58
          1406.71840	         1.19520e+58
          1407.52470	         1.13184e+58
          1408.33100	         1.05332e+58
          1409.13730	         1.14971e+58
          1409.94360	         1.20299e+58
          1410.74990	         1.21475e+58
          1411.55620	         9.88109e+57
          1412.36250	         9.38985e+57
          1413.16880	         9.79512e+57
          1413.97510	         8.50364e+57
          1414.78140	         8.66233e+57
          1415.58770	         9.20781e+57
          1416.39400	         9.99145e+57
          1417.20030	         1.14774e+58
          1418.00660	         1.07693e+58
          1418.81290	         1.08656e+58
          1419.61920	         1.01202e+58
          1420.42550	         1.17417e+58
          1421.23180	         1.45272e+58
          1422.03810	         1.28578e+58
          1422.84440	         1.05131e+58
          1423.65070	         1.22141e+58
          1424.45700	         1.15886e+58
          1425.26330	         8.13829e+57
          1426.06960	         7.87928e+57
          1426.87590	         9.58775e+57
          1427.68220	         1.09909e+58
          1428.48850	         1.13048e+58
          1429.29480	         9.77236e+57
          1430.10110	         9.82559e+57
          1430.90740	         9.07764e+57
          1431.71370	         9.06747e+57
          1432.52000	         8.30888e+57
          1433.32630	         7.57956e+57
          1434.13260	         8.17721e+57
          1434.93890	         8.24480e+57
          1435.74520	         8.81583e+57
          1436.55150	         1.02887e+58
          1437.35780	         9.27622e+57
          1438.16410	         9.30504e+57
          1438.97040	         9.65622e+57
          1439.77670	         9.27753e+57
          1440.58300	         9.19271e+57
          1441.38930	         1.01635e+58
          1442.19560	         1.05026e+58
          1443.00190	         1.02621e+58
          1443.80820	         1.01117e+58
          1444.61450	         8.66064e+57
          1445.42080	         7.90526e+57
          1446.22710	         1.04664e+58
          1447.03340	         1.06496e+58
          1447.83970	         1.15995e+58
          1448.64600	         1.15078e+58
          1449.45230	         9.47556e+57
          1450.25860	         1.12939e+58
          1451.06490	         1.00780e+58
          1451.87120	         7.88069e+57
          1452.67750	         7.55929e+57
          1453.48380	         9.06474e+57
          1454.29010	         9.31123e+57
          1455.09640	         8.39985e+57
          1455.90270	         8.62927e+57
          1456.70900	         8.91500e+57
          1457.51530	         9.99564e+57
          1458.32160	         1.13933e+58
          1459.12790	         1.18756e+58
          1459.93420	         1.06050e+58
          1460.74050	         7.27794e+57
          1461.54680	         7.73699e+57
          1462.35310	         8.70910e+57
          1463.15940	         9.68888e+57
          1463.96570	         1.09883e+58
          1464.77200	         1.21060e+58
          1465.57830	         1.10645e+58
          1466.38460	         1.08253e+58
          1467.19090	         8.75734e+57
          1467.99720	         8.20009e+57
          1468.80350	         9.91412e+57
          1469.60980	         1.01776e+58
          1470.41610	         1.07697e+58
          1471.22240	         9.29014e+57
          1472.02870	         8.95285e+57
          1472.83500	         9.78462e+57
          1473.64130	         1.02644e+58
          1474.44760	         8.96834e+57
          1475.25390	         8.92735e+57
          1476.06020	         9.78991e+57
          1476.86650	         8.93204e+57
          1477.67280	         7.85075e+57
          1478.47910	         6.57336e+57
          1479.28540	         8.02210e+57
          1480.09170	         8.85552e+57
          1480.89800	         8.20416e+57
          1481.70430	         8.47869e+57
          1482.51060	         8.45473e+57
          1483.31690	         7.59277e+57
          1484.12320	         6.76941e+57
          1484.92950	         7.94560e+57
          1485.73580	         8.19765e+57
          1486.54210	         8.30818e+57
          1487.34840	         8.06395e+57
          1488.15470	         8.09838e+57
          1488.96100	         9.05112e+57
          1489.76730	         9.41356e+57
