#sample_376_stacked_spectrum_rest_UV-bands_median_H-alpha_noDC.txt
#median Lum: 1.73197e+42
#Rest-frame wavelength (A) | Luminosity (erg/s/A)
#
          1110.00000	         0.00000e+00
          1110.80630	         3.57820e+59
          1111.61260	         2.99336e+59
          1112.41890	         3.23351e+58
          1113.22520	        -1.48198e+59
          1114.03150	        -4.34012e+59
          1114.83780	         9.66341e+58
          1115.64410	         1.23297e+59
          1116.45040	         2.37312e+59
          1117.25670	         1.73151e+59
          1118.06300	         4.89659e+58
          1118.86930	        -4.24626e+57
          1119.67560	         5.36235e+58
          1120.48190	         2.01740e+58
          1121.28820	        -1.44896e+59
          1122.09450	        -6.88430e+57
          1122.90080	         7.18560e+57
          1123.70710	         6.93758e+58
          1124.51340	         6.85886e+58
          1125.31970	         8.90366e+57
          1126.12600	         8.11139e+57
          1126.93230	        -1.82438e+58
          1127.73860	        -2.27515e+58
          1128.54490	         1.00455e+58
          1129.35120	         6.62008e+57
          1130.15750	        -2.54907e+58
          1130.96380	         5.18146e+57
          1131.77010	         7.49743e+58
          1132.57640	         4.06851e+58
          1133.38270	        -3.14674e+57
          1134.18900	        -5.87153e+56
          1134.99530	        -1.10930e+58
          1135.80160	         7.30602e+57
          1136.60790	         1.69824e+58
          1137.41420	         8.09056e+57
          1138.22050	         5.20170e+58
          1139.02680	         3.19630e+58
          1139.83310	         1.51040e+58
          1140.63940	         2.20937e+58
          1141.44570	         5.69284e+56
          1142.25200	         1.18456e+58
          1143.05830	         4.14822e+58
          1143.86460	         3.50002e+58
          1144.67090	         3.48234e+58
          1145.47720	         2.17572e+58
          1146.28350	         1.34909e+58
          1147.08980	         1.81465e+58
          1147.89610	         3.39811e+57
          1148.70240	         9.91740e+57
          1149.50870	         2.50465e+58
          1150.31500	         4.86454e+56
          1151.12130	         1.54839e+58
          1151.92760	         7.68504e+57
          1152.73390	         9.03328e+57
          1153.54020	         4.74072e+57
          1154.34650	         1.73219e+58
          1155.15280	         2.37813e+58
          1155.95910	         1.43985e+58
          1156.76540	         5.56937e+57
          1157.57170	        -3.34233e+57
          1158.37800	        -3.88619e+57
          1159.18430	        -2.69806e+57
          1159.99060	         8.15934e+57
          1160.79690	         9.27734e+57
          1161.60320	         1.03598e+58
          1162.40950	         1.15290e+58
          1163.21580	         1.61147e+57
          1164.02210	         1.36731e+58
          1164.82840	         1.63017e+58
          1165.63470	         2.56730e+58
          1166.44100	         3.02078e+58
          1167.24730	         2.43976e+58
          1168.05360	         1.07524e+58
          1168.85990	         9.88980e+57
          1169.66620	         1.44248e+58
          1170.47250	         1.80585e+58
          1171.27880	         1.55732e+58
          1172.08510	         9.31941e+57
          1172.89140	         3.73389e+57
          1173.69770	         1.26020e+58
          1174.50400	         1.26015e+58
          1175.31030	         1.14798e+58
          1176.11660	         1.44290e+58
          1176.92290	         1.48793e+58
          1177.72920	         1.30933e+58
          1178.53550	         7.12519e+57
          1179.34180	         3.06298e+56
          1180.14810	         4.11031e+57
          1180.95440	         9.73532e+57
          1181.76070	         1.03439e+58
          1182.56700	         1.05625e+58
          1183.37330	         8.29804e+57
          1184.17960	         1.03052e+58
          1184.98590	         6.27222e+57
          1185.79220	         3.38734e+57
          1186.59850	         7.37315e+57
          1187.40480	         8.45478e+57
          1188.21110	         1.29355e+58
          1189.01740	         1.08739e+58
          1189.82370	         1.07427e+58
          1190.63000	         1.17655e+58
          1191.43630	         9.96165e+57
          1192.24260	         3.82705e+57
          1193.04890	         1.03781e+58
          1193.85520	         9.22798e+57
          1194.66150	         5.52211e+57
          1195.46780	         1.25129e+58
          1196.27410	         1.63756e+58
          1197.08040	         1.10401e+58
          1197.88670	         1.60620e+58
          1198.69300	         1.39680e+58
          1199.49930	         1.34907e+58
          1200.30560	         9.66430e+57
          1201.11190	         9.00867e+57
          1201.91820	         9.31359e+57
          1202.72450	         8.21216e+57
          1203.53080	         1.00071e+58
          1204.33710	         9.89486e+57
          1205.14340	         4.14478e+57
          1205.94970	         1.85289e+57
          1206.75600	         1.76026e+57
          1207.56230	         4.56683e+57
          1208.36860	         6.86341e+57
          1209.17490	         4.41726e+57
          1209.98120	         5.26436e+57
          1210.78750	         5.13255e+57
          1211.59380	         1.27362e+58
          1212.40010	         2.03691e+58
          1213.20640	         2.18656e+58
          1214.01270	         2.20581e+58
          1214.81900	         2.73441e+58
          1215.62530	         4.52305e+58
          1216.43160	         9.24436e+58
          1217.23790	         1.52170e+59
          1218.04420	         1.12499e+59
          1218.85050	         8.89859e+58
          1219.65680	         5.83580e+58
          1220.46310	         3.39690e+58
          1221.26940	         2.22617e+58
          1222.07570	         1.39224e+58
          1222.88200	         1.09385e+58
          1223.68830	         8.54892e+57
          1224.49460	         6.39897e+57
          1225.30090	         4.83249e+57
          1226.10720	         4.58473e+57
          1226.91350	         5.08083e+57
          1227.71980	         9.61198e+57
          1228.52610	         1.05962e+58
          1229.33240	         8.58522e+57
          1230.13870	         9.35075e+57
          1230.94500	         1.07883e+58
          1231.75130	         7.37176e+57
          1232.55760	         7.76790e+57
          1233.36390	         1.02327e+58
          1234.17020	         6.11130e+57
          1234.97650	         7.98532e+57
          1235.78280	         8.94958e+57
          1236.58910	         8.81724e+57
          1237.39540	         8.73644e+57
          1238.20170	         9.81067e+57
          1239.00800	         1.28448e+58
          1239.81430	         1.50313e+58
          1240.62060	         1.19386e+58
          1241.42690	         9.80382e+57
          1242.23320	         1.03242e+58
          1243.03950	         7.76613e+57
          1243.84580	         6.77862e+57
          1244.65210	         8.89279e+57
          1245.45840	         1.12944e+58
          1246.26470	         9.34632e+57
          1247.07100	         7.92773e+57
          1247.87730	         5.64075e+57
          1248.68360	         4.61521e+57
          1249.48990	         8.17266e+57
          1250.29620	         1.06981e+58
          1251.10250	         1.10332e+58
          1251.90880	         5.00984e+57
          1252.71510	         2.75907e+57
          1253.52140	         5.81128e+57
          1254.32770	         9.57461e+57
          1255.13400	         1.36041e+58
          1255.94030	         1.06162e+58
          1256.74660	         8.87774e+57
          1257.55290	         1.08896e+58
          1258.35920	         7.75203e+57
          1259.16550	         4.12997e+57
          1259.97180	         5.44340e+57
          1260.77810	         8.55715e+57
          1261.58440	         1.07568e+58
          1262.39070	         9.69125e+57
          1263.19700	         9.70696e+57
          1264.00330	         1.02897e+58
          1264.80960	         1.16192e+58
          1265.61590	         1.37721e+58
          1266.42220	         1.32931e+58
          1267.22850	         1.10696e+58
          1268.03480	         1.30578e+58
          1268.84110	         1.35720e+58
          1269.64740	         1.22571e+58
          1270.45370	         1.30220e+58
          1271.26000	         1.26720e+58
          1272.06630	         1.23649e+58
          1272.87260	         1.21442e+58
          1273.67890	         1.19785e+58
          1274.48520	         1.14288e+58
          1275.29150	         1.28530e+58
          1276.09780	         1.27230e+58
          1276.90410	         1.59804e+58
          1277.71040	         1.45011e+58
          1278.51670	         1.38932e+58
          1279.32300	         1.57807e+58
          1280.12930	         1.46261e+58
          1280.93560	         1.17406e+58
          1281.74190	         1.16912e+58
          1282.54820	         1.28723e+58
          1283.35450	         1.18565e+58
          1284.16080	         1.33829e+58
          1284.96710	         1.43648e+58
          1285.77340	         1.02351e+58
          1286.57970	         1.10564e+58
          1287.38600	         1.42750e+58
          1288.19230	         1.78746e+58
          1288.99860	         1.60055e+58
          1289.80490	         1.30422e+58
          1290.61120	         1.28900e+58
          1291.41750	         1.44483e+58
          1292.22380	         1.18070e+58
          1293.03010	         9.88300e+57
          1293.83640	         1.14146e+58
          1294.64270	         1.03751e+58
          1295.44900	         6.97649e+57
          1296.25530	         7.27553e+57
          1297.06160	         9.49431e+57
          1297.86790	         8.39781e+57
          1298.67420	         8.98677e+57
          1299.48050	         9.36529e+57
          1300.28680	         1.11375e+58
          1301.09310	         7.82289e+57
          1301.89940	         2.95217e+57
          1302.70570	         5.96647e+57
          1303.51200	         7.62255e+57
          1304.31830	         9.31901e+57
          1305.12460	         1.12251e+58
          1305.93090	         1.07660e+58
          1306.73720	         1.14178e+58
          1307.54350	         1.36049e+58
          1308.34980	         1.39008e+58
          1309.15610	         1.56038e+58
          1309.96240	         1.73766e+58
          1310.76870	         1.47626e+58
          1311.57500	         1.14828e+58
          1312.38130	         1.12312e+58
          1313.18760	         1.28937e+58
          1313.99390	         1.55783e+58
          1314.80020	         1.66248e+58
          1315.60650	         1.46499e+58
          1316.41280	         1.25587e+58
          1317.21910	         1.22406e+58
          1318.02540	         1.18282e+58
          1318.83170	         1.20602e+58
          1319.63800	         1.21103e+58
          1320.44430	         1.05007e+58
          1321.25060	         1.05970e+58
          1322.05690	         1.13353e+58
          1322.86320	         1.14492e+58
          1323.66950	         1.21154e+58
          1324.47580	         9.81874e+57
          1325.28210	         9.68180e+57
          1326.08840	         1.09757e+58
          1326.89470	         1.32158e+58
          1327.70100	         1.13201e+58
          1328.50730	         8.62415e+57
          1329.31360	         1.00501e+58
          1330.11990	         1.07933e+58
          1330.92620	         8.70741e+57
          1331.73250	         9.58646e+57
          1332.53880	         9.21217e+57
          1333.34510	         7.92233e+57
          1334.15140	         9.01441e+57
          1334.95770	         9.93160e+57
          1335.76400	         1.05280e+58
          1336.57030	         1.02490e+58
          1337.37660	         1.00685e+58
          1338.18290	         8.94734e+57
          1338.98920	         1.04369e+58
          1339.79550	         1.25170e+58
          1340.60180	         1.19589e+58
          1341.40810	         1.30253e+58
          1342.21440	         1.39602e+58
          1343.02070	         1.36611e+58
          1343.82700	         1.31341e+58
          1344.63330	         1.36838e+58
          1345.43960	         1.30212e+58
          1346.24590	         1.01034e+58
          1347.05220	         1.02740e+58
          1347.85850	         1.03735e+58
          1348.66480	         1.11131e+58
          1349.47110	         1.30427e+58
          1350.27740	         1.32203e+58
          1351.08370	         1.27594e+58
          1351.89000	         1.17449e+58
          1352.69630	         1.12990e+58
          1353.50260	         1.18503e+58
          1354.30890	         1.20182e+58
          1355.11520	         1.27508e+58
          1355.92150	         1.15748e+58
          1356.72780	         1.19269e+58
          1357.53410	         1.18292e+58
          1358.34040	         1.15250e+58
          1359.14670	         1.09885e+58
          1359.95300	         1.00256e+58
          1360.75930	         1.03570e+58
          1361.56560	         1.08637e+58
          1362.37190	         1.09935e+58
          1363.17820	         1.08990e+58
          1363.98450	         1.09382e+58
          1364.79080	         1.40310e+58
          1365.59710	         1.43284e+58
          1366.40340	         1.15408e+58
          1367.20970	         1.02472e+58
          1368.01600	         9.98401e+57
          1368.82230	         9.17950e+57
          1369.62860	         9.92841e+57
          1370.43490	         8.48751e+57
          1371.24120	         7.76819e+57
          1372.04750	         9.17682e+57
          1372.85380	         1.08357e+58
          1373.66010	         1.09592e+58
          1374.46640	         1.18054e+58
          1375.27270	         1.12399e+58
          1376.07900	         9.47748e+57
          1376.88530	         9.36998e+57
          1377.69160	         8.18288e+57
          1378.49790	         6.52482e+57
          1379.30420	         6.78838e+57
          1380.11050	         8.63232e+57
          1380.91680	         8.85609e+57
          1381.72310	         7.62648e+57
          1382.52940	         7.67513e+57
          1383.33570	         8.45277e+57
          1384.14200	         9.98608e+57
          1384.94830	         1.06394e+58
          1385.75460	         1.02098e+58
          1386.56090	         1.08061e+58
          1387.36720	         1.08478e+58
          1388.17350	         1.17046e+58
          1388.97980	         1.03833e+58
          1389.78610	         9.85789e+57
          1390.59240	         8.41146e+57
          1391.39870	         8.19662e+57
          1392.20500	         9.14239e+57
          1393.01130	         8.57465e+57
          1393.81760	         6.61099e+57
          1394.62390	         6.61531e+57
          1395.43020	         7.57181e+57
          1396.23650	         7.11493e+57
          1397.04280	         7.47693e+57
          1397.84910	         9.35106e+57
          1398.65540	         9.37822e+57
          1399.46170	         8.62522e+57
          1400.26800	         7.62307e+57
          1401.07430	         7.81865e+57
          1401.88060	         9.04489e+57
          1402.68690	         1.01613e+58
          1403.49320	         9.68938e+57
          1404.29950	         9.66882e+57
          1405.10580	         9.98640e+57
          1405.91210	         1.02303e+58
          1406.71840	         1.00669e+58
          1407.52470	         9.42175e+57
          1408.33100	         1.02333e+58
          1409.13730	         1.17066e+58
          1409.94360	         1.17734e+58
          1410.74990	         1.17471e+58
          1411.55620	         1.14054e+58
          1412.36250	         1.14545e+58
          1413.16880	         9.81228e+57
          1413.97510	         7.32834e+57
          1414.78140	         9.62287e+57
          1415.58770	         1.18225e+58
          1416.39400	         1.08889e+58
          1417.20030	         1.02291e+58
          1418.00660	         8.97315e+57
          1418.81290	         9.87227e+57
          1419.61920	         1.06230e+58
          1420.42550	         1.14022e+58
          1421.23180	         1.30904e+58
          1422.03810	         1.20706e+58
          1422.84440	         1.08643e+58
          1423.65070	         1.22938e+58
          1424.45700	         1.07484e+58
          1425.26330	         7.74775e+57
          1426.06960	         8.99912e+57
          1426.87590	         1.19371e+58
          1427.68220	         1.09338e+58
          1428.48850	         1.07940e+58
          1429.29480	         1.03512e+58
          1430.10110	         9.80211e+57
          1430.90740	         8.62018e+57
          1431.71370	         8.51110e+57
          1432.52000	         8.42960e+57
          1433.32630	         8.28437e+57
          1434.13260	         8.22740e+57
          1434.93890	         7.87069e+57
          1435.74520	         9.37525e+57
          1436.55150	         1.01316e+58
          1437.35780	         1.03225e+58
          1438.16410	         1.12894e+58
          1438.97040	         9.48765e+57
          1439.77670	         7.93730e+57
          1440.58300	         9.75620e+57
          1441.38930	         1.02460e+58
          1442.19560	         9.37844e+57
          1443.00190	         9.12995e+57
          1443.80820	         1.04657e+58
          1444.61450	         1.03453e+58
          1445.42080	         9.02048e+57
          1446.22710	         9.83289e+57
          1447.03340	         1.08842e+58
          1447.83970	         1.19476e+58
          1448.64600	         1.17659e+58
          1449.45230	         9.91553e+57
          1450.25860	         9.50413e+57
          1451.06490	         8.42821e+57
          1451.87120	         7.49196e+57
          1452.67750	         7.67552e+57
          1453.48380	         9.37327e+57
          1454.29010	         8.45535e+57
          1455.09640	         7.39436e+57
          1455.90270	         8.54076e+57
          1456.70900	         9.13075e+57
          1457.51530	         9.31460e+57
          1458.32160	         1.12968e+58
          1459.12790	         1.21279e+58
          1459.93420	         1.12916e+58
          1460.74050	         9.37420e+57
          1461.54680	         8.94914e+57
          1462.35310	         7.96135e+57
          1463.15940	         8.94135e+57
          1463.96570	         1.12482e+58
          1464.77200	         1.30968e+58
          1465.57830	         1.17766e+58
          1466.38460	         9.72481e+57
          1467.19090	         8.71307e+57
          1467.99720	         8.89790e+57
          1468.80350	         8.89029e+57
          1469.60980	         9.66606e+57
          1470.41610	         1.11885e+58
          1471.22240	         9.40036e+57
          1472.02870	         9.38070e+57
          1472.83500	         1.05587e+58
          1473.64130	         9.94566e+57
          1474.44760	         9.79112e+57
          1475.25390	         9.25497e+57
          1476.06020	         8.00414e+57
          1476.86650	         8.67796e+57
          1477.67280	         8.24435e+57
          1478.47910	         6.38023e+57
          1479.28540	         7.30293e+57
          1480.09170	         8.80267e+57
          1480.89800	         8.17556e+57
          1481.70430	         8.25150e+57
          1482.51060	         8.29047e+57
          1483.31690	         7.49600e+57
          1484.12320	         8.18610e+57
          1484.92950	         8.37822e+57
          1485.73580	         8.90965e+57
          1486.54210	         1.02819e+58
          1487.34840	         8.57333e+57
          1488.15470	         6.74558e+57
          1488.96100	         7.47163e+57
          1489.76730	         7.69152e+57
