#sample_202_stacked_spectrum_rest_UV-bands_median_H-alpha_noDC.txt
#median Lum: 1.66331e+42
#Rest-frame wavelength (A) | Luminosity (erg/s/A)
#
          1110.00000	         0.00000e+00
          1110.80630	         3.67059e+59
          1111.61260	        -2.27015e+59
          1112.41890	        -1.21366e+59
          1113.22520	         2.93216e+58
          1114.03150	         1.85123e+59
          1114.83780	         2.69808e+59
          1115.64410	         2.18377e+59
          1116.45040	         2.15030e+59
          1117.25670	        -7.68338e+58
          1118.06300	         9.23956e+58
          1118.86930	         1.33482e+59
          1119.67560	         1.25672e+59
          1120.48190	        -3.98747e+58
          1121.28820	        -1.56226e+59
          1122.09450	         1.20912e+57
          1122.90080	         2.68447e+58
          1123.70710	         1.17043e+59
          1124.51340	         9.94453e+58
          1125.31970	        -2.14090e+58
          1126.12600	        -2.30661e+58
          1126.93230	        -5.64999e+58
          1127.73860	        -4.55407e+58
          1128.54490	        -3.12089e+58
          1129.35120	        -8.35069e+57
          1130.15750	        -4.57369e+58
          1130.96380	        -1.46208e+58
          1131.77010	         3.86355e+58
          1132.57640	         4.45137e+58
          1133.38270	         2.99300e+58
          1134.18900	         8.22905e+57
          1134.99530	         7.97344e+57
          1135.80160	         2.48419e+58
          1136.60790	         2.38505e+58
          1137.41420	         1.78169e+58
          1138.22050	         4.54516e+58
          1139.02680	         2.98551e+58
          1139.83310	         3.52407e+58
          1140.63940	         3.11955e+58
          1141.44570	        -1.05123e+58
          1142.25200	        -1.57480e+57
          1143.05830	         3.87475e+58
          1143.86460	         1.50999e+58
          1144.67090	         1.91043e+58
          1145.47720	         1.45760e+58
          1146.28350	         1.02439e+58
          1147.08980	         9.28688e+57
          1147.89610	         2.34343e+58
          1148.70240	         2.31814e+58
          1149.50870	         2.74823e+58
          1150.31500	         1.98996e+58
          1151.12130	         1.07468e+58
          1151.92760	         1.27282e+57
          1152.73390	         1.26604e+58
          1153.54020	         1.71799e+58
          1154.34650	         2.14251e+58
          1155.15280	         1.85959e+58
          1155.95910	         2.05757e+57
          1156.76540	        -7.29739e+55
          1157.57170	        -1.02120e+58
          1158.37800	         5.97637e+57
          1159.18430	         1.20160e+58
          1159.99060	         9.13097e+57
          1160.79690	        -3.50478e+57
          1161.60320	         1.00691e+58
          1162.40950	         1.46308e+58
          1163.21580	         2.10910e+58
          1164.02210	         3.42935e+57
          1164.82840	         9.08363e+57
          1165.63470	         2.48960e+58
          1166.44100	         3.54343e+58
          1167.24730	         2.47685e+58
          1168.05360	         1.09212e+58
          1168.85990	         7.25357e+57
          1169.66620	         7.48832e+57
          1170.47250	         1.63177e+58
          1171.27880	         1.93775e+58
          1172.08510	         2.48335e+58
          1172.89140	         1.98730e+58
          1173.69770	         2.99718e+57
          1174.50400	         5.96283e+57
          1175.31030	         1.54592e+58
          1176.11660	         1.32465e+58
          1176.92290	         1.10518e+58
          1177.72920	         8.20481e+57
          1178.53550	         1.01750e+58
          1179.34180	         7.50609e+57
          1180.14810	         9.38421e+57
          1180.95440	         1.00873e+58
          1181.76070	         1.06752e+58
          1182.56700	         1.17522e+58
          1183.37330	         1.22374e+58
          1184.17960	         1.53988e+58
          1184.98590	         1.36634e+58
          1185.79220	         1.07368e+58
          1186.59850	         1.13979e+58
          1187.40480	         7.76873e+57
          1188.21110	         1.10426e+58
          1189.01740	         1.00516e+58
          1189.82370	         1.22907e+58
          1190.63000	         1.42365e+58
          1191.43630	         1.51036e+58
          1192.24260	         1.10001e+58
          1193.04890	         1.29972e+58
          1193.85520	         1.38976e+58
          1194.66150	         6.42024e+57
          1195.46780	         1.19054e+58
          1196.27410	         1.20457e+58
          1197.08040	         7.91564e+57
          1197.88670	         1.35702e+58
          1198.69300	         1.82846e+58
          1199.49930	         1.81306e+58
          1200.30560	         9.73973e+57
          1201.11190	         9.09579e+57
          1201.91820	         9.53736e+57
          1202.72450	         6.87607e+57
          1203.53080	         1.41362e+58
          1204.33710	         7.93450e+57
          1205.14340	         9.87801e+57
          1205.94970	         6.77493e+57
          1206.75600	         4.66816e+57
          1207.56230	         5.42197e+57
          1208.36860	         9.22152e+57
          1209.17490	         6.98602e+57
          1209.98120	         8.52177e+57
          1210.78750	         7.61830e+57
          1211.59380	         1.07134e+58
          1212.40010	         1.77761e+58
          1213.20640	         2.23493e+58
          1214.01270	         2.28714e+58
          1214.81900	         2.73039e+58
          1215.62530	         4.65235e+58
          1216.43160	         9.17100e+58
          1217.23790	         1.55502e+59
          1218.04420	         1.14261e+59
          1218.85050	         8.53405e+58
          1219.65680	         5.60294e+58
          1220.46310	         3.15832e+58
          1221.26940	         2.42115e+58
          1222.07570	         1.18059e+58
          1222.88200	         1.02568e+58
          1223.68830	         9.44120e+57
          1224.49460	         6.87657e+57
          1225.30090	         6.04344e+57
          1226.10720	         7.88001e+57
          1226.91350	         6.97002e+57
          1227.71980	         8.92282e+57
          1228.52610	         9.29375e+57
          1229.33240	         8.55962e+57
          1230.13870	         8.84574e+57
          1230.94500	         8.26368e+57
          1231.75130	         7.79424e+57
          1232.55760	         9.06877e+57
          1233.36390	         7.45726e+57
          1234.17020	         9.29276e+57
          1234.97650	         9.29567e+57
          1235.78280	         8.81039e+57
          1236.58910	         1.08396e+58
          1237.39540	         1.27781e+58
          1238.20170	         9.36593e+57
          1239.00800	         1.06988e+58
          1239.81430	         1.35241e+58
          1240.62060	         1.15396e+58
          1241.42690	         1.15044e+58
          1242.23320	         1.00228e+58
          1243.03950	         7.13991e+57
          1243.84580	         7.77526e+57
          1244.65210	         9.99644e+57
          1245.45840	         8.96870e+57
          1246.26470	         1.15466e+58
          1247.07100	         8.26125e+57
          1247.87730	         3.71734e+57
          1248.68360	         2.74415e+57
          1249.48990	         6.87479e+57
          1250.29620	         9.01932e+57
          1251.10250	         6.75860e+57
          1251.90880	         5.71906e+57
          1252.71510	         5.95602e+57
          1253.52140	         6.65480e+57
          1254.32770	         1.10083e+58
          1255.13400	         1.36776e+58
          1255.94030	         9.63842e+57
          1256.74660	         9.06656e+57
          1257.55290	         1.17243e+58
          1258.35920	         1.06591e+58
          1259.16550	         5.77832e+57
          1259.97180	         4.82183e+57
          1260.77810	         7.96868e+57
          1261.58440	         1.20671e+58
          1262.39070	         7.58509e+57
          1263.19700	         6.39532e+57
          1264.00330	         1.04283e+58
          1264.80960	         1.27755e+58
          1265.61590	         1.50911e+58
          1266.42220	         1.38587e+58
          1267.22850	         1.09298e+58
          1268.03480	         1.22157e+58
          1268.84110	         1.45224e+58
          1269.64740	         1.36326e+58
          1270.45370	         1.28733e+58
          1271.26000	         1.25094e+58
          1272.06630	         1.14549e+58
          1272.87260	         1.14432e+58
          1273.67890	         1.13051e+58
          1274.48520	         1.20640e+58
          1275.29150	         1.29798e+58
          1276.09780	         1.04468e+58
          1276.90410	         1.27423e+58
          1277.71040	         1.27243e+58
          1278.51670	         1.32845e+58
          1279.32300	         1.53339e+58
          1280.12930	         1.37271e+58
          1280.93560	         1.04250e+58
          1281.74190	         1.04613e+58
          1282.54820	         1.19716e+58
          1283.35450	         9.62665e+57
          1284.16080	         9.03760e+57
          1284.96710	         1.25579e+58
          1285.77340	         1.25383e+58
          1286.57970	         1.07673e+58
          1287.38600	         1.45105e+58
          1288.19230	         1.93679e+58
          1288.99860	         1.46957e+58
          1289.80490	         8.28550e+57
          1290.61120	         1.15598e+58
          1291.41750	         1.44234e+58
          1292.22380	         1.25785e+58
          1293.03010	         1.30375e+58
          1293.83640	         1.42864e+58
          1294.64270	         1.15877e+58
          1295.44900	         8.32271e+57
          1296.25530	         6.57779e+57
          1297.06160	         9.50607e+57
          1297.86790	         1.08247e+58
          1298.67420	         7.51103e+57
          1299.48050	         8.73267e+57
          1300.28680	         9.52600e+57
          1301.09310	         7.70843e+57
          1301.89940	         4.63723e+57
          1302.70570	         7.52307e+57
          1303.51200	         8.58497e+57
          1304.31830	         9.03569e+57
          1305.12460	         1.02401e+58
          1305.93090	         1.11868e+58
          1306.73720	         1.23991e+58
          1307.54350	         1.36081e+58
          1308.34980	         1.41983e+58
          1309.15610	         1.52323e+58
          1309.96240	         1.44521e+58
          1310.76870	         1.25234e+58
          1311.57500	         1.05267e+58
          1312.38130	         1.06420e+58
          1313.18760	         1.44697e+58
          1313.99390	         1.71258e+58
          1314.80020	         1.70729e+58
          1315.60650	         1.46962e+58
          1316.41280	         1.21422e+58
          1317.21910	         1.04579e+58
          1318.02540	         1.15745e+58
          1318.83170	         1.26999e+58
          1319.63800	         1.12633e+58
          1320.44430	         1.08087e+58
          1321.25060	         1.24502e+58
          1322.05690	         1.30670e+58
          1322.86320	         1.18323e+58
          1323.66950	         1.13778e+58
          1324.47580	         1.05594e+58
          1325.28210	         1.09035e+58
          1326.08840	         1.10593e+58
          1326.89470	         1.25518e+58
          1327.70100	         1.09649e+58
          1328.50730	         8.51212e+57
          1329.31360	         1.02367e+58
          1330.11990	         9.87868e+57
          1330.92620	         9.34072e+57
          1331.73250	         1.04674e+58
          1332.53880	         9.81843e+57
          1333.34510	         9.56651e+57
          1334.15140	         8.84142e+57
          1334.95770	         8.51744e+57
          1335.76400	         9.56945e+57
          1336.57030	         1.05702e+58
          1337.37660	         1.06381e+58
          1338.18290	         1.16417e+58
          1338.98920	         1.16981e+58
          1339.79550	         1.05423e+58
          1340.60180	         1.09247e+58
          1341.40810	         1.21431e+58
          1342.21440	         1.14451e+58
          1343.02070	         1.13611e+58
          1343.82700	         1.18833e+58
          1344.63330	         1.35773e+58
          1345.43960	         1.54570e+58
          1346.24590	         1.34790e+58
          1347.05220	         1.17461e+58
          1347.85850	         1.03111e+58
          1348.66480	         1.18868e+58
          1349.47110	         1.35900e+58
          1350.27740	         1.09021e+58
          1351.08370	         1.06855e+58
          1351.89000	         1.10489e+58
          1352.69630	         1.13955e+58
          1353.50260	         1.03677e+58
          1354.30890	         1.12550e+58
          1355.11520	         1.22641e+58
          1355.92150	         1.21699e+58
          1356.72780	         1.10872e+58
          1357.53410	         1.08863e+58
          1358.34040	         1.05711e+58
          1359.14670	         1.05789e+58
          1359.95300	         1.11878e+58
          1360.75930	         1.16392e+58
          1361.56560	         1.09667e+58
          1362.37190	         1.15816e+58
          1363.17820	         1.06599e+58
          1363.98450	         1.13722e+58
          1364.79080	         1.20834e+58
          1365.59710	         1.15159e+58
          1366.40340	         1.12359e+58
          1367.20970	         1.03950e+58
          1368.01600	         9.10605e+57
          1368.82230	         7.88326e+57
          1369.62860	         9.79347e+57
          1370.43490	         9.74462e+57
          1371.24120	         9.06146e+57
          1372.04750	         8.51424e+57
          1372.85380	         9.89332e+57
          1373.66010	         1.04619e+58
          1374.46640	         9.78616e+57
          1375.27270	         9.97286e+57
          1376.07900	         9.38651e+57
          1376.88530	         9.42533e+57
          1377.69160	         8.31294e+57
          1378.49790	         7.04626e+57
          1379.30420	         7.00624e+57
          1380.11050	         8.98927e+57
          1380.91680	         8.20259e+57
          1381.72310	         6.66189e+57
          1382.52940	         9.05343e+57
          1383.33570	         9.36660e+57
          1384.14200	         1.02329e+58
          1384.94830	         1.16064e+58
          1385.75460	         1.10628e+58
          1386.56090	         1.18728e+58
          1387.36720	         1.10539e+58
          1388.17350	         1.21695e+58
          1388.97980	         1.07471e+58
          1389.78610	         9.92103e+57
          1390.59240	         8.85321e+57
          1391.39870	         7.19502e+57
          1392.20500	         9.62640e+57
          1393.01130	         8.34177e+57
          1393.81760	         7.32098e+57
          1394.62390	         7.34536e+57
          1395.43020	         6.89168e+57
          1396.23650	         7.85408e+57
          1397.04280	         8.36094e+57
          1397.84910	         8.67328e+57
          1398.65540	         8.49643e+57
          1399.46170	         9.69797e+57
          1400.26800	         9.04600e+57
          1401.07430	         7.48605e+57
          1401.88060	         7.46754e+57
          1402.68690	         9.93650e+57
          1403.49320	         9.70313e+57
          1404.29950	         9.48386e+57
          1405.10580	         1.01230e+58
          1405.91210	         1.08136e+58
          1406.71840	         1.10788e+58
          1407.52470	         1.03829e+58
          1408.33100	         1.00094e+58
          1409.13730	         1.11732e+58
          1409.94360	         1.29112e+58
          1410.74990	         1.21262e+58
          1411.55620	         9.54727e+57
          1412.36250	         9.75610e+57
          1413.16880	         1.00132e+58
          1413.97510	         8.59826e+57
          1414.78140	         9.03305e+57
          1415.58770	         1.05680e+58
          1416.39400	         1.07985e+58
          1417.20030	         1.15311e+58
          1418.00660	         1.05220e+58
          1418.81290	         9.06611e+57
          1419.61920	         1.03898e+58
          1420.42550	         1.22230e+58
          1421.23180	         1.32364e+58
          1422.03810	         1.23147e+58
          1422.84440	         1.14605e+58
          1423.65070	         1.36128e+58
          1424.45700	         1.18638e+58
          1425.26330	         9.03996e+57
          1426.06960	         9.96852e+57
          1426.87590	         9.81537e+57
          1427.68220	         9.56566e+57
          1428.48850	         1.13744e+58
          1429.29480	         1.06361e+58
          1430.10110	         9.24777e+57
          1430.90740	         9.34183e+57
          1431.71370	         8.73199e+57
          1432.52000	         8.20296e+57
          1433.32630	         7.88990e+57
          1434.13260	         7.58045e+57
          1434.93890	         8.53250e+57
          1435.74520	         8.50969e+57
          1436.55150	         8.76772e+57
          1437.35780	         8.98377e+57
          1438.16410	         9.45718e+57
          1438.97040	         9.51247e+57
          1439.77670	         9.18982e+57
          1440.58300	         9.07981e+57
          1441.38930	         8.99947e+57
          1442.19560	         9.43126e+57
          1443.00190	         9.55470e+57
          1443.80820	         1.01014e+58
          1444.61450	         9.16297e+57
          1445.42080	         8.67516e+57
          1446.22710	         9.99826e+57
          1447.03340	         9.79371e+57
          1447.83970	         1.12598e+58
          1448.64600	         1.10854e+58
          1449.45230	         1.05017e+58
          1450.25860	         1.03646e+58
          1451.06490	         8.80876e+57
          1451.87120	         7.74926e+57
          1452.67750	         7.45224e+57
          1453.48380	         9.09809e+57
          1454.29010	         7.73147e+57
          1455.09640	         7.28325e+57
          1455.90270	         8.90214e+57
          1456.70900	         9.20085e+57
          1457.51530	         1.07485e+58
          1458.32160	         1.30476e+58
          1459.12790	         1.25825e+58
          1459.93420	         1.07803e+58
          1460.74050	         7.62669e+57
          1461.54680	         8.50201e+57
          1462.35310	         8.65613e+57
          1463.15940	         8.62277e+57
          1463.96570	         1.08007e+58
          1464.77200	         1.17300e+58
          1465.57830	         1.11816e+58
          1466.38460	         9.61961e+57
          1467.19090	         8.43709e+57
          1467.99720	         8.78817e+57
          1468.80350	         9.28980e+57
          1469.60980	         9.28135e+57
          1470.41610	         1.03873e+58
          1471.22240	         1.04963e+58
          1472.02870	         1.00550e+58
          1472.83500	         9.98686e+57
          1473.64130	         9.78568e+57
          1474.44760	         9.24854e+57
          1475.25390	         9.01545e+57
          1476.06020	         8.93715e+57
          1476.86650	         9.46098e+57
          1477.67280	         7.89081e+57
          1478.47910	         6.80336e+57
          1479.28540	         6.38451e+57
          1480.09170	         8.62001e+57
          1480.89800	         9.92827e+57
          1481.70430	         9.42873e+57
          1482.51060	         7.86595e+57
          1483.31690	         8.27188e+57
          1484.12320	         8.68665e+57
          1484.92950	         8.41480e+57
          1485.73580	         7.80204e+57
          1486.54210	         8.26582e+57
          1487.34840	         9.56647e+57
          1488.15470	         9.66268e+57
          1488.96100	         9.44546e+57
          1489.76730	         1.03616e+58
