#sample_233_stacked_spectrum_rest_UV-bands_median_H-alpha_noDC.txt
#median Lum: 1.69228e+42
#Rest-frame wavelength (A) | Luminosity (erg/s/A)
#
          1110.00000	         0.00000e+00
          1110.80630	        -1.79322e+59
          1111.61260	         2.20649e+59
          1112.41890	         1.36920e+59
          1113.22520	         3.18650e+58
          1114.03150	        -9.83743e+58
          1114.83780	         2.01758e+59
          1115.64410	         4.61550e+58
          1116.45040	         1.28356e+59
          1117.25670	         2.26504e+58
          1118.06300	         2.09361e+59
          1118.86930	         5.41500e+58
          1119.67560	         1.42949e+59
          1120.48190	        -6.58640e+58
          1121.28820	        -1.53851e+59
          1122.09450	        -6.51976e+58
          1122.90080	        -6.93599e+57
          1123.70710	         5.05468e+58
          1124.51340	         7.52165e+58
          1125.31970	         1.73563e+58
          1126.12600	         5.35595e+57
          1126.93230	        -5.48201e+57
          1127.73860	        -3.79353e+58
          1128.54490	         1.89302e+58
          1129.35120	        -1.79325e+57
          1130.15750	        -5.15616e+58
          1130.96380	        -4.47751e+58
          1131.77010	         1.48104e+58
          1132.57640	         2.83190e+58
          1133.38270	         2.75619e+58
          1134.18900	         1.98567e+58
          1134.99530	         1.75893e+58
          1135.80160	         1.98454e+58
          1136.60790	         1.60811e+58
          1137.41420	         9.30799e+57
          1138.22050	         6.88941e+58
          1139.02680	         2.78822e+58
          1139.83310	         1.18966e+58
          1140.63940	         2.59964e+58
          1141.44570	         6.82851e+56
          1142.25200	         9.47006e+57
          1143.05830	         2.04379e+58
          1143.86460	         2.77180e+58
          1144.67090	         2.12766e+58
          1145.47720	         1.33931e+58
          1146.28350	         1.44329e+58
          1147.08980	         4.52599e+57
          1147.89610	         1.53158e+58
          1148.70240	         1.54498e+58
          1149.50870	         1.99108e+58
          1150.31500	         1.59983e+58
          1151.12130	         7.88908e+57
          1151.92760	        -5.61252e+57
          1152.73390	         8.62807e+57
          1153.54020	         5.12455e+57
          1154.34650	         2.04884e+58
          1155.15280	         1.95668e+58
          1155.95910	         1.21919e+58
          1156.76540	         7.88161e+57
          1157.57170	         7.00191e+57
          1158.37800	         7.31610e+57
          1159.18430	         2.12791e+57
          1159.99060	         1.03436e+58
          1160.79690	         6.04431e+57
          1161.60320	         1.05285e+58
          1162.40950	         1.18452e+58
          1163.21580	         2.28023e+58
          1164.02210	         1.12425e+58
          1164.82840	        -4.21941e+56
          1165.63470	         1.20321e+58
          1166.44100	         2.25362e+58
          1167.24730	         1.35703e+58
          1168.05360	         8.72035e+57
          1168.85990	         1.72120e+57
          1169.66620	         1.26857e+58
          1170.47250	         1.63398e+58
          1171.27880	         6.81500e+57
          1172.08510	         1.41078e+58
          1172.89140	         9.35058e+57
          1173.69770	        -4.06396e+56
          1174.50400	         1.00406e+58
          1175.31030	         1.62356e+58
          1176.11660	         1.51722e+58
          1176.92290	         1.73185e+58
          1177.72920	         1.51444e+58
          1178.53550	         8.28793e+57
          1179.34180	         1.07996e+58
          1180.14810	         1.03636e+58
          1180.95440	         1.08601e+58
          1181.76070	         8.52917e+57
          1182.56700	         6.02005e+57
          1183.37330	         6.36511e+57
          1184.17960	         1.46446e+58
          1184.98590	         1.40426e+58
          1185.79220	         1.31485e+58
          1186.59850	         1.21833e+58
          1187.40480	         9.34206e+57
          1188.21110	         1.30282e+58
          1189.01740	         1.37177e+58
          1189.82370	         1.08587e+58
          1190.63000	         1.16149e+58
          1191.43630	         1.15991e+58
          1192.24260	         3.01941e+57
          1193.04890	         8.83695e+57
          1193.85520	         1.01156e+58
          1194.66150	         5.01342e+57
          1195.46780	         9.09861e+57
          1196.27410	         1.55811e+58
          1197.08040	         9.73848e+57
          1197.88670	         1.18111e+58
          1198.69300	         1.39222e+58
          1199.49930	         1.40771e+58
          1200.30560	         1.10186e+58
          1201.11190	         1.18253e+58
          1201.91820	         1.10139e+58
          1202.72450	         4.79219e+57
          1203.53080	         1.53350e+58
          1204.33710	         1.44429e+58
          1205.14340	         6.93549e+57
          1205.94970	         7.73622e+57
          1206.75600	         6.09421e+57
          1207.56230	         6.15091e+57
          1208.36860	         9.67693e+57
          1209.17490	         5.48176e+57
          1209.98120	         9.90821e+57
          1210.78750	         1.21043e+58
          1211.59380	         1.21231e+58
          1212.40010	         2.07806e+58
          1213.20640	         1.74225e+58
          1214.01270	         2.00989e+58
          1214.81900	         2.64668e+58
          1215.62530	         4.60292e+58
          1216.43160	         9.22621e+58
          1217.23790	         1.50537e+59
          1218.04420	         1.18072e+59
          1218.85050	         8.95916e+58
          1219.65680	         6.18694e+58
          1220.46310	         3.69362e+58
          1221.26940	         2.45219e+58
          1222.07570	         1.26236e+58
          1222.88200	         1.07351e+58
          1223.68830	         9.64479e+57
          1224.49460	         6.46233e+57
          1225.30090	         7.10877e+57
          1226.10720	         7.37634e+57
          1226.91350	         7.52486e+57
          1227.71980	         8.59571e+57
          1228.52610	         9.78494e+57
          1229.33240	         7.54440e+57
          1230.13870	         7.55321e+57
          1230.94500	         6.68747e+57
          1231.75130	         6.05681e+57
          1232.55760	         7.53095e+57
          1233.36390	         7.21081e+57
          1234.17020	         1.00230e+58
          1234.97650	         8.92607e+57
          1235.78280	         7.59563e+57
          1236.58910	         8.71139e+57
          1237.39540	         1.00496e+58
          1238.20170	         1.06290e+58
          1239.00800	         1.32136e+58
          1239.81430	         1.57567e+58
          1240.62060	         1.36980e+58
          1241.42690	         1.13978e+58
          1242.23320	         1.09824e+58
          1243.03950	         1.05904e+58
          1243.84580	         1.06673e+58
          1244.65210	         8.88992e+57
          1245.45840	         9.26630e+57
          1246.26470	         1.03089e+58
          1247.07100	         5.00958e+57
          1247.87730	         7.53884e+57
          1248.68360	         5.65747e+57
          1249.48990	         6.07799e+57
          1250.29620	         8.48368e+57
          1251.10250	         6.88133e+57
          1251.90880	         5.11855e+57
          1252.71510	         5.24768e+57
          1253.52140	         8.30715e+57
          1254.32770	         9.03921e+57
          1255.13400	         1.15781e+58
          1255.94030	         1.00978e+58
          1256.74660	         1.06746e+58
          1257.55290	         1.16637e+58
          1258.35920	         7.42298e+57
          1259.16550	         5.40150e+57
          1259.97180	         5.79960e+57
          1260.77810	         8.70208e+57
          1261.58440	         1.36852e+58
          1262.39070	         1.06494e+58
          1263.19700	         8.21223e+57
          1264.00330	         1.15658e+58
          1264.80960	         1.25388e+58
          1265.61590	         1.36248e+58
          1266.42220	         1.31903e+58
          1267.22850	         9.69632e+57
          1268.03480	         1.12282e+58
          1268.84110	         1.34066e+58
          1269.64740	         1.35315e+58
          1270.45370	         1.23271e+58
          1271.26000	         1.26910e+58
          1272.06630	         1.42875e+58
          1272.87260	         1.02206e+58
          1273.67890	         8.54248e+57
          1274.48520	         1.22105e+58
          1275.29150	         1.38504e+58
          1276.09780	         1.22497e+58
          1276.90410	         1.40355e+58
          1277.71040	         1.33924e+58
          1278.51670	         1.19446e+58
          1279.32300	         1.49760e+58
          1280.12930	         1.33046e+58
          1280.93560	         9.37361e+57
          1281.74190	         1.07164e+58
          1282.54820	         1.42782e+58
          1283.35450	         1.28627e+58
          1284.16080	         1.30723e+58
          1284.96710	         1.47538e+58
          1285.77340	         1.20776e+58
          1286.57970	         1.25101e+58
          1287.38600	         1.55600e+58
          1288.19230	         1.63291e+58
          1288.99860	         1.35413e+58
          1289.80490	         1.01851e+58
          1290.61120	         1.22412e+58
          1291.41750	         1.45445e+58
          1292.22380	         1.20186e+58
          1293.03010	         1.09212e+58
          1293.83640	         1.29126e+58
          1294.64270	         1.02188e+58
          1295.44900	         5.04871e+57
          1296.25530	         5.82123e+57
          1297.06160	         9.03951e+57
          1297.86790	         1.09176e+58
          1298.67420	         1.19195e+58
          1299.48050	         1.06965e+58
          1300.28680	         9.80940e+57
          1301.09310	         8.14049e+57
          1301.89940	         3.91014e+57
          1302.70570	         6.13371e+57
          1303.51200	         8.73936e+57
          1304.31830	         1.03676e+58
          1305.12460	         1.02329e+58
          1305.93090	         1.12337e+58
          1306.73720	         1.28036e+58
          1307.54350	         1.37443e+58
          1308.34980	         1.44019e+58
          1309.15610	         1.56177e+58
          1309.96240	         1.57686e+58
          1310.76870	         1.41852e+58
          1311.57500	         1.09594e+58
          1312.38130	         9.88998e+57
          1313.18760	         1.06404e+58
          1313.99390	         1.14365e+58
          1314.80020	         1.47031e+58
          1315.60650	         1.61491e+58
          1316.41280	         1.28314e+58
          1317.21910	         1.02696e+58
          1318.02540	         1.07978e+58
          1318.83170	         1.25562e+58
          1319.63800	         1.19173e+58
          1320.44430	         1.21200e+58
          1321.25060	         1.27927e+58
          1322.05690	         1.44025e+58
          1322.86320	         1.35861e+58
          1323.66950	         1.18060e+58
          1324.47580	         1.01018e+58
          1325.28210	         1.00406e+58
          1326.08840	         1.22950e+58
          1326.89470	         1.44356e+58
          1327.70100	         1.12521e+58
          1328.50730	         8.30015e+57
          1329.31360	         9.75901e+57
          1330.11990	         9.53168e+57
          1330.92620	         9.24631e+57
          1331.73250	         9.91014e+57
          1332.53880	         9.84611e+57
          1333.34510	         9.18422e+57
          1334.15140	         8.97793e+57
          1334.95770	         8.82310e+57
          1335.76400	         1.20631e+58
          1336.57030	         1.32105e+58
          1337.37660	         1.15006e+58
          1338.18290	         1.06579e+58
          1338.98920	         1.14410e+58
          1339.79550	         1.06427e+58
          1340.60180	         1.10837e+58
          1341.40810	         1.35628e+58
          1342.21440	         1.20278e+58
          1343.02070	         1.18131e+58
          1343.82700	         1.30269e+58
          1344.63330	         1.17847e+58
          1345.43960	         1.29436e+58
          1346.24590	         1.06534e+58
          1347.05220	         1.13293e+58
          1347.85850	         1.21297e+58
          1348.66480	         1.31503e+58
          1349.47110	         1.33091e+58
          1350.27740	         1.14477e+58
          1351.08370	         1.04847e+58
          1351.89000	         1.05169e+58
          1352.69630	         1.02555e+58
          1353.50260	         1.17888e+58
          1354.30890	         1.09253e+58
          1355.11520	         1.08424e+58
          1355.92150	         1.07909e+58
          1356.72780	         1.04173e+58
          1357.53410	         9.68639e+57
          1358.34040	         1.08945e+58
          1359.14670	         1.01127e+58
          1359.95300	         1.02215e+58
          1360.75930	         1.17605e+58
          1361.56560	         1.05493e+58
          1362.37190	         1.07993e+58
          1363.17820	         1.16493e+58
          1363.98450	         1.09980e+58
          1364.79080	         1.23310e+58
          1365.59710	         1.28219e+58
          1366.40340	         1.15271e+58
          1367.20970	         1.14634e+58
          1368.01600	         1.15317e+58
          1368.82230	         1.09122e+58
          1369.62860	         8.93076e+57
          1370.43490	         7.93787e+57
          1371.24120	         8.88540e+57
          1372.04750	         8.16172e+57
          1372.85380	         1.04328e+58
          1373.66010	         1.20020e+58
          1374.46640	         1.07508e+58
          1375.27270	         1.15643e+58
          1376.07900	         9.69830e+57
          1376.88530	         8.73217e+57
          1377.69160	         8.95282e+57
          1378.49790	         7.66543e+57
          1379.30420	         7.40438e+57
          1380.11050	         9.88590e+57
          1380.91680	         8.62526e+57
          1381.72310	         8.03241e+57
          1382.52940	         7.26406e+57
          1383.33570	         8.07214e+57
          1384.14200	         1.05416e+58
          1384.94830	         1.12304e+58
          1385.75460	         1.16780e+58
          1386.56090	         1.09886e+58
          1387.36720	         1.08767e+58
          1388.17350	         1.34951e+58
          1388.97980	         1.05822e+58
          1389.78610	         7.41262e+57
          1390.59240	         8.33792e+57
          1391.39870	         7.03420e+57
          1392.20500	         7.83741e+57
          1393.01130	         8.40608e+57
          1393.81760	         8.11155e+57
          1394.62390	         8.23508e+57
          1395.43020	         6.85208e+57
          1396.23650	         6.03492e+57
          1397.04280	         7.49652e+57
          1397.84910	         9.42300e+57
          1398.65540	         1.05031e+58
          1399.46170	         1.08854e+58
          1400.26800	         8.24166e+57
          1401.07430	         6.99158e+57
          1401.88060	         7.92610e+57
          1402.68690	         8.90567e+57
          1403.49320	         8.47962e+57
          1404.29950	         8.39889e+57
          1405.10580	         9.81781e+57
          1405.91210	         1.11059e+58
          1406.71840	         1.10419e+58
          1407.52470	         1.00406e+58
          1408.33100	         9.56796e+57
          1409.13730	         9.98061e+57
          1409.94360	         1.03918e+58
          1410.74990	         1.06328e+58
          1411.55620	         9.73179e+57
          1412.36250	         9.64058e+57
          1413.16880	         9.59535e+57
          1413.97510	         8.98402e+57
          1414.78140	         9.15445e+57
          1415.58770	         9.76376e+57
          1416.39400	         1.04232e+58
          1417.20030	         1.08554e+58
          1418.00660	         1.05322e+58
          1418.81290	         1.11276e+58
          1419.61920	         1.19650e+58
          1420.42550	         1.31718e+58
          1421.23180	         1.40103e+58
          1422.03810	         1.19982e+58
          1422.84440	         1.13227e+58
          1423.65070	         1.25043e+58
          1424.45700	         1.11905e+58
          1425.26330	         9.49714e+57
          1426.06960	         9.01160e+57
          1426.87590	         9.83234e+57
          1427.68220	         9.86851e+57
          1428.48850	         1.04271e+58
          1429.29480	         1.12945e+58
          1430.10110	         1.04875e+58
          1430.90740	         8.77500e+57
          1431.71370	         8.87295e+57
          1432.52000	         8.43739e+57
          1433.32630	         7.68269e+57
          1434.13260	         8.28248e+57
          1434.93890	         8.50313e+57
          1435.74520	         8.39264e+57
          1436.55150	         8.80820e+57
          1437.35780	         8.82109e+57
          1438.16410	         8.85215e+57
          1438.97040	         8.63526e+57
          1439.77670	         8.88762e+57
          1440.58300	         9.66044e+57
          1441.38930	         9.83725e+57
          1442.19560	         1.02078e+58
          1443.00190	         1.09986e+58
          1443.80820	         1.24019e+58
          1444.61450	         1.10415e+58
          1445.42080	         8.78401e+57
          1446.22710	         1.02666e+58
          1447.03340	         9.30241e+57
          1447.83970	         1.03444e+58
          1448.64600	         1.03979e+58
          1449.45230	         1.02952e+58
          1450.25860	         9.51751e+57
          1451.06490	         8.90435e+57
          1451.87120	         7.98200e+57
          1452.67750	         7.00527e+57
          1453.48380	         8.16940e+57
          1454.29010	         8.16413e+57
          1455.09640	         6.73088e+57
          1455.90270	         8.27990e+57
          1456.70900	         9.81763e+57
          1457.51530	         1.01996e+58
          1458.32160	         1.16775e+58
          1459.12790	         1.08190e+58
          1459.93420	         9.50937e+57
          1460.74050	         8.41187e+57
          1461.54680	         8.10373e+57
          1462.35310	         8.20043e+57
          1463.15940	         9.60964e+57
          1463.96570	         1.16545e+58
          1464.77200	         1.19408e+58
          1465.57830	         1.04137e+58
          1466.38460	         8.63408e+57
          1467.19090	         8.54328e+57
          1467.99720	         9.49990e+57
          1468.80350	         1.06133e+58
          1469.60980	         1.01034e+58
          1470.41610	         9.59959e+57
          1471.22240	         9.20252e+57
          1472.02870	         9.99500e+57
          1472.83500	         9.79657e+57
          1473.64130	         9.30964e+57
          1474.44760	         9.58155e+57
          1475.25390	         8.63462e+57
          1476.06020	         8.27778e+57
          1476.86650	         8.44023e+57
          1477.67280	         8.38778e+57
          1478.47910	         7.76287e+57
          1479.28540	         6.93634e+57
          1480.09170	         7.46102e+57
          1480.89800	         7.49627e+57
          1481.70430	         8.52885e+57
          1482.51060	         7.89847e+57
          1483.31690	         7.03781e+57
          1484.12320	         7.13830e+57
          1484.92950	         7.19431e+57
          1485.73580	         8.07348e+57
          1486.54210	         8.91509e+57
          1487.34840	         8.76056e+57
          1488.15470	         8.75336e+57
          1488.96100	         1.00432e+58
          1489.76730	         9.92916e+57
