#sample_450_stacked_spectrum_rest_UV-bands_median_H-alpha_noDC.txt
#median Lum: 1.67825e+42
#Rest-frame wavelength (A) | Luminosity (erg/s/A)
#
          1110.00000	         0.00000e+00
          1110.80630	        -1.60399e+59
          1111.61260	         1.14229e+59
          1112.41890	         6.81333e+58
          1113.22520	         7.62919e+58
          1114.03150	        -1.61971e+59
          1114.83780	        -8.73600e+57
          1115.64410	         8.43127e+58
          1116.45040	         1.20613e+59
          1117.25670	        -5.61637e+58
          1118.06300	         7.83863e+58
          1118.86930	         1.60682e+58
          1119.67560	         4.40666e+58
          1120.48190	        -1.00887e+58
          1121.28820	        -1.24434e+59
          1122.09450	        -6.02925e+58
          1122.90080	         6.88006e+58
          1123.70710	         6.63843e+57
          1124.51340	         1.39494e+58
          1125.31970	         4.60435e+57
          1126.12600	        -1.80051e+57
          1126.93230	        -5.19308e+58
          1127.73860	        -7.59838e+58
          1128.54490	        -1.96870e+58
          1129.35120	        -3.16264e+57
          1130.15750	         2.09053e+58
          1130.96380	        -1.97087e+58
          1131.77010	         3.79089e+58
          1132.57640	         3.73465e+58
          1133.38270	         2.33392e+58
          1134.18900	        -1.52102e+58
          1134.99530	         2.62568e+58
          1135.80160	         1.11125e+58
          1136.60790	        -1.65667e+57
          1137.41420	        -6.17017e+57
          1138.22050	         5.61412e+58
          1139.02680	         3.35937e+58
          1139.83310	         1.56460e+58
          1140.63940	         1.19943e+58
          1141.44570	        -7.59397e+57
          1142.25200	        -1.21522e+58
          1143.05830	         4.27763e+57
          1143.86460	         5.95038e+57
          1144.67090	         2.10359e+58
          1145.47720	         1.50711e+58
          1146.28350	         2.03483e+58
          1147.08980	         1.18762e+58
          1147.89610	         1.94647e+58
          1148.70240	         3.38138e+58
          1149.50870	         3.61095e+58
          1150.31500	         1.50375e+58
          1151.12130	         1.45706e+58
          1151.92760	         1.45626e+58
          1152.73390	         1.34543e+58
          1153.54020	         4.13596e+57
          1154.34650	         1.99594e+58
          1155.15280	         2.07111e+58
          1155.95910	         5.10676e+57
          1156.76540	         6.33430e+57
          1157.57170	         3.50022e+57
          1158.37800	        -1.34314e+57
          1159.18430	        -1.62191e+57
          1159.99060	         5.23721e+57
          1160.79690	         6.98743e+57
          1161.60320	         1.00424e+58
          1162.40950	         1.78647e+58
          1163.21580	         1.89953e+58
          1164.02210	         1.82553e+58
          1164.82840	         1.55301e+58
          1165.63470	         1.79437e+58
          1166.44100	         2.76768e+58
          1167.24730	         2.51179e+58
          1168.05360	         1.11573e+58
          1168.85990	         9.46114e+56
          1169.66620	         3.63399e+57
          1170.47250	         8.25306e+57
          1171.27880	         7.86316e+56
          1172.08510	         8.35492e+57
          1172.89140	         5.88869e+57
          1173.69770	         7.88682e+57
          1174.50400	         1.67770e+58
          1175.31030	         2.15339e+58
          1176.11660	         2.42333e+58
          1176.92290	         1.72873e+58
          1177.72920	         1.18860e+58
          1178.53550	         7.59722e+57
          1179.34180	        -1.78210e+57
          1180.14810	         1.29579e+57
          1180.95440	         1.15517e+58
          1181.76070	         1.14507e+58
          1182.56700	         8.66488e+57
          1183.37330	         9.49083e+57
          1184.17960	         1.16282e+58
          1184.98590	         1.30195e+58
          1185.79220	         9.72936e+57
          1186.59850	         7.79464e+57
          1187.40480	         6.00712e+57
          1188.21110	         1.07499e+58
          1189.01740	         6.91898e+57
          1189.82370	         2.31384e+57
          1190.63000	         1.13003e+58
          1191.43630	         1.70305e+58
          1192.24260	         1.22550e+58
          1193.04890	         1.03668e+58
          1193.85520	         1.25951e+58
          1194.66150	         6.92183e+57
          1195.46780	         1.25724e+58
          1196.27410	         1.20610e+58
          1197.08040	         2.80436e+57
          1197.88670	         9.77320e+57
          1198.69300	         1.43377e+58
          1199.49930	         1.45243e+58
          1200.30560	         9.61805e+57
          1201.11190	         9.00556e+57
          1201.91820	         1.18086e+58
          1202.72450	         1.34122e+58
          1203.53080	         2.16851e+58
          1204.33710	         1.08909e+58
          1205.14340	         5.47564e+57
          1205.94970	         5.74929e+57
          1206.75600	         7.98377e+57
          1207.56230	         5.63048e+57
          1208.36860	         1.00945e+58
          1209.17490	         4.52012e+57
          1209.98120	         5.64540e+57
          1210.78750	         6.11741e+57
          1211.59380	         1.20715e+58
          1212.40010	         1.92236e+58
          1213.20640	         2.06985e+58
          1214.01270	         2.17596e+58
          1214.81900	         2.61005e+58
          1215.62530	         4.20278e+58
          1216.43160	         8.83886e+58
          1217.23790	         1.49478e+59
          1218.04420	         1.13162e+59
          1218.85050	         8.58755e+58
          1219.65680	         5.63369e+58
          1220.46310	         3.19492e+58
          1221.26940	         2.06678e+58
          1222.07570	         1.29821e+58
          1222.88200	         1.32841e+58
          1223.68830	         9.44608e+57
          1224.49460	         6.45789e+57
          1225.30090	         6.82713e+57
          1226.10720	         6.93997e+57
          1226.91350	         8.12428e+57
          1227.71980	         8.39553e+57
          1228.52610	         7.97848e+57
          1229.33240	         5.04670e+57
          1230.13870	         7.10515e+57
          1230.94500	         8.36127e+57
          1231.75130	         7.96430e+57
          1232.55760	         8.70037e+57
          1233.36390	         9.57948e+57
          1234.17020	         9.24855e+57
          1234.97650	         7.54379e+57
          1235.78280	         5.84661e+57
          1236.58910	         8.75956e+57
          1237.39540	         9.76276e+57
          1238.20170	         1.07013e+58
          1239.00800	         1.10994e+58
          1239.81430	         1.21273e+58
          1240.62060	         1.03698e+58
          1241.42690	         1.18505e+58
          1242.23320	         1.23346e+58
          1243.03950	         6.84282e+57
          1243.84580	         5.72056e+57
          1244.65210	         8.99099e+57
          1245.45840	         1.27066e+58
          1246.26470	         9.71538e+57
          1247.07100	         6.83672e+57
          1247.87730	         6.14209e+57
          1248.68360	         2.86709e+57
          1249.48990	         6.63820e+57
          1250.29620	         1.00388e+58
          1251.10250	         7.01623e+57
          1251.90880	         3.21577e+57
          1252.71510	         6.32876e+57
          1253.52140	         6.10991e+57
          1254.32770	         8.89046e+57
          1255.13400	         1.30724e+58
          1255.94030	         1.13510e+58
          1256.74660	         1.09904e+58
          1257.55290	         1.21238e+58
          1258.35920	         1.09289e+58
          1259.16550	         6.94036e+57
          1259.97180	         7.20461e+57
          1260.77810	         9.53859e+57
          1261.58440	         1.33645e+58
          1262.39070	         9.91333e+57
          1263.19700	         9.07689e+57
          1264.00330	         9.96292e+57
          1264.80960	         1.03243e+58
          1265.61590	         1.29793e+58
          1266.42220	         1.22434e+58
          1267.22850	         1.01881e+58
          1268.03480	         1.32356e+58
          1268.84110	         1.41126e+58
          1269.64740	         1.35167e+58
          1270.45370	         1.33051e+58
          1271.26000	         1.19332e+58
          1272.06630	         1.11805e+58
          1272.87260	         1.18737e+58
          1273.67890	         1.10874e+58
          1274.48520	         9.64738e+57
          1275.29150	         1.21082e+58
          1276.09780	         1.17248e+58
          1276.90410	         1.34705e+58
          1277.71040	         1.30345e+58
          1278.51670	         1.07121e+58
          1279.32300	         1.35067e+58
          1280.12930	         1.35800e+58
          1280.93560	         1.14140e+58
          1281.74190	         1.12397e+58
          1282.54820	         1.14425e+58
          1283.35450	         1.15289e+58
          1284.16080	         1.17413e+58
          1284.96710	         1.26680e+58
          1285.77340	         1.13958e+58
          1286.57970	         1.13480e+58
          1287.38600	         1.34326e+58
          1288.19230	         1.73359e+58
          1288.99860	         1.63329e+58
          1289.80490	         1.07407e+58
          1290.61120	         1.19714e+58
          1291.41750	         1.45492e+58
          1292.22380	         1.20394e+58
          1293.03010	         1.13019e+58
          1293.83640	         1.29507e+58
          1294.64270	         1.03308e+58
          1295.44900	         6.84023e+57
          1296.25530	         7.52534e+57
          1297.06160	         9.90673e+57
          1297.86790	         1.21534e+58
          1298.67420	         1.02574e+58
          1299.48050	         8.84258e+57
          1300.28680	         9.24730e+57
          1301.09310	         7.78318e+57
          1301.89940	         4.19956e+57
          1302.70570	         6.44089e+57
          1303.51200	         6.98848e+57
          1304.31830	         9.40518e+57
          1305.12460	         9.91610e+57
          1305.93090	         9.34769e+57
          1306.73720	         1.12056e+58
          1307.54350	         1.41491e+58
          1308.34980	         1.55893e+58
          1309.15610	         1.57257e+58
          1309.96240	         1.41832e+58
          1310.76870	         1.19784e+58
          1311.57500	         1.15449e+58
          1312.38130	         1.21814e+58
          1313.18760	         1.44266e+58
          1313.99390	         1.45288e+58
          1314.80020	         1.40908e+58
          1315.60650	         1.36127e+58
          1316.41280	         1.15033e+58
          1317.21910	         8.93818e+57
          1318.02540	         8.46822e+57
          1318.83170	         1.06317e+58
          1319.63800	         1.31980e+58
          1320.44430	         1.14180e+58
          1321.25060	         1.13072e+58
          1322.05690	         1.23391e+58
          1322.86320	         1.16105e+58
          1323.66950	         1.08403e+58
          1324.47580	         9.75375e+57
          1325.28210	         9.75554e+57
          1326.08840	         1.01646e+58
          1326.89470	         9.57852e+57
          1327.70100	         9.75598e+57
          1328.50730	         8.55025e+57
          1329.31360	         9.73716e+57
          1330.11990	         9.76682e+57
          1330.92620	         8.92913e+57
          1331.73250	         1.05264e+58
          1332.53880	         9.23677e+57
          1333.34510	         9.15646e+57
          1334.15140	         9.10977e+57
          1334.95770	         8.96426e+57
          1335.76400	         1.01532e+58
          1336.57030	         1.05648e+58
          1337.37660	         1.09563e+58
          1338.18290	         1.14788e+58
          1338.98920	         1.11489e+58
          1339.79550	         1.23359e+58
          1340.60180	         1.22472e+58
          1341.40810	         1.15329e+58
          1342.21440	         1.24480e+58
          1343.02070	         1.39433e+58
          1343.82700	         1.31227e+58
          1344.63330	         1.13087e+58
          1345.43960	         1.34821e+58
          1346.24590	         1.24733e+58
          1347.05220	         1.16301e+58
          1347.85850	         1.14894e+58
          1348.66480	         1.21615e+58
          1349.47110	         1.20549e+58
          1350.27740	         1.01920e+58
          1351.08370	         9.39892e+57
          1351.89000	         1.14664e+58
          1352.69630	         1.30135e+58
          1353.50260	         1.26010e+58
          1354.30890	         1.11578e+58
          1355.11520	         1.06420e+58
          1355.92150	         1.07873e+58
          1356.72780	         9.79198e+57
          1357.53410	         9.56689e+57
          1358.34040	         1.00322e+58
          1359.14670	         1.03581e+58
          1359.95300	         1.09592e+58
          1360.75930	         1.01572e+58
          1361.56560	         9.70592e+57
          1362.37190	         1.17152e+58
          1363.17820	         1.05476e+58
          1363.98450	         1.13922e+58
          1364.79080	         1.33154e+58
          1365.59710	         1.16150e+58
          1366.40340	         1.05247e+58
          1367.20970	         1.02255e+58
          1368.01600	         8.94628e+57
          1368.82230	         8.83438e+57
          1369.62860	         1.05815e+58
          1370.43490	         9.67923e+57
          1371.24120	         1.05324e+58
          1372.04750	         9.61346e+57
          1372.85380	         9.77866e+57
          1373.66010	         1.04796e+58
          1374.46640	         1.05886e+58
          1375.27270	         1.02651e+58
          1376.07900	         9.39668e+57
          1376.88530	         8.77798e+57
          1377.69160	         7.67495e+57
          1378.49790	         6.89533e+57
          1379.30420	         8.98560e+57
          1380.11050	         9.81634e+57
          1380.91680	         8.96299e+57
          1381.72310	         7.39385e+57
          1382.52940	         7.68109e+57
          1383.33570	         7.59630e+57
          1384.14200	         7.55822e+57
          1384.94830	         9.69026e+57
          1385.75460	         9.17353e+57
          1386.56090	         9.67757e+57
          1387.36720	         1.08333e+58
          1388.17350	         1.17999e+58
          1388.97980	         9.91215e+57
          1389.78610	         8.97164e+57
          1390.59240	         8.69132e+57
          1391.39870	         7.15923e+57
          1392.20500	         7.28574e+57
          1393.01130	         7.45185e+57
          1393.81760	         7.11915e+57
          1394.62390	         7.41806e+57
          1395.43020	         6.94142e+57
          1396.23650	         7.14459e+57
          1397.04280	         7.84778e+57
          1397.84910	         9.08494e+57
          1398.65540	         8.56724e+57
          1399.46170	         9.49596e+57
          1400.26800	         8.18093e+57
          1401.07430	         7.52679e+57
          1401.88060	         8.43408e+57
          1402.68690	         9.17812e+57
          1403.49320	         9.17583e+57
          1404.29950	         9.48101e+57
          1405.10580	         1.08108e+58
          1405.91210	         1.16344e+58
          1406.71840	         1.09171e+58
          1407.52470	         1.01746e+58
          1408.33100	         9.93643e+57
          1409.13730	         1.10271e+58
          1409.94360	         1.31357e+58
          1410.74990	         1.23100e+58
          1411.55620	         9.45639e+57
          1412.36250	         9.16038e+57
          1413.16880	         9.61708e+57
          1413.97510	         7.27405e+57
          1414.78140	         7.64852e+57
          1415.58770	         1.06355e+58
          1416.39400	         1.09221e+58
          1417.20030	         1.01957e+58
          1418.00660	         8.82159e+57
          1418.81290	         9.54981e+57
          1419.61920	         1.13966e+58
          1420.42550	         1.30378e+58
          1421.23180	         1.25287e+58
          1422.03810	         1.24159e+58
          1422.84440	         1.06749e+58
          1423.65070	         1.11536e+58
          1424.45700	         1.07683e+58
          1425.26330	         9.38016e+57
          1426.06960	         8.89547e+57
          1426.87590	         9.82806e+57
          1427.68220	         1.02405e+58
          1428.48850	         1.02569e+58
          1429.29480	         9.73635e+57
          1430.10110	         9.34376e+57
          1430.90740	         8.11046e+57
          1431.71370	         8.07788e+57
          1432.52000	         7.65835e+57
          1433.32630	         7.40604e+57
          1434.13260	         8.34134e+57
          1434.93890	         8.41155e+57
          1435.74520	         8.33637e+57
          1436.55150	         8.54997e+57
          1437.35780	         9.18515e+57
          1438.16410	         9.55672e+57
          1438.97040	         9.03781e+57
          1439.77670	         8.63327e+57
          1440.58300	         8.08238e+57
          1441.38930	         8.79734e+57
          1442.19560	         9.35836e+57
          1443.00190	         9.40622e+57
          1443.80820	         9.83792e+57
          1444.61450	         9.85837e+57
          1445.42080	         9.76696e+57
          1446.22710	         1.01846e+58
          1447.03340	         9.77988e+57
          1447.83970	         9.88290e+57
          1448.64600	         1.04536e+58
          1449.45230	         1.01783e+58
          1450.25860	         1.05199e+58
          1451.06490	         9.20599e+57
          1451.87120	         7.60836e+57
          1452.67750	         7.67138e+57
          1453.48380	         8.95263e+57
          1454.29010	         8.84944e+57
          1455.09640	         8.08439e+57
          1455.90270	         9.37313e+57
          1456.70900	         9.56300e+57
          1457.51530	         9.76229e+57
          1458.32160	         1.12477e+58
          1459.12790	         1.14434e+58
          1459.93420	         1.01969e+58
          1460.74050	         8.61165e+57
          1461.54680	         8.33717e+57
          1462.35310	         7.73847e+57
          1463.15940	         9.63930e+57
          1463.96570	         1.11074e+58
          1464.77200	         1.13827e+58
          1465.57830	         1.02818e+58
          1466.38460	         8.68809e+57
          1467.19090	         9.03879e+57
          1467.99720	         9.06853e+57
          1468.80350	         8.74098e+57
          1469.60980	         8.99844e+57
          1470.41610	         1.01310e+58
          1471.22240	         8.54343e+57
          1472.02870	         8.52697e+57
          1472.83500	         8.98277e+57
          1473.64130	         9.37402e+57
          1474.44760	         9.29785e+57
          1475.25390	         8.55219e+57
          1476.06020	         8.16646e+57
          1476.86650	         7.59522e+57
          1477.67280	         7.62313e+57
          1478.47910	         8.10119e+57
          1479.28540	         7.85215e+57
          1480.09170	         7.80982e+57
          1480.89800	         8.60878e+57
          1481.70430	         9.35619e+57
          1482.51060	         9.44028e+57
          1483.31690	         8.16771e+57
          1484.12320	         7.36456e+57
          1484.92950	         8.18961e+57
          1485.73580	         7.67163e+57
          1486.54210	         7.20627e+57
          1487.34840	         7.39648e+57
          1488.15470	         7.40582e+57
          1488.96100	         8.72473e+57
          1489.76730	         9.39958e+57
