#sample_492_stacked_spectrum_rest_UV-bands_median_H-alpha_noDC.txt
#median Lum: 1.70244e+42
#Rest-frame wavelength (A) | Luminosity (erg/s/A)
#
          1110.00000	         0.00000e+00
          1110.80630	         6.18833e+58
          1111.61260	         5.69315e+58
          1112.41890	         2.13680e+59
          1113.22520	        -1.41582e+59
          1114.03150	        -1.61230e+59
          1114.83780	         1.67889e+59
          1115.64410	         1.94341e+59
          1116.45040	         1.99563e+59
          1117.25670	         1.66401e+59
          1118.06300	        -2.12224e+58
          1118.86930	        -4.58372e+58
          1119.67560	         8.20990e+58
          1120.48190	        -2.36469e+58
          1121.28820	        -1.13240e+59
          1122.09450	        -3.38528e+57
          1122.90080	         5.81870e+57
          1123.70710	         9.94252e+58
          1124.51340	         1.76380e+58
          1125.31970	        -3.53643e+58
          1126.12600	         9.54929e+56
          1126.93230	        -4.81147e+58
          1127.73860	        -5.14103e+58
          1128.54490	        -1.75242e+58
          1129.35120	         4.35463e+58
          1130.15750	        -4.06901e+58
          1130.96380	        -5.06889e+58
          1131.77010	         7.94464e+58
          1132.57640	         3.49321e+58
          1133.38270	         3.89332e+58
          1134.18900	         1.13068e+58
          1134.99530	         3.14480e+58
          1135.80160	         2.63467e+58
          1136.60790	         3.74601e+58
          1137.41420	         4.27431e+57
          1138.22050	         1.52403e+58
          1139.02680	         2.96372e+58
          1139.83310	         2.97920e+58
          1140.63940	         2.59524e+58
          1141.44570	        -1.24105e+58
          1142.25200	        -8.94913e+57
          1143.05830	         2.30865e+58
          1143.86460	         2.13766e+58
          1144.67090	         3.70124e+58
          1145.47720	         9.60134e+57
          1146.28350	         1.31813e+58
          1147.08980	         8.49858e+57
          1147.89610	         1.31449e+58
          1148.70240	         1.67033e+58
          1149.50870	         1.84496e+58
          1150.31500	         1.11223e+58
          1151.12130	         6.78068e+57
          1151.92760	         1.19689e+58
          1152.73390	         1.61590e+58
          1153.54020	         3.20984e+56
          1154.34650	         1.84745e+58
          1155.15280	         1.67735e+58
          1155.95910	         1.22013e+58
          1156.76540	         8.48522e+57
          1157.57170	         7.13919e+57
          1158.37800	        -3.28907e+57
          1159.18430	        -2.23628e+57
          1159.99060	         9.29164e+57
          1160.79690	         1.01415e+58
          1161.60320	         1.56370e+58
          1162.40950	         1.60822e+58
          1163.21580	         2.29440e+58
          1164.02210	         2.08902e+58
          1164.82840	         2.05976e+58
          1165.63470	         2.55527e+58
          1166.44100	         1.98409e+58
          1167.24730	         1.95583e+58
          1168.05360	         8.74837e+57
          1168.85990	         1.79594e+58
          1169.66620	         2.15212e+58
          1170.47250	         8.03343e+57
          1171.27880	         1.11029e+58
          1172.08510	         2.64100e+58
          1172.89140	         1.70867e+58
          1173.69770	         6.55537e+57
          1174.50400	         1.22801e+58
          1175.31030	         1.62121e+58
          1176.11660	         1.76017e+58
          1176.92290	         1.55433e+58
          1177.72920	         7.80905e+57
          1178.53550	         3.20887e+57
          1179.34180	         5.30346e+57
          1180.14810	         5.14451e+57
          1180.95440	         8.75872e+57
          1181.76070	         5.08850e+57
          1182.56700	         3.69213e+57
          1183.37330	         6.59991e+57
          1184.17960	         1.34173e+58
          1184.98590	         1.21603e+58
          1185.79220	         1.11070e+58
          1186.59850	         8.25834e+57
          1187.40480	         4.58013e+57
          1188.21110	         9.88495e+57
          1189.01740	         5.89363e+57
          1189.82370	         7.72132e+57
          1190.63000	         1.08054e+58
          1191.43630	         1.40108e+58
          1192.24260	         7.41066e+57
          1193.04890	         7.54837e+57
          1193.85520	         1.05418e+58
          1194.66150	         7.36329e+57
          1195.46780	         1.05484e+58
          1196.27410	         1.27841e+58
          1197.08040	         1.06359e+58
          1197.88670	         1.47865e+58
          1198.69300	         1.79112e+58
          1199.49930	         1.69283e+58
          1200.30560	         1.43921e+58
          1201.11190	         1.28476e+58
          1201.91820	         1.52765e+58
          1202.72450	         8.47602e+57
          1203.53080	         1.23562e+58
          1204.33710	         7.02172e+57
          1205.14340	         1.74760e+57
          1205.94970	         8.64901e+57
          1206.75600	         9.61480e+57
          1207.56230	         9.44097e+57
          1208.36860	         9.07580e+57
          1209.17490	         7.47267e+57
          1209.98120	         6.50955e+57
          1210.78750	         5.96039e+57
          1211.59380	         1.35446e+58
          1212.40010	         2.09262e+58
          1213.20640	         2.08769e+58
          1214.01270	         2.13786e+58
          1214.81900	         2.35477e+58
          1215.62530	         4.26980e+58
          1216.43160	         8.68916e+58
          1217.23790	         1.53822e+59
          1218.04420	         1.17383e+59
          1218.85050	         8.55166e+58
          1219.65680	         5.52196e+58
          1220.46310	         3.36178e+58
          1221.26940	         2.57891e+58
          1222.07570	         1.54462e+58
          1222.88200	         1.10051e+58
          1223.68830	         1.03839e+58
          1224.49460	         7.70362e+57
          1225.30090	         7.53222e+57
          1226.10720	         7.13934e+57
          1226.91350	         6.91979e+57
          1227.71980	         9.77267e+57
          1228.52610	         1.31566e+58
          1229.33240	         9.50657e+57
          1230.13870	         1.10461e+58
          1230.94500	         9.64401e+57
          1231.75130	         6.51862e+57
          1232.55760	         8.05764e+57
          1233.36390	         8.37393e+57
          1234.17020	         8.34315e+57
          1234.97650	         8.11842e+57
          1235.78280	         8.66982e+57
          1236.58910	         8.40186e+57
          1237.39540	         1.04405e+58
          1238.20170	         1.06661e+58
          1239.00800	         1.07944e+58
          1239.81430	         1.36585e+58
          1240.62060	         1.14547e+58
          1241.42690	         1.07743e+58
          1242.23320	         1.28848e+58
          1243.03950	         1.08959e+58
          1243.84580	         9.60461e+57
          1244.65210	         1.02619e+58
          1245.45840	         8.53481e+57
          1246.26470	         8.59086e+57
          1247.07100	         8.76114e+57
          1247.87730	         8.72472e+57
          1248.68360	         4.81315e+57
          1249.48990	         9.42168e+57
          1250.29620	         8.30165e+57
          1251.10250	         6.38265e+57
          1251.90880	         5.81187e+57
          1252.71510	         7.15180e+57
          1253.52140	         6.22810e+57
          1254.32770	         7.02492e+57
          1255.13400	         1.31236e+58
          1255.94030	         1.24410e+58
          1256.74660	         8.61868e+57
          1257.55290	         9.44904e+57
          1258.35920	         7.31318e+57
          1259.16550	         4.79670e+57
          1259.97180	         5.63229e+57
          1260.77810	         8.09144e+57
          1261.58440	         1.16176e+58
          1262.39070	         9.21516e+57
          1263.19700	         9.56865e+57
          1264.00330	         9.34257e+57
          1264.80960	         9.77417e+57
          1265.61590	         1.28361e+58
          1266.42220	         1.35027e+58
          1267.22850	         1.23993e+58
          1268.03480	         1.39070e+58
          1268.84110	         1.41707e+58
          1269.64740	         1.35456e+58
          1270.45370	         1.44649e+58
          1271.26000	         1.25779e+58
          1272.06630	         1.14790e+58
          1272.87260	         1.20433e+58
          1273.67890	         1.15703e+58
          1274.48520	         1.19353e+58
          1275.29150	         1.20406e+58
          1276.09780	         1.29276e+58
          1276.90410	         1.50928e+58
          1277.71040	         1.40743e+58
          1278.51670	         1.32289e+58
          1279.32300	         1.45873e+58
          1280.12930	         1.23944e+58
          1280.93560	         1.15288e+58
          1281.74190	         1.28359e+58
          1282.54820	         1.34838e+58
          1283.35450	         1.20646e+58
          1284.16080	         1.07839e+58
          1284.96710	         1.29712e+58
          1285.77340	         1.22701e+58
          1286.57970	         1.04799e+58
          1287.38600	         1.32792e+58
          1288.19230	         1.86432e+58
          1288.99860	         1.73262e+58
          1289.80490	         1.11766e+58
          1290.61120	         1.31609e+58
          1291.41750	         1.59672e+58
          1292.22380	         1.34574e+58
          1293.03010	         1.12401e+58
          1293.83640	         1.09654e+58
          1294.64270	         8.89675e+57
          1295.44900	         6.09280e+57
          1296.25530	         7.54994e+57
          1297.06160	         1.10519e+58
          1297.86790	         1.06999e+58
          1298.67420	         8.50479e+57
          1299.48050	         9.91197e+57
          1300.28680	         1.11673e+58
          1301.09310	         7.85618e+57
          1301.89940	         3.69338e+57
          1302.70570	         4.89966e+57
          1303.51200	         7.44946e+57
          1304.31830	         1.00030e+58
          1305.12460	         9.73833e+57
          1305.93090	         1.13587e+58
          1306.73720	         1.40616e+58
          1307.54350	         1.47639e+58
          1308.34980	         1.53210e+58
          1309.15610	         1.56276e+58
          1309.96240	         1.62093e+58
          1310.76870	         1.26923e+58
          1311.57500	         1.17302e+58
          1312.38130	         1.19286e+58
          1313.18760	         1.13649e+58
          1313.99390	         1.37338e+58
          1314.80020	         1.58011e+58
          1315.60650	         1.38773e+58
          1316.41280	         1.11327e+58
          1317.21910	         9.66368e+57
          1318.02540	         1.22345e+58
          1318.83170	         1.36015e+58
          1319.63800	         1.24567e+58
          1320.44430	         1.22831e+58
          1321.25060	         1.22824e+58
          1322.05690	         1.24362e+58
          1322.86320	         1.22737e+58
          1323.66950	         1.19550e+58
          1324.47580	         1.05056e+58
          1325.28210	         1.01593e+58
          1326.08840	         1.14248e+58
          1326.89470	         1.39694e+58
          1327.70100	         1.11215e+58
          1328.50730	         7.54608e+57
          1329.31360	         7.02592e+57
          1330.11990	         8.15427e+57
          1330.92620	         9.04143e+57
          1331.73250	         1.08692e+58
          1332.53880	         1.00414e+58
          1333.34510	         8.52704e+57
          1334.15140	         8.61233e+57
          1334.95770	         9.34482e+57
          1335.76400	         1.12199e+58
          1336.57030	         9.95524e+57
          1337.37660	         8.48282e+57
          1338.18290	         1.08878e+58
          1338.98920	         1.17517e+58
          1339.79550	         1.00545e+58
          1340.60180	         1.11392e+58
          1341.40810	         1.36085e+58
          1342.21440	         1.30462e+58
          1343.02070	         1.16704e+58
          1343.82700	         1.41349e+58
          1344.63330	         1.41164e+58
          1345.43960	         1.32386e+58
          1346.24590	         1.13915e+58
          1347.05220	         1.11675e+58
          1347.85850	         1.08240e+58
          1348.66480	         1.19020e+58
          1349.47110	         1.21279e+58
          1350.27740	         1.17256e+58
          1351.08370	         1.24455e+58
          1351.89000	         1.31802e+58
          1352.69630	         1.27887e+58
          1353.50260	         9.98965e+57
          1354.30890	         1.05721e+58
          1355.11520	         1.10326e+58
          1355.92150	         1.00039e+58
          1356.72780	         1.04524e+58
          1357.53410	         1.12342e+58
          1358.34040	         1.13992e+58
          1359.14670	         1.07645e+58
          1359.95300	         1.19190e+58
          1360.75930	         1.20712e+58
          1361.56560	         9.78963e+57
          1362.37190	         9.17637e+57
          1363.17820	         1.02497e+58
          1363.98450	         1.22919e+58
          1364.79080	         1.29129e+58
          1365.59710	         1.35173e+58
          1366.40340	         1.18368e+58
          1367.20970	         9.19133e+57
          1368.01600	         9.20720e+57
          1368.82230	         9.83422e+57
          1369.62860	         1.11408e+58
          1370.43490	         1.09514e+58
          1371.24120	         1.18349e+58
          1372.04750	         1.01282e+58
          1372.85380	         1.03317e+58
          1373.66010	         1.06105e+58
          1374.46640	         1.11680e+58
          1375.27270	         1.14030e+58
          1376.07900	         9.34862e+57
          1376.88530	         8.90040e+57
          1377.69160	         8.17215e+57
          1378.49790	         6.11235e+57
          1379.30420	         6.58813e+57
          1380.11050	         7.45558e+57
          1380.91680	         8.19357e+57
          1381.72310	         8.08743e+57
          1382.52940	         9.52400e+57
          1383.33570	         9.37961e+57
          1384.14200	         9.60591e+57
          1384.94830	         1.02987e+58
          1385.75460	         1.13239e+58
          1386.56090	         1.14070e+58
          1387.36720	         1.06231e+58
          1388.17350	         1.13821e+58
          1388.97980	         1.04329e+58
          1389.78610	         9.85101e+57
          1390.59240	         8.87850e+57
          1391.39870	         6.86610e+57
          1392.20500	         8.73706e+57
          1393.01130	         9.59507e+57
          1393.81760	         8.23958e+57
          1394.62390	         8.03237e+57
          1395.43020	         7.37240e+57
          1396.23650	         6.23387e+57
          1397.04280	         7.96815e+57
          1397.84910	         9.48916e+57
          1398.65540	         9.57398e+57
          1399.46170	         8.90936e+57
          1400.26800	         8.04888e+57
          1401.07430	         7.22329e+57
          1401.88060	         8.63467e+57
          1402.68690	         1.04642e+58
          1403.49320	         1.03671e+58
          1404.29950	         9.82151e+57
          1405.10580	         1.02392e+58
          1405.91210	         1.09305e+58
          1406.71840	         1.07458e+58
          1407.52470	         9.33288e+57
          1408.33100	         1.02420e+58
          1409.13730	         1.24840e+58
          1409.94360	         1.16283e+58
          1410.74990	         1.19542e+58
          1411.55620	         1.12246e+58
          1412.36250	         1.00775e+58
          1413.16880	         1.01852e+58
          1413.97510	         8.86926e+57
          1414.78140	         8.57718e+57
          1415.58770	         1.01378e+58
          1416.39400	         1.00262e+58
          1417.20030	         1.04721e+58
          1418.00660	         1.03044e+58
          1418.81290	         1.09735e+58
          1419.61920	         1.09758e+58
          1420.42550	         1.24155e+58
          1421.23180	         1.39365e+58
          1422.03810	         1.23666e+58
          1422.84440	         1.10368e+58
          1423.65070	         1.28482e+58
          1424.45700	         1.05118e+58
          1425.26330	         8.20397e+57
          1426.06960	         8.85961e+57
          1426.87590	         1.00564e+58
          1427.68220	         1.00470e+58
          1428.48850	         1.16095e+58
          1429.29480	         1.16464e+58
          1430.10110	         9.53664e+57
          1430.90740	         8.86808e+57
          1431.71370	         8.99774e+57
          1432.52000	         8.32308e+57
          1433.32630	         7.48658e+57
          1434.13260	         7.31568e+57
          1434.93890	         8.67964e+57
          1435.74520	         9.17532e+57
          1436.55150	         9.81019e+57
          1437.35780	         8.96335e+57
          1438.16410	         8.22689e+57
          1438.97040	         8.39785e+57
          1439.77670	         9.10526e+57
          1440.58300	         9.54239e+57
          1441.38930	         8.79930e+57
          1442.19560	         9.21046e+57
          1443.00190	         9.45121e+57
          1443.80820	         1.07390e+58
          1444.61450	         1.06844e+58
          1445.42080	         9.06807e+57
          1446.22710	         9.89165e+57
          1447.03340	         1.09235e+58
          1447.83970	         1.07057e+58
          1448.64600	         1.04229e+58
          1449.45230	         9.33959e+57
          1450.25860	         9.33444e+57
          1451.06490	         8.90369e+57
          1451.87120	         7.90535e+57
          1452.67750	         6.59978e+57
          1453.48380	         8.72456e+57
          1454.29010	         8.69376e+57
          1455.09640	         8.27527e+57
          1455.90270	         8.00599e+57
          1456.70900	         7.37534e+57
          1457.51530	         9.65398e+57
          1458.32160	         1.24882e+58
          1459.12790	         1.23980e+58
          1459.93420	         1.08923e+58
          1460.74050	         8.72865e+57
          1461.54680	         7.65377e+57
          1462.35310	         7.06556e+57
          1463.15940	         9.20615e+57
          1463.96570	         1.12414e+58
          1464.77200	         1.16464e+58
          1465.57830	         1.09751e+58
          1466.38460	         1.07782e+58
          1467.19090	         9.74067e+57
          1467.99720	         8.90497e+57
          1468.80350	         9.18405e+57
          1469.60980	         9.64109e+57
          1470.41610	         1.07610e+58
          1471.22240	         9.42245e+57
          1472.02870	         9.03013e+57
          1472.83500	         9.39121e+57
          1473.64130	         1.00453e+58
          1474.44760	         1.10417e+58
          1475.25390	         1.10467e+58
          1476.06020	         9.04570e+57
          1476.86650	         7.99685e+57
          1477.67280	         7.52435e+57
          1478.47910	         6.78340e+57
          1479.28540	         7.44612e+57
          1480.09170	         8.47703e+57
          1480.89800	         8.60958e+57
          1481.70430	         8.92975e+57
          1482.51060	         8.37629e+57
          1483.31690	         6.68020e+57
          1484.12320	         7.41075e+57
          1484.92950	         7.72064e+57
          1485.73580	         8.93761e+57
          1486.54210	         8.67150e+57
          1487.34840	         8.99821e+57
          1488.15470	         8.42694e+57
          1488.96100	         8.29541e+57
          1489.76730	         1.03858e+58
