#sample_458_stacked_spectrum_rest_UV-bands_median_H-alpha_noDC.txt
#median Lum: 1.71193e+42
#Rest-frame wavelength (A) | Luminosity (erg/s/A)
#
          1110.00000	         0.00000e+00
          1110.80630	        -4.65287e+59
          1111.61260	         3.02507e+59
          1112.41890	         2.95392e+59
          1113.22520	         1.81219e+59
          1114.03150	        -2.19852e+59
          1114.83780	         9.07131e+58
          1115.64410	         1.74185e+59
          1116.45040	         4.27870e+58
          1117.25670	         1.13187e+59
          1118.06300	         1.72120e+59
          1118.86930	         2.03193e+57
          1119.67560	         7.39841e+58
          1120.48190	        -3.96244e+58
          1121.28820	        -1.36912e+59
          1122.09450	        -3.80403e+58
          1122.90080	         7.74820e+57
          1123.70710	         4.04804e+58
          1124.51340	         9.33711e+58
          1125.31970	         2.86682e+58
          1126.12600	         8.75608e+58
          1126.93230	        -1.18506e+58
          1127.73860	         1.60992e+58
          1128.54490	         6.77938e+58
          1129.35120	         4.31265e+57
          1130.15750	        -2.75999e+58
          1130.96380	        -2.95352e+58
          1131.77010	         3.44396e+58
          1132.57640	         5.75301e+58
          1133.38270	         3.23742e+58
          1134.18900	         3.31331e+58
          1134.99530	         1.05404e+58
          1135.80160	         2.80165e+58
          1136.60790	         1.91659e+58
          1137.41420	         1.05812e+58
          1138.22050	         3.88589e+58
          1139.02680	         2.63319e+58
          1139.83310	         1.63810e+58
          1140.63940	         1.37670e+58
          1141.44570	        -1.65871e+58
          1142.25200	         1.42511e+58
          1143.05830	         3.56450e+58
          1143.86460	         2.09919e+58
          1144.67090	         1.27643e+58
          1145.47720	         1.21612e+58
          1146.28350	        -1.03141e+57
          1147.08980	         1.17615e+58
          1147.89610	         2.54864e+58
          1148.70240	         2.25391e+58
          1149.50870	         2.11898e+58
          1150.31500	         8.36094e+57
          1151.12130	         1.28996e+57
          1151.92760	        -2.59803e+55
          1152.73390	         1.86406e+57
          1153.54020	         9.25750e+57
          1154.34650	         2.41235e+58
          1155.15280	         1.51378e+58
          1155.95910	        -8.60200e+57
          1156.76540	        -8.49570e+57
          1157.57170	        -2.74961e+57
          1158.37800	         1.01640e+57
          1159.18430	         6.90642e+56
          1159.99060	         5.42373e+57
          1160.79690	        -2.60730e+57
          1161.60320	         1.19168e+58
          1162.40950	         5.77268e+57
          1163.21580	         1.02892e+58
          1164.02210	         1.72788e+58
          1164.82840	         1.05684e+58
          1165.63470	         2.11777e+58
          1166.44100	         2.67990e+58
          1167.24730	         1.38798e+58
          1168.05360	         5.18649e+57
          1168.85990	         6.50846e+57
          1169.66620	         1.04755e+58
          1170.47250	         1.47910e+58
          1171.27880	         8.62349e+57
          1172.08510	         1.10784e+58
          1172.89140	         9.39898e+57
          1173.69770	         1.00231e+58
          1174.50400	         1.61668e+58
          1175.31030	         1.89944e+58
          1176.11660	         2.01418e+58
          1176.92290	         1.83046e+58
          1177.72920	         1.62959e+58
          1178.53550	         1.50473e+58
          1179.34180	         1.20019e+58
          1180.14810	         1.04292e+58
          1180.95440	         6.49943e+57
          1181.76070	         5.64674e+56
          1182.56700	         5.17746e+57
          1183.37330	         5.75318e+57
          1184.17960	         9.34214e+57
          1184.98590	         8.38317e+57
          1185.79220	         4.15755e+57
          1186.59850	         6.54005e+57
          1187.40480	         1.59718e+58
          1188.21110	         1.35870e+58
          1189.01740	         7.99450e+57
          1189.82370	         6.45073e+57
          1190.63000	         8.99624e+57
          1191.43630	         8.20541e+57
          1192.24260	         7.61213e+57
          1193.04890	         9.92538e+57
          1193.85520	         1.06253e+58
          1194.66150	         2.35909e+57
          1195.46780	         9.61741e+57
          1196.27410	         9.41698e+57
          1197.08040	         6.98980e+57
          1197.88670	         1.43238e+58
          1198.69300	         1.54175e+58
          1199.49930	         1.32803e+58
          1200.30560	         9.44465e+57
          1201.11190	         7.90245e+57
          1201.91820	         8.09698e+57
          1202.72450	         7.13381e+57
          1203.53080	         1.55438e+58
          1204.33710	         8.17837e+57
          1205.14340	         5.32857e+57
          1205.94970	         6.22378e+57
          1206.75600	         5.88551e+57
          1207.56230	         3.48539e+57
          1208.36860	         9.26782e+57
          1209.17490	         3.56589e+57
          1209.98120	         4.08864e+57
          1210.78750	         8.54586e+57
          1211.59380	         1.31306e+58
          1212.40010	         1.73784e+58
          1213.20640	         1.87507e+58
          1214.01270	         2.32345e+58
          1214.81900	         2.46938e+58
          1215.62530	         4.44693e+58
          1216.43160	         9.05472e+58
          1217.23790	         1.51568e+59
          1218.04420	         1.13328e+59
          1218.85050	         8.26291e+58
          1219.65680	         5.64300e+58
          1220.46310	         3.42455e+58
          1221.26940	         2.17317e+58
          1222.07570	         1.68759e+58
          1222.88200	         1.40924e+58
          1223.68830	         1.46400e+58
          1224.49460	         9.98303e+57
          1225.30090	         6.67089e+57
          1226.10720	         8.87669e+57
          1226.91350	         1.05183e+58
          1227.71980	         1.37375e+58
          1228.52610	         1.37667e+58
          1229.33240	         5.08881e+57
          1230.13870	         6.23031e+57
          1230.94500	         5.76511e+57
          1231.75130	         5.42795e+57
          1232.55760	         9.88396e+57
          1233.36390	         8.98079e+57
          1234.17020	         8.37696e+57
          1234.97650	         8.56147e+57
          1235.78280	         8.07356e+57
          1236.58910	         8.20532e+57
          1237.39540	         1.08063e+58
          1238.20170	         1.05370e+58
          1239.00800	         1.12676e+58
          1239.81430	         1.20176e+58
          1240.62060	         1.00585e+58
          1241.42690	         9.78426e+57
          1242.23320	         1.02457e+58
          1243.03950	         9.07588e+57
          1243.84580	         8.17759e+57
          1244.65210	         9.34524e+57
          1245.45840	         1.04973e+58
          1246.26470	         9.62955e+57
          1247.07100	         6.64275e+57
          1247.87730	         5.81572e+57
          1248.68360	         3.52090e+57
          1249.48990	         5.88243e+57
          1250.29620	         8.00753e+57
          1251.10250	         7.01516e+57
          1251.90880	         4.75922e+57
          1252.71510	         8.28900e+57
          1253.52140	         8.59297e+57
          1254.32770	         1.08052e+58
          1255.13400	         1.47639e+58
          1255.94030	         1.23791e+58
          1256.74660	         9.99700e+57
          1257.55290	         7.95532e+57
          1258.35920	         6.84733e+57
          1259.16550	         6.83944e+57
          1259.97180	         7.58874e+57
          1260.77810	         1.17662e+58
          1261.58440	         1.34599e+58
          1262.39070	         9.63460e+57
          1263.19700	         8.72142e+57
          1264.00330	         8.81601e+57
          1264.80960	         8.73798e+57
          1265.61590	         1.04928e+58
          1266.42220	         1.13008e+58
          1267.22850	         1.09846e+58
          1268.03480	         1.34520e+58
          1268.84110	         1.30483e+58
          1269.64740	         1.10090e+58
          1270.45370	         1.02606e+58
          1271.26000	         9.55173e+57
          1272.06630	         8.40097e+57
          1272.87260	         1.14529e+58
          1273.67890	         1.06896e+58
          1274.48520	         1.10649e+58
          1275.29150	         1.10173e+58
          1276.09780	         1.00508e+58
          1276.90410	         1.47775e+58
          1277.71040	         1.33933e+58
          1278.51670	         1.11128e+58
          1279.32300	         1.28426e+58
          1280.12930	         1.40234e+58
          1280.93560	         1.15420e+58
          1281.74190	         1.05090e+58
          1282.54820	         1.23671e+58
          1283.35450	         1.02967e+58
          1284.16080	         1.06762e+58
          1284.96710	         1.49948e+58
          1285.77340	         1.22085e+58
          1286.57970	         1.22304e+58
          1287.38600	         1.47464e+58
          1288.19230	         1.63151e+58
          1288.99860	         1.47693e+58
          1289.80490	         1.14099e+58
          1290.61120	         1.26814e+58
          1291.41750	         1.41226e+58
          1292.22380	         1.17956e+58
          1293.03010	         1.06610e+58
          1293.83640	         1.17842e+58
          1294.64270	         9.56263e+57
          1295.44900	         6.05027e+57
          1296.25530	         7.80483e+57
          1297.06160	         9.73484e+57
          1297.86790	         8.27180e+57
          1298.67420	         8.75790e+57
          1299.48050	         9.68939e+57
          1300.28680	         1.12108e+58
          1301.09310	         8.63637e+57
          1301.89940	         3.49898e+57
          1302.70570	         5.01831e+57
          1303.51200	         7.86560e+57
          1304.31830	         9.31998e+57
          1305.12460	         9.77588e+57
          1305.93090	         1.09990e+58
          1306.73720	         1.13618e+58
          1307.54350	         1.43488e+58
          1308.34980	         1.47536e+58
          1309.15610	         1.47078e+58
          1309.96240	         1.56661e+58
          1310.76870	         1.34103e+58
          1311.57500	         1.14107e+58
          1312.38130	         1.17657e+58
          1313.18760	         1.37350e+58
          1313.99390	         1.41104e+58
          1314.80020	         1.48447e+58
          1315.60650	         1.37465e+58
          1316.41280	         1.12104e+58
          1317.21910	         1.03470e+58
          1318.02540	         1.00941e+58
          1318.83170	         1.07295e+58
          1319.63800	         1.04959e+58
          1320.44430	         1.12675e+58
          1321.25060	         1.16824e+58
          1322.05690	         1.11938e+58
          1322.86320	         1.14847e+58
          1323.66950	         1.26953e+58
          1324.47580	         1.04217e+58
          1325.28210	         8.59427e+57
          1326.08840	         1.06457e+58
          1326.89470	         1.22383e+58
          1327.70100	         1.04039e+58
          1328.50730	         9.31456e+57
          1329.31360	         1.10346e+58
          1330.11990	         9.82538e+57
          1330.92620	         7.72630e+57
          1331.73250	         1.07546e+58
          1332.53880	         1.10958e+58
          1333.34510	         9.21158e+57
          1334.15140	         7.84060e+57
          1334.95770	         8.60020e+57
          1335.76400	         1.02062e+58
          1336.57030	         1.04560e+58
          1337.37660	         9.36042e+57
          1338.18290	         1.02929e+58
          1338.98920	         1.02573e+58
          1339.79550	         9.37265e+57
          1340.60180	         1.13833e+58
          1341.40810	         1.39946e+58
          1342.21440	         1.13607e+58
          1343.02070	         1.16463e+58
          1343.82700	         1.38352e+58
          1344.63330	         1.29198e+58
          1345.43960	         1.27043e+58
          1346.24590	         1.16752e+58
          1347.05220	         1.23249e+58
          1347.85850	         1.18687e+58
          1348.66480	         1.05527e+58
          1349.47110	         1.17036e+58
          1350.27740	         1.23566e+58
          1351.08370	         1.12059e+58
          1351.89000	         1.05299e+58
          1352.69630	         1.15670e+58
          1353.50260	         1.15504e+58
          1354.30890	         1.10535e+58
          1355.11520	         1.19940e+58
          1355.92150	         1.16315e+58
          1356.72780	         1.03536e+58
          1357.53410	         9.70548e+57
          1358.34040	         1.08046e+58
          1359.14670	         9.99826e+57
          1359.95300	         1.11568e+58
          1360.75930	         1.20492e+58
          1361.56560	         1.09363e+58
          1362.37190	         1.03929e+58
          1363.17820	         1.08895e+58
          1363.98450	         1.11970e+58
          1364.79080	         1.23189e+58
          1365.59710	         1.29779e+58
          1366.40340	         1.10772e+58
          1367.20970	         1.02523e+58
          1368.01600	         8.77516e+57
          1368.82230	         9.52572e+57
          1369.62860	         9.67525e+57
          1370.43490	         9.53501e+57
          1371.24120	         9.74316e+57
          1372.04750	         8.04012e+57
          1372.85380	         1.01554e+58
          1373.66010	         9.70058e+57
          1374.46640	         9.12041e+57
          1375.27270	         1.05915e+58
          1376.07900	         1.00911e+58
          1376.88530	         8.83798e+57
          1377.69160	         8.24266e+57
          1378.49790	         6.70541e+57
          1379.30420	         7.43687e+57
          1380.11050	         9.03505e+57
          1380.91680	         7.74767e+57
          1381.72310	         7.57344e+57
          1382.52940	         7.53389e+57
          1383.33570	         8.07539e+57
          1384.14200	         1.04443e+58
          1384.94830	         1.04345e+58
          1385.75460	         9.56556e+57
          1386.56090	         9.64468e+57
          1387.36720	         1.01387e+58
          1388.17350	         1.20519e+58
          1388.97980	         1.17025e+58
          1389.78610	         1.00437e+58
          1390.59240	         7.57222e+57
          1391.39870	         7.22489e+57
          1392.20500	         8.44196e+57
          1393.01130	         8.83847e+57
          1393.81760	         8.33262e+57
          1394.62390	         7.49885e+57
          1395.43020	         6.03474e+57
          1396.23650	         6.93600e+57
          1397.04280	         7.48856e+57
          1397.84910	         8.41937e+57
          1398.65540	         9.96518e+57
          1399.46170	         1.06982e+58
          1400.26800	         9.47075e+57
          1401.07430	         8.09554e+57
          1401.88060	         7.66306e+57
          1402.68690	         8.85353e+57
          1403.49320	         9.32016e+57
          1404.29950	         8.71802e+57
          1405.10580	         8.97600e+57
          1405.91210	         1.06506e+58
          1406.71840	         1.13802e+58
          1407.52470	         1.03890e+58
          1408.33100	         9.42140e+57
          1409.13730	         1.02030e+58
          1409.94360	         1.07272e+58
          1410.74990	         1.10178e+58
          1411.55620	         1.06613e+58
          1412.36250	         8.97500e+57
          1413.16880	         7.45184e+57
          1413.97510	         6.81811e+57
          1414.78140	         9.84478e+57
          1415.58770	         1.18586e+58
          1416.39400	         1.10175e+58
          1417.20030	         1.11389e+58
          1418.00660	         9.75367e+57
          1418.81290	         9.40411e+57
          1419.61920	         9.48946e+57
          1420.42550	         1.07798e+58
          1421.23180	         1.31526e+58
          1422.03810	         1.29854e+58
          1422.84440	         1.29096e+58
          1423.65070	         1.44786e+58
          1424.45700	         1.18286e+58
          1425.26330	         7.72257e+57
          1426.06960	         6.90271e+57
          1426.87590	         8.01845e+57
          1427.68220	         8.99498e+57
          1428.48850	         9.53526e+57
          1429.29480	         9.58520e+57
          1430.10110	         9.99331e+57
          1430.90740	         8.57309e+57
          1431.71370	         8.85550e+57
          1432.52000	         8.55489e+57
          1433.32630	         8.07244e+57
          1434.13260	         8.30098e+57
          1434.93890	         8.19255e+57
          1435.74520	         8.83246e+57
          1436.55150	         8.74085e+57
          1437.35780	         8.20417e+57
          1438.16410	         8.72735e+57
          1438.97040	         8.85393e+57
          1439.77670	         9.25313e+57
          1440.58300	         8.93251e+57
          1441.38930	         9.31441e+57
          1442.19560	         1.06551e+58
          1443.00190	         9.93889e+57
          1443.80820	         1.09449e+58
          1444.61450	         9.12736e+57
          1445.42080	         8.69950e+57
          1446.22710	         1.12772e+58
          1447.03340	         1.10812e+58
          1447.83970	         1.10883e+58
          1448.64600	         1.09601e+58
          1449.45230	         9.93003e+57
          1450.25860	         1.00368e+58
          1451.06490	         8.90025e+57
          1451.87120	         7.63363e+57
          1452.67750	         7.31228e+57
          1453.48380	         8.57099e+57
          1454.29010	         7.68223e+57
          1455.09640	         7.08121e+57
          1455.90270	         8.24314e+57
          1456.70900	         7.73129e+57
          1457.51530	         8.34242e+57
          1458.32160	         1.19031e+58
          1459.12790	         1.23833e+58
          1459.93420	         1.02142e+58
          1460.74050	         7.80614e+57
          1461.54680	         8.25255e+57
          1462.35310	         8.47168e+57
          1463.15940	         1.09464e+58
          1463.96570	         1.22734e+58
          1464.77200	         1.27393e+58
          1465.57830	         1.09403e+58
          1466.38460	         9.10213e+57
          1467.19090	         9.19899e+57
          1467.99720	         8.10523e+57
          1468.80350	         8.11233e+57
          1469.60980	         8.50138e+57
          1470.41610	         9.45092e+57
          1471.22240	         9.20829e+57
          1472.02870	         9.18731e+57
          1472.83500	         9.58660e+57
          1473.64130	         9.18590e+57
          1474.44760	         9.73487e+57
          1475.25390	         9.38239e+57
          1476.06020	         8.76492e+57
          1476.86650	         8.03436e+57
          1477.67280	         8.30252e+57
          1478.47910	         6.86124e+57
          1479.28540	         6.75791e+57
          1480.09170	         8.20146e+57
          1480.89800	         8.11759e+57
          1481.70430	         8.86016e+57
          1482.51060	         8.82881e+57
          1483.31690	         7.55462e+57
          1484.12320	         8.13357e+57
          1484.92950	         8.40683e+57
          1485.73580	         8.04472e+57
          1486.54210	         8.90782e+57
          1487.34840	         8.21419e+57
          1488.15470	         7.01266e+57
          1488.96100	         8.28318e+57
          1489.76730	         8.79142e+57
