#sample_285_stacked_spectrum_rest_UV-bands_median_H-alpha_noDC.txt
#median Lum: 1.69713e+42
#Rest-frame wavelength (A) | Luminosity (erg/s/A)
#
          1110.00000	         0.00000e+00
          1110.80630	        -1.35807e+59
          1111.61260	         3.85044e+59
          1112.41890	         2.40031e+59
          1113.22520	         3.55402e+58
          1114.03150	        -1.23740e+59
          1114.83780	        -6.87713e+58
          1115.64410	        -7.36948e+58
          1116.45040	         1.95928e+59
          1117.25670	         9.28360e+58
          1118.06300	         2.55452e+58
          1118.86930	        -9.50467e+58
          1119.67560	         1.06856e+59
          1120.48190	         1.34260e+58
          1121.28820	        -9.33113e+58
          1122.09450	        -4.77503e+57
          1122.90080	         5.43021e+57
          1123.70710	         4.34259e+58
          1124.51340	         9.62450e+58
          1125.31970	         1.59223e+58
          1126.12600	        -3.80517e+58
          1126.93230	        -6.36626e+58
          1127.73860	        -5.69691e+58
          1128.54490	        -1.74418e+58
          1129.35120	         6.77107e+57
          1130.15750	        -1.51226e+58
          1130.96380	        -4.16634e+57
          1131.77010	         2.56988e+58
          1132.57640	         1.13062e+58
          1133.38270	         5.86481e+57
          1134.18900	         2.26800e+58
          1134.99530	         4.97848e+57
          1135.80160	        -3.79529e+57
          1136.60790	         9.81469e+57
          1137.41420	        -2.13143e+58
          1138.22050	         1.43776e+58
          1139.02680	         1.93186e+58
          1139.83310	         2.27094e+58
          1140.63940	         5.56442e+56
          1141.44570	        -3.28127e+58
          1142.25200	        -5.31909e+57
          1143.05830	         2.16413e+58
          1143.86460	         1.52560e+58
          1144.67090	         3.44580e+58
          1145.47720	         1.82797e+58
          1146.28350	         1.40919e+58
          1147.08980	         1.42086e+58
          1147.89610	         2.32550e+58
          1148.70240	         2.96826e+58
          1149.50870	         2.58359e+58
          1150.31500	         2.40353e+58
          1151.12130	         2.33371e+58
          1151.92760	         5.84011e+57
          1152.73390	         1.44976e+58
          1153.54020	         7.47545e+57
          1154.34650	         1.25108e+58
          1155.15280	         6.85517e+57
          1155.95910	         1.34481e+58
          1156.76540	         8.49978e+57
          1157.57170	        -7.19204e+57
          1158.37800	        -6.88299e+57
          1159.18430	        -5.37257e+57
          1159.99060	         2.92612e+57
          1160.79690	         4.41559e+57
          1161.60320	         1.33296e+58
          1162.40950	         1.51014e+58
          1163.21580	         2.00647e+58
          1164.02210	         7.53203e+57
          1164.82840	         8.17541e+57
          1165.63470	         2.05024e+58
          1166.44100	         2.67385e+58
          1167.24730	         1.89694e+58
          1168.05360	         1.11339e+58
          1168.85990	         8.77791e+57
          1169.66620	         1.19484e+58
          1170.47250	         1.01148e+58
          1171.27880	         3.11874e+57
          1172.08510	         4.11146e+57
          1172.89140	         5.68462e+57
          1173.69770	         4.03134e+57
          1174.50400	         1.00883e+58
          1175.31030	         1.27129e+58
          1176.11660	         1.96291e+58
          1176.92290	         1.65568e+58
          1177.72920	         1.62979e+58
          1178.53550	         1.04524e+58
          1179.34180	         8.29637e+57
          1180.14810	         9.99428e+57
          1180.95440	         8.54400e+57
          1181.76070	         1.09703e+58
          1182.56700	         1.01842e+58
          1183.37330	         3.77068e+57
          1184.17960	         1.10727e+58
          1184.98590	         1.05121e+58
          1185.79220	         5.46499e+57
          1186.59850	         9.78821e+57
          1187.40480	         9.25166e+57
          1188.21110	         9.02992e+57
          1189.01740	         1.22349e+58
          1189.82370	         1.22068e+58
          1190.63000	         1.65750e+58
          1191.43630	         1.75695e+58
          1192.24260	         1.03278e+58
          1193.04890	         8.75392e+57
          1193.85520	         9.99192e+57
          1194.66150	         1.90774e+57
          1195.46780	         8.58948e+57
          1196.27410	         1.75122e+58
          1197.08040	         1.42441e+58
          1197.88670	         1.36816e+58
          1198.69300	         1.44627e+58
          1199.49930	         1.38958e+58
          1200.30560	         7.65827e+57
          1201.11190	         7.81254e+57
          1201.91820	         1.02935e+58
          1202.72450	         1.09396e+58
          1203.53080	         1.29095e+58
          1204.33710	         7.01646e+57
          1205.14340	         4.89416e+57
          1205.94970	         5.66134e+57
          1206.75600	         6.49858e+57
          1207.56230	         5.53850e+57
          1208.36860	         6.90723e+57
          1209.17490	         2.96864e+57
          1209.98120	         5.17249e+57
          1210.78750	         7.58034e+57
          1211.59380	         1.15991e+58
          1212.40010	         1.99840e+58
          1213.20640	         2.00007e+58
          1214.01270	         1.81046e+58
          1214.81900	         2.46515e+58
          1215.62530	         4.64211e+58
          1216.43160	         9.20358e+58
          1217.23790	         1.52078e+59
          1218.04420	         1.14413e+59
          1218.85050	         8.61891e+58
          1219.65680	         5.61249e+58
          1220.46310	         3.22484e+58
          1221.26940	         2.46261e+58
          1222.07570	         1.37684e+58
          1222.88200	         8.51587e+57
          1223.68830	         6.28598e+57
          1224.49460	         4.98365e+57
          1225.30090	         8.76965e+57
          1226.10720	         7.30691e+57
          1226.91350	         1.19905e+58
          1227.71980	         1.49093e+58
          1228.52610	         1.30306e+58
          1229.33240	         9.31165e+57
          1230.13870	         9.30228e+57
          1230.94500	         7.01132e+57
          1231.75130	         6.02370e+57
          1232.55760	         1.01541e+58
          1233.36390	         1.06190e+58
          1234.17020	         1.03548e+58
          1234.97650	         7.95684e+57
          1235.78280	         5.80350e+57
          1236.58910	         5.79429e+57
          1237.39540	         9.78584e+57
          1238.20170	         1.20210e+58
          1239.00800	         1.31669e+58
          1239.81430	         1.30523e+58
          1240.62060	         1.11041e+58
          1241.42690	         1.04209e+58
          1242.23320	         8.71771e+57
          1243.03950	         6.37034e+57
          1243.84580	         7.67595e+57
          1244.65210	         1.01971e+58
          1245.45840	         1.10939e+58
          1246.26470	         9.65872e+57
          1247.07100	         6.13723e+57
          1247.87730	         4.07144e+57
          1248.68360	         1.56408e+57
          1249.48990	         8.68052e+57
          1250.29620	         1.21156e+58
          1251.10250	         1.00656e+58
          1251.90880	         4.57603e+57
          1252.71510	         4.16083e+57
          1253.52140	         5.44844e+57
          1254.32770	         7.73635e+57
          1255.13400	         1.14446e+58
          1255.94030	         1.14189e+58
          1256.74660	         9.08835e+57
          1257.55290	         1.13666e+58
          1258.35920	         9.03602e+57
          1259.16550	         3.98221e+57
          1259.97180	         4.25439e+57
          1260.77810	         7.04064e+57
          1261.58440	         1.00413e+58
          1262.39070	         7.20288e+57
          1263.19700	         6.75150e+57
          1264.00330	         7.65446e+57
          1264.80960	         9.13304e+57
          1265.61590	         1.23348e+58
          1266.42220	         1.11828e+58
          1267.22850	         1.06443e+58
          1268.03480	         1.57116e+58
          1268.84110	         1.35476e+58
          1269.64740	         1.14848e+58
          1270.45370	         1.29680e+58
          1271.26000	         1.31302e+58
          1272.06630	         1.38217e+58
          1272.87260	         1.29580e+58
          1273.67890	         1.17174e+58
          1274.48520	         1.05767e+58
          1275.29150	         1.15992e+58
          1276.09780	         1.27924e+58
          1276.90410	         1.49988e+58
          1277.71040	         1.25327e+58
          1278.51670	         1.19525e+58
          1279.32300	         1.35606e+58
          1280.12930	         1.29363e+58
          1280.93560	         1.23817e+58
          1281.74190	         1.21352e+58
          1282.54820	         1.28140e+58
          1283.35450	         1.21509e+58
          1284.16080	         1.11805e+58
          1284.96710	         1.26579e+58
          1285.77340	         1.20375e+58
          1286.57970	         1.30769e+58
          1287.38600	         1.65333e+58
          1288.19230	         1.93997e+58
          1288.99860	         1.52519e+58
          1289.80490	         1.01930e+58
          1290.61120	         1.25359e+58
          1291.41750	         1.33888e+58
          1292.22380	         1.29173e+58
          1293.03010	         1.12899e+58
          1293.83640	         1.17094e+58
          1294.64270	         1.23711e+58
          1295.44900	         7.04390e+57
          1296.25530	         7.05416e+57
          1297.06160	         9.56159e+57
          1297.86790	         1.02997e+58
          1298.67420	         1.01609e+58
          1299.48050	         1.03142e+58
          1300.28680	         9.39078e+57
          1301.09310	         7.02935e+57
          1301.89940	         3.79836e+57
          1302.70570	         4.68529e+57
          1303.51200	         7.06908e+57
          1304.31830	         9.91308e+57
          1305.12460	         1.25158e+58
          1305.93090	         1.07887e+58
          1306.73720	         1.17562e+58
          1307.54350	         1.48945e+58
          1308.34980	         1.59845e+58
          1309.15610	         1.51761e+58
          1309.96240	         1.56334e+58
          1310.76870	         1.41947e+58
          1311.57500	         1.11426e+58
          1312.38130	         1.15889e+58
          1313.18760	         1.40291e+58
          1313.99390	         1.50586e+58
          1314.80020	         1.48839e+58
          1315.60650	         1.32529e+58
          1316.41280	         1.16441e+58
          1317.21910	         1.09467e+58
          1318.02540	         1.14342e+58
          1318.83170	         1.27402e+58
          1319.63800	         1.10489e+58
          1320.44430	         1.06417e+58
          1321.25060	         1.15083e+58
          1322.05690	         1.23504e+58
          1322.86320	         1.19524e+58
          1323.66950	         1.09033e+58
          1324.47580	         8.50684e+57
          1325.28210	         8.53930e+57
          1326.08840	         1.13475e+58
          1326.89470	         1.19742e+58
          1327.70100	         9.68746e+57
          1328.50730	         8.64636e+57
          1329.31360	         1.00588e+58
          1330.11990	         1.05660e+58
          1330.92620	         1.05481e+58
          1331.73250	         1.13756e+58
          1332.53880	         1.04998e+58
          1333.34510	         8.97868e+57
          1334.15140	         8.35482e+57
          1334.95770	         8.96089e+57
          1335.76400	         1.08643e+58
          1336.57030	         1.25515e+58
          1337.37660	         1.10877e+58
          1338.18290	         9.57306e+57
          1338.98920	         1.18487e+58
          1339.79550	         1.23396e+58
          1340.60180	         1.09357e+58
          1341.40810	         1.30041e+58
          1342.21440	         1.24853e+58
          1343.02070	         1.14659e+58
          1343.82700	         1.24618e+58
          1344.63330	         1.18758e+58
          1345.43960	         1.32143e+58
          1346.24590	         1.17441e+58
          1347.05220	         1.31228e+58
          1347.85850	         1.11818e+58
          1348.66480	         1.13508e+58
          1349.47110	         1.29954e+58
          1350.27740	         1.09237e+58
          1351.08370	         1.05243e+58
          1351.89000	         1.16364e+58
          1352.69630	         1.32301e+58
          1353.50260	         1.33424e+58
          1354.30890	         1.27540e+58
          1355.11520	         1.16594e+58
          1355.92150	         9.89305e+57
          1356.72780	         1.03296e+58
          1357.53410	         1.02093e+58
          1358.34040	         1.16365e+58
          1359.14670	         1.19589e+58
          1359.95300	         1.27226e+58
          1360.75930	         1.17201e+58
          1361.56560	         1.11813e+58
          1362.37190	         1.13354e+58
          1363.17820	         1.08062e+58
          1363.98450	         1.24390e+58
          1364.79080	         1.22275e+58
          1365.59710	         1.12906e+58
          1366.40340	         1.18478e+58
          1367.20970	         1.18099e+58
          1368.01600	         9.12289e+57
          1368.82230	         6.92690e+57
          1369.62860	         7.30719e+57
          1370.43490	         9.65927e+57
          1371.24120	         1.06705e+58
          1372.04750	         9.53737e+57
          1372.85380	         1.12294e+58
          1373.66010	         1.13149e+58
          1374.46640	         1.12468e+58
          1375.27270	         1.16142e+58
          1376.07900	         1.02519e+58
          1376.88530	         8.91768e+57
          1377.69160	         8.14114e+57
          1378.49790	         7.58476e+57
          1379.30420	         8.54009e+57
          1380.11050	         9.20257e+57
          1380.91680	         8.10906e+57
          1381.72310	         7.61010e+57
          1382.52940	         8.99740e+57
          1383.33570	         7.72580e+57
          1384.14200	         9.28812e+57
          1384.94830	         1.08036e+58
          1385.75460	         1.15953e+58
          1386.56090	         1.11769e+58
          1387.36720	         9.68086e+57
          1388.17350	         1.12062e+58
          1388.97980	         1.02097e+58
          1389.78610	         8.61955e+57
          1390.59240	         7.74023e+57
          1391.39870	         5.71047e+57
          1392.20500	         7.46493e+57
          1393.01130	         8.37382e+57
          1393.81760	         6.90665e+57
          1394.62390	         7.25981e+57
          1395.43020	         7.67946e+57
          1396.23650	         7.75709e+57
          1397.04280	         7.65762e+57
          1397.84910	         8.59186e+57
          1398.65540	         9.01007e+57
          1399.46170	         9.83379e+57
          1400.26800	         8.54204e+57
          1401.07430	         8.00475e+57
          1401.88060	         8.73658e+57
          1402.68690	         8.31676e+57
          1403.49320	         9.16788e+57
          1404.29950	         9.79910e+57
          1405.10580	         1.08543e+58
          1405.91210	         1.15733e+58
          1406.71840	         1.06159e+58
          1407.52470	         9.41579e+57
          1408.33100	         9.98970e+57
          1409.13730	         1.15026e+58
          1409.94360	         1.16271e+58
          1410.74990	         1.13846e+58
          1411.55620	         1.02425e+58
          1412.36250	         1.06010e+58
          1413.16880	         1.00883e+58
          1413.97510	         8.22885e+57
          1414.78140	         9.00040e+57
          1415.58770	         1.07544e+58
          1416.39400	         1.14388e+58
          1417.20030	         1.00432e+58
          1418.00660	         9.18363e+57
          1418.81290	         9.37441e+57
          1419.61920	         8.77656e+57
          1420.42550	         1.09631e+58
          1421.23180	         1.24227e+58
          1422.03810	         1.11801e+58
          1422.84440	         1.05861e+58
          1423.65070	         1.28260e+58
          1424.45700	         1.19939e+58
          1425.26330	         1.01059e+58
          1426.06960	         9.14365e+57
          1426.87590	         1.00902e+58
          1427.68220	         9.82501e+57
          1428.48850	         1.15429e+58
          1429.29480	         1.19701e+58
          1430.10110	         1.13407e+58
          1430.90740	         9.05160e+57
          1431.71370	         8.46537e+57
          1432.52000	         8.99121e+57
          1433.32630	         7.25684e+57
          1434.13260	         7.20446e+57
          1434.93890	         8.77058e+57
          1435.74520	         8.62950e+57
          1436.55150	         8.89612e+57
          1437.35780	         9.74516e+57
          1438.16410	         9.83457e+57
          1438.97040	         8.60994e+57
          1439.77670	         8.41113e+57
          1440.58300	         8.92556e+57
          1441.38930	         8.63325e+57
          1442.19560	         8.66715e+57
          1443.00190	         9.19236e+57
          1443.80820	         1.02865e+58
          1444.61450	         9.18438e+57
          1445.42080	         7.63183e+57
          1446.22710	         9.14092e+57
          1447.03340	         9.04265e+57
          1447.83970	         9.97435e+57
          1448.64600	         9.53504e+57
          1449.45230	         9.09751e+57
          1450.25860	         8.79445e+57
          1451.06490	         8.18482e+57
          1451.87120	         7.45668e+57
          1452.67750	         6.85055e+57
          1453.48380	         8.92816e+57
          1454.29010	         8.40931e+57
          1455.09640	         7.05507e+57
          1455.90270	         8.60005e+57
          1456.70900	         9.03461e+57
          1457.51530	         1.05420e+58
          1458.32160	         1.27293e+58
          1459.12790	         1.19278e+58
          1459.93420	         1.03822e+58
          1460.74050	         9.35358e+57
          1461.54680	         9.08231e+57
          1462.35310	         8.71554e+57
          1463.15940	         9.47343e+57
          1463.96570	         1.12233e+58
          1464.77200	         1.16401e+58
          1465.57830	         1.06822e+58
          1466.38460	         9.03976e+57
          1467.19090	         9.81460e+57
          1467.99720	         8.87189e+57
          1468.80350	         9.07953e+57
          1469.60980	         1.01749e+58
          1470.41610	         9.60082e+57
          1471.22240	         7.54521e+57
          1472.02870	         8.42308e+57
          1472.83500	         9.79839e+57
          1473.64130	         9.85418e+57
          1474.44760	         9.88739e+57
          1475.25390	         1.00837e+58
          1476.06020	         9.11828e+57
          1476.86650	         7.52235e+57
          1477.67280	         7.20597e+57
          1478.47910	         6.19740e+57
          1479.28540	         6.89468e+57
          1480.09170	         8.72838e+57
          1480.89800	         8.70571e+57
          1481.70430	         8.70051e+57
          1482.51060	         8.17718e+57
          1483.31690	         8.55552e+57
          1484.12320	         8.20093e+57
          1484.92950	         7.29225e+57
          1485.73580	         8.41293e+57
          1486.54210	         9.79686e+57
          1487.34840	         9.79851e+57
          1488.15470	         9.06322e+57
          1488.96100	         9.14347e+57
          1489.76730	         1.02805e+58
