#sample_272_stacked_spectrum_rest_UV-bands_median_H-alpha_noDC.txt
#median Lum: 1.68825e+42
#Rest-frame wavelength (A) | Luminosity (erg/s/A)
#
          1110.00000	         0.00000e+00
          1110.80630	         7.33800e+58
          1111.61260	        -1.24809e+59
          1112.41890	        -1.35385e+58
          1113.22520	        -9.32658e+58
          1114.03150	        -1.98971e+59
          1114.83780	         1.45374e+58
          1115.64410	         5.24254e+58
          1116.45040	         3.24046e+59
          1117.25670	         2.60683e+57
          1118.06300	         9.10787e+57
          1118.86930	         4.01378e+58
          1119.67560	         1.76500e+59
          1120.48190	         7.01425e+58
          1121.28820	        -1.26396e+59
          1122.09450	        -7.48243e+58
          1122.90080	         1.76137e+58
          1123.70710	         2.03716e+58
          1124.51340	         2.22715e+58
          1125.31970	        -3.21361e+57
          1126.12600	         1.17795e+58
          1126.93230	        -2.42027e+58
          1127.73860	        -6.84727e+58
          1128.54490	         3.70667e+57
          1129.35120	         3.95188e+58
          1130.15750	        -7.61985e+57
          1130.96380	        -2.47487e+58
          1131.77010	         5.35554e+58
          1132.57640	         6.88478e+58
          1133.38270	         5.72755e+58
          1134.18900	         1.67763e+58
          1134.99530	         2.13287e+58
          1135.80160	         1.31248e+58
          1136.60790	         4.23219e+57
          1137.41420	         1.01196e+58
          1138.22050	         3.53681e+58
          1139.02680	         2.83719e+58
          1139.83310	         9.03165e+57
          1140.63940	         1.79133e+58
          1141.44570	        -1.55538e+58
          1142.25200	        -1.93546e+58
          1143.05830	         9.84275e+57
          1143.86460	         1.79813e+58
          1144.67090	         2.71388e+58
          1145.47720	         1.30260e+58
          1146.28350	         6.74722e+57
          1147.08980	         1.09781e+58
          1147.89610	         4.94210e+57
          1148.70240	         1.55816e+58
          1149.50870	         2.18579e+58
          1150.31500	         1.95342e+58
          1151.12130	         8.72313e+57
          1151.92760	        -2.91599e+57
          1152.73390	        -1.60352e+58
          1153.54020	         9.16190e+56
          1154.34650	         2.30090e+58
          1155.15280	         2.27977e+58
          1155.95910	         8.58478e+57
          1156.76540	         1.46541e+58
          1157.57170	         1.61803e+58
          1158.37800	         6.43648e+57
          1159.18430	        -5.33725e+57
          1159.99060	        -3.85076e+57
          1160.79690	         3.84400e+56
          1161.60320	         2.38668e+57
          1162.40950	         1.27734e+58
          1163.21580	         2.31262e+58
          1164.02210	         1.51184e+58
          1164.82840	         1.49098e+58
          1165.63470	         1.77696e+58
          1166.44100	         2.95901e+58
          1167.24730	         1.65073e+58
          1168.05360	         7.56663e+57
          1168.85990	         8.27496e+57
          1169.66620	         1.12816e+58
          1170.47250	         1.34048e+58
          1171.27880	         1.37156e+58
          1172.08510	         1.63988e+58
          1172.89140	         1.72671e+58
          1173.69770	         3.87977e+57
          1174.50400	         8.26329e+57
          1175.31030	         1.60994e+58
          1176.11660	         2.05733e+58
          1176.92290	         1.70898e+58
          1177.72920	         1.52214e+58
          1178.53550	         7.62090e+57
          1179.34180	         4.09949e+56
          1180.14810	         3.27327e+57
          1180.95440	         8.38125e+57
          1181.76070	         1.24729e+58
          1182.56700	         1.42809e+58
          1183.37330	         5.97099e+57
          1184.17960	         1.19984e+58
          1184.98590	         1.45789e+58
          1185.79220	         7.17360e+57
          1186.59850	         5.16304e+57
          1187.40480	         5.30561e+57
          1188.21110	         1.00391e+58
          1189.01740	         1.51782e+58
          1189.82370	         1.22420e+58
          1190.63000	         9.72104e+57
          1191.43630	         1.06563e+58
          1192.24260	         6.92407e+57
          1193.04890	         1.03970e+58
          1193.85520	         8.48746e+57
          1194.66150	         3.10811e+57
          1195.46780	         1.16531e+58
          1196.27410	         1.70163e+58
          1197.08040	         7.27711e+57
          1197.88670	         1.11957e+58
          1198.69300	         1.51678e+58
          1199.49930	         1.31480e+58
          1200.30560	         1.10906e+58
          1201.11190	         1.24054e+58
          1201.91820	         1.04771e+58
          1202.72450	         8.89311e+57
          1203.53080	         1.29053e+58
          1204.33710	         7.36358e+57
          1205.14340	         8.99752e+57
          1205.94970	         6.36546e+57
          1206.75600	         4.22984e+57
          1207.56230	         9.26996e+57
          1208.36860	         1.04092e+58
          1209.17490	         6.00795e+57
          1209.98120	         5.64880e+57
          1210.78750	         8.33037e+57
          1211.59380	         1.27383e+58
          1212.40010	         1.80265e+58
          1213.20640	         2.15790e+58
          1214.01270	         2.24982e+58
          1214.81900	         2.81659e+58
          1215.62530	         4.41363e+58
          1216.43160	         9.28924e+58
          1217.23790	         1.53022e+59
          1218.04420	         1.16038e+59
          1218.85050	         8.77473e+58
          1219.65680	         5.61849e+58
          1220.46310	         3.27440e+58
          1221.26940	         2.45712e+58
          1222.07570	         1.48531e+58
          1222.88200	         1.36109e+58
          1223.68830	         9.47469e+57
          1224.49460	         6.21579e+57
          1225.30090	         7.01130e+57
          1226.10720	         8.05291e+57
          1226.91350	         7.61735e+57
          1227.71980	         7.27671e+57
          1228.52610	         1.04069e+58
          1229.33240	         5.41222e+57
          1230.13870	         6.93696e+57
          1230.94500	         8.89838e+57
          1231.75130	         6.03703e+57
          1232.55760	         7.66124e+57
          1233.36390	         9.13879e+57
          1234.17020	         7.82438e+57
          1234.97650	         8.68213e+57
          1235.78280	         9.80990e+57
          1236.58910	         1.03249e+58
          1237.39540	         1.07232e+58
          1238.20170	         1.12785e+58
          1239.00800	         1.34257e+58
          1239.81430	         1.30288e+58
          1240.62060	         7.78663e+57
          1241.42690	         1.05841e+58
          1242.23320	         1.30583e+58
          1243.03950	         9.36628e+57
          1243.84580	         1.05358e+58
          1244.65210	         1.09427e+58
          1245.45840	         9.05812e+57
          1246.26470	         8.76295e+57
          1247.07100	         9.02638e+57
          1247.87730	         6.86123e+57
          1248.68360	         2.66279e+57
          1249.48990	         5.57685e+57
          1250.29620	         8.31295e+57
          1251.10250	         6.48084e+57
          1251.90880	         5.46693e+57
          1252.71510	         5.71734e+57
          1253.52140	         6.73404e+57
          1254.32770	         9.11139e+57
          1255.13400	         9.80601e+57
          1255.94030	         9.36149e+57
          1256.74660	         1.04987e+58
          1257.55290	         1.08814e+58
          1258.35920	         8.82031e+57
          1259.16550	         4.68111e+57
          1259.97180	         4.95942e+57
          1260.77810	         7.29897e+57
          1261.58440	         9.96037e+57
          1262.39070	         1.10803e+58
          1263.19700	         1.05763e+58
          1264.00330	         1.12179e+58
          1264.80960	         1.15982e+58
          1265.61590	         1.35951e+58
          1266.42220	         1.14841e+58
          1267.22850	         8.04773e+57
          1268.03480	         1.18477e+58
          1268.84110	         1.60467e+58
          1269.64740	         1.41090e+58
          1270.45370	         1.13858e+58
          1271.26000	         1.21312e+58
          1272.06630	         1.24010e+58
          1272.87260	         1.46140e+58
          1273.67890	         1.45329e+58
          1274.48520	         1.14516e+58
          1275.29150	         1.29346e+58
          1276.09780	         1.31162e+58
          1276.90410	         1.47122e+58
          1277.71040	         1.34514e+58
          1278.51670	         1.15251e+58
          1279.32300	         1.28794e+58
          1280.12930	         1.42229e+58
          1280.93560	         1.32591e+58
          1281.74190	         1.26449e+58
          1282.54820	         1.25236e+58
          1283.35450	         1.18561e+58
          1284.16080	         1.25061e+58
          1284.96710	         1.27636e+58
          1285.77340	         1.21566e+58
          1286.57970	         1.26807e+58
          1287.38600	         1.56328e+58
          1288.19230	         1.79310e+58
          1288.99860	         1.38088e+58
          1289.80490	         1.11669e+58
          1290.61120	         1.27976e+58
          1291.41750	         1.29954e+58
          1292.22380	         1.24254e+58
          1293.03010	         1.22959e+58
          1293.83640	         1.04974e+58
          1294.64270	         9.18323e+57
          1295.44900	         6.57664e+57
          1296.25530	         7.70684e+57
          1297.06160	         1.01263e+58
          1297.86790	         9.91706e+57
          1298.67420	         8.21911e+57
          1299.48050	         1.00503e+58
          1300.28680	         1.21838e+58
          1301.09310	         9.87795e+57
          1301.89940	         4.85621e+57
          1302.70570	         4.84609e+57
          1303.51200	         6.59936e+57
          1304.31830	         9.61440e+57
          1305.12460	         1.12324e+58
          1305.93090	         1.22281e+58
          1306.73720	         1.29300e+58
          1307.54350	         1.29543e+58
          1308.34980	         1.28632e+58
          1309.15610	         1.51263e+58
          1309.96240	         1.65826e+58
          1310.76870	         1.26639e+58
          1311.57500	         1.08899e+58
          1312.38130	         1.36586e+58
          1313.18760	         1.49457e+58
          1313.99390	         1.81115e+58
          1314.80020	         1.60825e+58
          1315.60650	         1.41910e+58
          1316.41280	         1.20009e+58
          1317.21910	         9.38668e+57
          1318.02540	         1.14746e+58
          1318.83170	         1.24307e+58
          1319.63800	         1.17798e+58
          1320.44430	         1.12983e+58
          1321.25060	         1.19266e+58
          1322.05690	         1.33083e+58
          1322.86320	         1.27170e+58
          1323.66950	         1.18743e+58
          1324.47580	         1.04199e+58
          1325.28210	         1.00656e+58
          1326.08840	         1.15000e+58
          1326.89470	         1.16859e+58
          1327.70100	         9.74057e+57
          1328.50730	         7.36998e+57
          1329.31360	         7.87322e+57
          1330.11990	         9.67166e+57
          1330.92620	         1.04722e+58
          1331.73250	         1.04876e+58
          1332.53880	         9.23008e+57
          1333.34510	         8.51029e+57
          1334.15140	         7.95885e+57
          1334.95770	         8.18309e+57
          1335.76400	         1.07603e+58
          1336.57030	         1.10527e+58
          1337.37660	         9.22385e+57
          1338.18290	         9.02704e+57
          1338.98920	         1.12554e+58
          1339.79550	         1.13410e+58
          1340.60180	         1.22651e+58
          1341.40810	         1.29669e+58
          1342.21440	         1.13067e+58
          1343.02070	         1.20557e+58
          1343.82700	         1.49494e+58
          1344.63330	         1.38481e+58
          1345.43960	         1.03911e+58
          1346.24590	         9.72214e+57
          1347.05220	         1.08357e+58
          1347.85850	         1.00975e+58
          1348.66480	         1.13166e+58
          1349.47110	         1.18421e+58
          1350.27740	         1.04447e+58
          1351.08370	         1.15987e+58
          1351.89000	         1.16175e+58
          1352.69630	         1.17570e+58
          1353.50260	         1.31830e+58
          1354.30890	         1.24006e+58
          1355.11520	         1.23225e+58
          1355.92150	         1.03324e+58
          1356.72780	         9.26114e+57
          1357.53410	         1.03363e+58
          1358.34040	         1.03412e+58
          1359.14670	         9.91877e+57
          1359.95300	         1.19936e+58
          1360.75930	         1.22080e+58
          1361.56560	         1.14105e+58
          1362.37190	         1.11323e+58
          1363.17820	         1.13806e+58
          1363.98450	         1.22170e+58
          1364.79080	         1.17051e+58
          1365.59710	         1.26909e+58
          1366.40340	         1.29228e+58
          1367.20970	         1.14890e+58
          1368.01600	         9.83522e+57
          1368.82230	         9.23418e+57
          1369.62860	         9.49367e+57
          1370.43490	         8.18014e+57
          1371.24120	         9.71758e+57
          1372.04750	         1.05671e+58
          1372.85380	         1.07424e+58
          1373.66010	         9.17415e+57
          1374.46640	         9.94967e+57
          1375.27270	         1.05158e+58
          1376.07900	         8.97838e+57
          1376.88530	         8.47533e+57
          1377.69160	         9.75084e+57
          1378.49790	         8.17250e+57
          1379.30420	         8.57887e+57
          1380.11050	         9.11982e+57
          1380.91680	         8.25639e+57
          1381.72310	         8.69883e+57
          1382.52940	         9.02544e+57
          1383.33570	         8.54890e+57
          1384.14200	         9.86978e+57
          1384.94830	         1.05081e+58
          1385.75460	         9.72121e+57
          1386.56090	         1.03968e+58
          1387.36720	         9.74335e+57
          1388.17350	         8.93579e+57
          1388.97980	         9.90464e+57
          1389.78610	         8.61844e+57
          1390.59240	         7.01509e+57
          1391.39870	         7.84707e+57
          1392.20500	         7.86113e+57
          1393.01130	         7.28256e+57
          1393.81760	         6.69746e+57
          1394.62390	         7.41350e+57
          1395.43020	         7.10117e+57
          1396.23650	         5.98518e+57
          1397.04280	         6.32181e+57
          1397.84910	         7.36044e+57
          1398.65540	         7.84644e+57
          1399.46170	         9.67615e+57
          1400.26800	         8.22242e+57
          1401.07430	         7.40070e+57
          1401.88060	         9.66951e+57
          1402.68690	         9.08971e+57
          1403.49320	         7.90809e+57
          1404.29950	         9.40542e+57
          1405.10580	         1.05582e+58
          1405.91210	         1.15591e+58
          1406.71840	         1.04723e+58
          1407.52470	         9.83559e+57
          1408.33100	         1.02105e+58
          1409.13730	         1.08077e+58
          1409.94360	         1.07876e+58
          1410.74990	         1.18284e+58
          1411.55620	         1.20240e+58
          1412.36250	         1.14116e+58
          1413.16880	         9.80628e+57
          1413.97510	         8.30920e+57
          1414.78140	         8.38491e+57
          1415.58770	         1.03737e+58
          1416.39400	         1.22807e+58
          1417.20030	         1.08792e+58
          1418.00660	         8.65922e+57
          1418.81290	         1.05389e+58
          1419.61920	         1.06396e+58
          1420.42550	         1.26209e+58
          1421.23180	         1.39534e+58
          1422.03810	         1.31208e+58
          1422.84440	         1.19294e+58
          1423.65070	         1.26092e+58
          1424.45700	         1.09877e+58
          1425.26330	         9.38441e+57
          1426.06960	         9.09444e+57
          1426.87590	         1.01610e+58
          1427.68220	         1.12257e+58
          1428.48850	         1.14618e+58
          1429.29480	         1.09092e+58
          1430.10110	         1.03549e+58
          1430.90740	         1.01184e+58
          1431.71370	         8.82319e+57
          1432.52000	         8.08870e+57
          1433.32630	         7.89376e+57
          1434.13260	         7.39339e+57
          1434.93890	         8.19162e+57
          1435.74520	         9.12909e+57
          1436.55150	         9.70793e+57
          1437.35780	         1.00856e+58
          1438.16410	         9.51949e+57
          1438.97040	         9.45210e+57
          1439.77670	         9.17357e+57
          1440.58300	         9.87967e+57
          1441.38930	         1.01171e+58
          1442.19560	         9.44927e+57
          1443.00190	         9.74853e+57
          1443.80820	         1.18497e+58
          1444.61450	         1.00712e+58
          1445.42080	         7.60205e+57
          1446.22710	         1.04855e+58
          1447.03340	         1.17266e+58
          1447.83970	         1.06553e+58
          1448.64600	         1.06879e+58
          1449.45230	         9.57745e+57
          1450.25860	         9.37195e+57
          1451.06490	         8.45769e+57
          1451.87120	         7.70688e+57
          1452.67750	         6.86706e+57
          1453.48380	         7.77363e+57
          1454.29010	         8.17087e+57
          1455.09640	         7.92938e+57
          1455.90270	         9.71789e+57
          1456.70900	         9.70347e+57
          1457.51530	         9.42300e+57
          1458.32160	         1.15102e+58
          1459.12790	         1.16899e+58
          1459.93420	         1.05015e+58
          1460.74050	         8.40708e+57
          1461.54680	         8.47623e+57
          1462.35310	         8.41480e+57
          1463.15940	         1.03500e+58
          1463.96570	         1.23382e+58
          1464.77200	         1.11796e+58
          1465.57830	         1.00805e+58
          1466.38460	         9.95851e+57
          1467.19090	         8.84791e+57
          1467.99720	         8.99620e+57
          1468.80350	         9.34107e+57
          1469.60980	         1.02493e+58
          1470.41610	         1.15450e+58
          1471.22240	         9.62809e+57
          1472.02870	         9.49671e+57
          1472.83500	         1.09958e+58
          1473.64130	         1.07797e+58
          1474.44760	         9.51498e+57
          1475.25390	         9.83637e+57
          1476.06020	         8.02143e+57
          1476.86650	         7.49991e+57
          1477.67280	         7.91215e+57
          1478.47910	         7.43523e+57
          1479.28540	         7.15155e+57
          1480.09170	         8.08929e+57
          1480.89800	         8.31261e+57
          1481.70430	         8.48313e+57
          1482.51060	         8.00933e+57
          1483.31690	         6.44969e+57
          1484.12320	         6.50307e+57
          1484.92950	         7.66426e+57
          1485.73580	         7.76851e+57
          1486.54210	         7.47336e+57
          1487.34840	         8.45203e+57
          1488.15470	         9.11881e+57
          1488.96100	         9.48417e+57
          1489.76730	         9.71404e+57
