#sample_239_stacked_spectrum_rest_UV-bands_median_H-alpha_noDC.txt
#median Lum: 1.69121e+42
#Rest-frame wavelength (A) | Luminosity (erg/s/A)
#
          1110.00000	         0.00000e+00
          1110.80630	        -1.48365e+59
          1111.61260	         1.58260e+59
          1112.41890	         1.80833e+59
          1113.22520	        -1.83713e+59
          1114.03150	        -2.40149e+59
          1114.83780	         2.40206e+59
          1115.64410	         7.77010e+58
          1116.45040	         1.23613e+59
          1117.25670	         3.17506e+58
          1118.06300	        -5.62164e+58
          1118.86930	         6.67320e+58
          1119.67560	         1.23470e+59
          1120.48190	        -3.70459e+58
          1121.28820	        -1.11182e+59
          1122.09450	         1.01586e+58
          1122.90080	        -2.62879e+57
          1123.70710	        -5.48771e+57
          1124.51340	         3.48495e+58
          1125.31970	         6.08766e+58
          1126.12600	         1.02597e+58
          1126.93230	        -8.87277e+58
          1127.73860	        -2.98184e+58
          1128.54490	         1.02316e+58
          1129.35120	         1.69395e+58
          1130.15750	        -1.53264e+58
          1130.96380	        -1.34694e+58
          1131.77010	         6.36675e+58
          1132.57640	         3.92623e+58
          1133.38270	         3.44511e+58
          1134.18900	         4.65058e+58
          1134.99530	         1.81029e+58
          1135.80160	         1.48982e+58
          1136.60790	         1.47896e+57
          1137.41420	        -3.04390e+58
          1138.22050	         2.60194e+58
          1139.02680	         2.23547e+58
          1139.83310	         7.64068e+57
          1140.63940	         1.55494e+58
          1141.44570	        -7.83330e+56
          1142.25200	        -2.38587e+57
          1143.05830	         9.78694e+57
          1143.86460	         2.03280e+58
          1144.67090	         3.07012e+58
          1145.47720	         2.52840e+58
          1146.28350	         1.35550e+58
          1147.08980	         4.43227e+57
          1147.89610	         9.87076e+57
          1148.70240	         2.02081e+58
          1149.50870	         1.89278e+58
          1150.31500	         2.55370e+58
          1151.12130	         3.06047e+58
          1151.92760	        -5.20969e+56
          1152.73390	         1.19781e+58
          1153.54020	        -1.84224e+57
          1154.34650	         2.91319e+58
          1155.15280	         3.54593e+58
          1155.95910	         1.64193e+58
          1156.76540	         9.80672e+57
          1157.57170	        -5.79984e+57
          1158.37800	         5.39098e+57
          1159.18430	        -5.64521e+57
          1159.99060	         4.80140e+57
          1160.79690	         8.78504e+57
          1161.60320	         9.28820e+57
          1162.40950	         1.69590e+58
          1163.21580	         2.29780e+58
          1164.02210	         1.58566e+58
          1164.82840	         6.79798e+57
          1165.63470	         2.28877e+58
          1166.44100	         3.82909e+58
          1167.24730	         2.34329e+58
          1168.05360	         1.19709e+58
          1168.85990	         8.45222e+57
          1169.66620	         9.60379e+57
          1170.47250	         1.50135e+58
          1171.27880	         9.24898e+57
          1172.08510	         8.54287e+57
          1172.89140	         2.57959e+57
          1173.69770	         6.04931e+57
          1174.50400	         1.27112e+58
          1175.31030	         1.57148e+58
          1176.11660	         1.39093e+58
          1176.92290	         1.28716e+58
          1177.72920	         1.36235e+58
          1178.53550	         7.73216e+57
          1179.34180	         3.11825e+57
          1180.14810	         9.61859e+56
          1180.95440	         7.13404e+57
          1181.76070	         9.80625e+57
          1182.56700	         1.02297e+58
          1183.37330	         4.72191e+57
          1184.17960	         1.03630e+58
          1184.98590	         1.03319e+58
          1185.79220	         7.81342e+57
          1186.59850	         1.01887e+58
          1187.40480	         1.07592e+58
          1188.21110	         1.38298e+58
          1189.01740	         1.65634e+58
          1189.82370	         1.45388e+58
          1190.63000	         1.33889e+58
          1191.43630	         9.47138e+57
          1192.24260	         5.58061e+57
          1193.04890	         1.19801e+58
          1193.85520	         1.07664e+58
          1194.66150	         5.79544e+56
          1195.46780	         4.80910e+57
          1196.27410	         1.27278e+58
          1197.08040	         1.42331e+58
          1197.88670	         1.64712e+58
          1198.69300	         1.53721e+58
          1199.49930	         1.52940e+58
          1200.30560	         1.37087e+58
          1201.11190	         8.87489e+57
          1201.91820	         8.96014e+57
          1202.72450	         9.17639e+57
          1203.53080	         1.05479e+58
          1204.33710	         8.72394e+57
          1205.14340	         7.58514e+57
          1205.94970	         1.11070e+58
          1206.75600	         9.90026e+57
          1207.56230	         5.26557e+57
          1208.36860	         7.56883e+57
          1209.17490	         1.46586e+57
          1209.98120	         3.73544e+57
          1210.78750	         6.71890e+57
          1211.59380	         9.17634e+57
          1212.40010	         1.53665e+58
          1213.20640	         1.89661e+58
          1214.01270	         1.88679e+58
          1214.81900	         2.83026e+58
          1215.62530	         4.71045e+58
          1216.43160	         9.52108e+58
          1217.23790	         1.52916e+59
          1218.04420	         1.11644e+59
          1218.85050	         8.51341e+58
          1219.65680	         5.95035e+58
          1220.46310	         3.36121e+58
          1221.26940	         1.84695e+58
          1222.07570	         1.28112e+58
          1222.88200	         1.08641e+58
          1223.68830	         1.07189e+58
          1224.49460	         7.44613e+57
          1225.30090	         4.49004e+57
          1226.10720	         5.71434e+57
          1226.91350	         7.16273e+57
          1227.71980	         1.08827e+58
          1228.52610	         1.38895e+58
          1229.33240	         6.89640e+57
          1230.13870	         6.28156e+57
          1230.94500	         9.17412e+57
          1231.75130	         6.46416e+57
          1232.55760	         6.31200e+57
          1233.36390	         8.49417e+57
          1234.17020	         8.40885e+57
          1234.97650	         5.82445e+57
          1235.78280	         8.09306e+57
          1236.58910	         8.45704e+57
          1237.39540	         9.69247e+57
          1238.20170	         1.02709e+58
          1239.00800	         1.21591e+58
          1239.81430	         1.27057e+58
          1240.62060	         9.64555e+57
          1241.42690	         1.05594e+58
          1242.23320	         1.32586e+58
          1243.03950	         8.56804e+57
          1243.84580	         8.93505e+57
          1244.65210	         9.22384e+57
          1245.45840	         6.84601e+57
          1246.26470	         7.90105e+57
          1247.07100	         6.41938e+57
          1247.87730	         6.38537e+57
          1248.68360	         4.42819e+57
          1249.48990	         7.94697e+57
          1250.29620	         7.57158e+57
          1251.10250	         5.79051e+57
          1251.90880	         6.45579e+57
          1252.71510	         6.71899e+57
          1253.52140	         1.03899e+58
          1254.32770	         1.26793e+58
          1255.13400	         1.34204e+58
          1255.94030	         1.22800e+58
          1256.74660	         1.06391e+58
          1257.55290	         1.07358e+58
          1258.35920	         7.97818e+57
          1259.16550	         4.41847e+57
          1259.97180	         4.58252e+57
          1260.77810	         9.83075e+57
          1261.58440	         1.25852e+58
          1262.39070	         6.89443e+57
          1263.19700	         8.08251e+57
          1264.00330	         9.20735e+57
          1264.80960	         1.12218e+58
          1265.61590	         1.42050e+58
          1266.42220	         1.42521e+58
          1267.22850	         1.10460e+58
          1268.03480	         1.31594e+58
          1268.84110	         1.53289e+58
          1269.64740	         1.40902e+58
          1270.45370	         1.47595e+58
          1271.26000	         1.27946e+58
          1272.06630	         1.09774e+58
          1272.87260	         1.12940e+58
          1273.67890	         1.12200e+58
          1274.48520	         1.17294e+58
          1275.29150	         1.26842e+58
          1276.09780	         1.16301e+58
          1276.90410	         1.40442e+58
          1277.71040	         1.44257e+58
          1278.51670	         1.32449e+58
          1279.32300	         1.35115e+58
          1280.12930	         1.29166e+58
          1280.93560	         1.36798e+58
          1281.74190	         1.40216e+58
          1282.54820	         1.29219e+58
          1283.35450	         1.13115e+58
          1284.16080	         1.07795e+58
          1284.96710	         1.10883e+58
          1285.77340	         1.10558e+58
          1286.57970	         1.26317e+58
          1287.38600	         1.74484e+58
          1288.19230	         1.77593e+58
          1288.99860	         1.40614e+58
          1289.80490	         1.07086e+58
          1290.61120	         1.15363e+58
          1291.41750	         1.39461e+58
          1292.22380	         1.26742e+58
          1293.03010	         1.04678e+58
          1293.83640	         1.15116e+58
          1294.64270	         1.03852e+58
          1295.44900	         7.09768e+57
          1296.25530	         7.32218e+57
          1297.06160	         9.46019e+57
          1297.86790	         9.25673e+57
          1298.67420	         1.04017e+58
          1299.48050	         1.02914e+58
          1300.28680	         8.61496e+57
          1301.09310	         8.28748e+57
          1301.89940	         5.57858e+57
          1302.70570	         7.51532e+57
          1303.51200	         9.00465e+57
          1304.31830	         1.01347e+58
          1305.12460	         1.09370e+58
          1305.93090	         1.31422e+58
          1306.73720	         1.35552e+58
          1307.54350	         1.40022e+58
          1308.34980	         1.61944e+58
          1309.15610	         1.68297e+58
          1309.96240	         1.42480e+58
          1310.76870	         1.31261e+58
          1311.57500	         1.19124e+58
          1312.38130	         1.07813e+58
          1313.18760	         1.20039e+58
          1313.99390	         1.39603e+58
          1314.80020	         1.59929e+58
          1315.60650	         1.51284e+58
          1316.41280	         1.39230e+58
          1317.21910	         1.15359e+58
          1318.02540	         1.07378e+58
          1318.83170	         1.18892e+58
          1319.63800	         1.06247e+58
          1320.44430	         9.20543e+57
          1321.25060	         1.09024e+58
          1322.05690	         1.25018e+58
          1322.86320	         1.17698e+58
          1323.66950	         1.04196e+58
          1324.47580	         8.30442e+57
          1325.28210	         9.24373e+57
          1326.08840	         1.08827e+58
          1326.89470	         1.13226e+58
          1327.70100	         9.74911e+57
          1328.50730	         8.75219e+57
          1329.31360	         7.96142e+57
          1330.11990	         8.13657e+57
          1330.92620	         9.73984e+57
          1331.73250	         1.10152e+58
          1332.53880	         9.79040e+57
          1333.34510	         1.01772e+58
          1334.15140	         8.53646e+57
          1334.95770	         8.73124e+57
          1335.76400	         1.11047e+58
          1336.57030	         1.20357e+58
          1337.37660	         1.05723e+58
          1338.18290	         1.01630e+58
          1338.98920	         1.22885e+58
          1339.79550	         1.24132e+58
          1340.60180	         1.18589e+58
          1341.40810	         1.30076e+58
          1342.21440	         1.17649e+58
          1343.02070	         1.23544e+58
          1343.82700	         1.33318e+58
          1344.63330	         1.21388e+58
          1345.43960	         1.28164e+58
          1346.24590	         1.25483e+58
          1347.05220	         1.21719e+58
          1347.85850	         1.06099e+58
          1348.66480	         1.19741e+58
          1349.47110	         1.39584e+58
          1350.27740	         1.28428e+58
          1351.08370	         1.09161e+58
          1351.89000	         1.15251e+58
          1352.69630	         1.25305e+58
          1353.50260	         1.38885e+58
          1354.30890	         1.25602e+58
          1355.11520	         1.15557e+58
          1355.92150	         1.02426e+58
          1356.72780	         1.12094e+58
          1357.53410	         1.04794e+58
          1358.34040	         1.00387e+58
          1359.14670	         1.06105e+58
          1359.95300	         1.07021e+58
          1360.75930	         1.17594e+58
          1361.56560	         1.19812e+58
          1362.37190	         1.21841e+58
          1363.17820	         1.04079e+58
          1363.98450	         1.06131e+58
          1364.79080	         1.33319e+58
          1365.59710	         1.35165e+58
          1366.40340	         1.16620e+58
          1367.20970	         1.00194e+58
          1368.01600	         1.00099e+58
          1368.82230	         1.06670e+58
          1369.62860	         1.12636e+58
          1370.43490	         9.99900e+57
          1371.24120	         9.82898e+57
          1372.04750	         9.03906e+57
          1372.85380	         1.00050e+58
          1373.66010	         1.07164e+58
          1374.46640	         1.05246e+58
          1375.27270	         1.09462e+58
          1376.07900	         9.09564e+57
          1376.88530	         7.57255e+57
          1377.69160	         8.11986e+57
          1378.49790	         7.35993e+57
          1379.30420	         6.49669e+57
          1380.11050	         7.93939e+57
          1380.91680	         8.54622e+57
          1381.72310	         9.06252e+57
          1382.52940	         8.75292e+57
          1383.33570	         8.05923e+57
          1384.14200	         8.45836e+57
          1384.94830	         1.06667e+58
          1385.75460	         1.03530e+58
          1386.56090	         1.14322e+58
          1387.36720	         1.21898e+58
          1388.17350	         1.24465e+58
          1388.97980	         1.07843e+58
          1389.78610	         8.65313e+57
          1390.59240	         6.77412e+57
          1391.39870	         5.85165e+57
          1392.20500	         8.33397e+57
          1393.01130	         8.67701e+57
          1393.81760	         7.35208e+57
          1394.62390	         7.43235e+57
          1395.43020	         7.09205e+57
          1396.23650	         6.07171e+57
          1397.04280	         6.60732e+57
          1397.84910	         8.44310e+57
          1398.65540	         8.53591e+57
          1399.46170	         8.40610e+57
          1400.26800	         7.42875e+57
          1401.07430	         7.16075e+57
          1401.88060	         7.93183e+57
          1402.68690	         9.20493e+57
          1403.49320	         9.28682e+57
          1404.29950	         8.80582e+57
          1405.10580	         9.75628e+57
          1405.91210	         1.13065e+58
          1406.71840	         1.16731e+58
          1407.52470	         9.43958e+57
          1408.33100	         8.59618e+57
          1409.13730	         1.13362e+58
          1409.94360	         1.13755e+58
          1410.74990	         1.05753e+58
          1411.55620	         9.90044e+57
          1412.36250	         9.50154e+57
          1413.16880	         1.03346e+58
          1413.97510	         8.67095e+57
          1414.78140	         9.22322e+57
          1415.58770	         1.20072e+58
          1416.39400	         1.16452e+58
          1417.20030	         1.12267e+58
          1418.00660	         1.12944e+58
          1418.81290	         1.12307e+58
          1419.61920	         8.97791e+57
          1420.42550	         1.07255e+58
          1421.23180	         1.39158e+58
          1422.03810	         1.19936e+58
          1422.84440	         1.08201e+58
          1423.65070	         1.25491e+58
          1424.45700	         1.05523e+58
          1425.26330	         7.86983e+57
          1426.06960	         8.15362e+57
          1426.87590	         9.61347e+57
          1427.68220	         9.88912e+57
          1428.48850	         1.05854e+58
          1429.29480	         1.10207e+58
          1430.10110	         1.00639e+58
          1430.90740	         8.81127e+57
          1431.71370	         8.93165e+57
          1432.52000	         8.12271e+57
          1433.32630	         7.09940e+57
          1434.13260	         7.72541e+57
          1434.93890	         7.42138e+57
          1435.74520	         8.74207e+57
          1436.55150	         1.01226e+58
          1437.35780	         9.60695e+57
          1438.16410	         9.05396e+57
          1438.97040	         8.59716e+57
          1439.77670	         8.89505e+57
          1440.58300	         8.90539e+57
          1441.38930	         8.92927e+57
          1442.19560	         9.19914e+57
          1443.00190	         8.88961e+57
          1443.80820	         1.00584e+58
          1444.61450	         1.00767e+58
          1445.42080	         9.58723e+57
          1446.22710	         1.04443e+58
          1447.03340	         1.05894e+58
          1447.83970	         1.03101e+58
          1448.64600	         9.90632e+57
          1449.45230	         1.11637e+58
          1450.25860	         1.02706e+58
          1451.06490	         7.73784e+57
          1451.87120	         6.78763e+57
          1452.67750	         6.96397e+57
          1453.48380	         7.95296e+57
          1454.29010	         7.38590e+57
          1455.09640	         7.44721e+57
          1455.90270	         9.23612e+57
          1456.70900	         8.77646e+57
          1457.51530	         9.57471e+57
          1458.32160	         1.18438e+58
          1459.12790	         1.17363e+58
          1459.93420	         1.03848e+58
          1460.74050	         7.57326e+57
          1461.54680	         7.02761e+57
          1462.35310	         8.16167e+57
          1463.15940	         9.67780e+57
          1463.96570	         1.20276e+58
          1464.77200	         1.29549e+58
          1465.57830	         1.05129e+58
          1466.38460	         9.09882e+57
          1467.19090	         8.28698e+57
          1467.99720	         9.12538e+57
          1468.80350	         1.06122e+58
          1469.60980	         1.00813e+58
          1470.41610	         9.87501e+57
          1471.22240	         8.83670e+57
          1472.02870	         1.04862e+58
          1472.83500	         1.06667e+58
          1473.64130	         9.97897e+57
          1474.44760	         9.99963e+57
          1475.25390	         9.07812e+57
          1476.06020	         7.92256e+57
          1476.86650	         7.54885e+57
          1477.67280	         8.30347e+57
          1478.47910	         6.96883e+57
          1479.28540	         6.51791e+57
          1480.09170	         7.35565e+57
          1480.89800	         7.35841e+57
          1481.70430	         7.71002e+57
          1482.51060	         8.34148e+57
          1483.31690	         7.85534e+57
          1484.12320	         7.49830e+57
          1484.92950	         6.88842e+57
          1485.73580	         6.88175e+57
          1486.54210	         8.79499e+57
          1487.34840	         9.38338e+57
          1488.15470	         9.05803e+57
          1488.96100	         8.95991e+57
          1489.76730	         8.49974e+57
