#sample_52_stacked_spectrum_rest_UV-bands_median_H-alpha_noDC.txt
#median Lum: 1.68968e+42
#Rest-frame wavelength (A) | Luminosity (erg/s/A)
#
          1110.00000	         0.00000e+00
          1110.80630	        -3.12555e+59
          1111.61260	         1.94510e+59
          1112.41890	         2.29725e+59
          1113.22520	         1.06790e+59
          1114.03150	        -5.65037e+58
          1114.83780	        -1.35102e+59
          1115.64410	         2.05665e+59
          1116.45040	         2.18308e+59
          1117.25670	        -6.50335e+58
          1118.06300	         7.80154e+58
          1118.86930	        -2.05172e+58
          1119.67560	         2.61536e+58
          1120.48190	        -6.54506e+58
          1121.28820	        -1.12923e+59
          1122.09450	         2.16677e+58
          1122.90080	         2.81163e+58
          1123.70710	         1.31083e+58
          1124.51340	         7.38648e+58
          1125.31970	        -3.69130e+58
          1126.12600	        -2.73186e+58
          1126.93230	        -2.53671e+58
          1127.73860	        -4.94827e+58
          1128.54490	        -5.99982e+57
          1129.35120	         2.60402e+58
          1130.15750	         1.86398e+58
          1130.96380	        -2.65690e+58
          1131.77010	         5.20103e+58
          1132.57640	         2.07807e+58
          1133.38270	         5.75850e+58
          1134.18900	         2.45508e+58
          1134.99530	         3.03147e+58
          1135.80160	         2.75062e+58
          1136.60790	         1.87254e+58
          1137.41420	        -1.20729e+58
          1138.22050	         3.84960e+58
          1139.02680	         5.63753e+58
          1139.83310	         2.74997e+58
          1140.63940	         2.35567e+58
          1141.44570	        -1.54777e+58
          1142.25200	         1.06429e+58
          1143.05830	         1.68008e+58
          1143.86460	         3.05333e+58
          1144.67090	         2.89984e+57
          1145.47720	         1.32732e+58
          1146.28350	         1.66013e+58
          1147.08980	         1.66418e+58
          1147.89610	         1.90755e+58
          1148.70240	         2.73948e+58
          1149.50870	         2.03244e+58
          1150.31500	         1.20800e+58
          1151.12130	         2.30117e+57
          1151.92760	        -7.07133e+57
          1152.73390	        -3.28702e+57
          1153.54020	        -1.16089e+57
          1154.34650	         2.91753e+58
          1155.15280	         2.84258e+58
          1155.95910	         2.95282e+57
          1156.76540	         8.30684e+57
          1157.57170	         3.72633e+57
          1158.37800	        -6.04070e+57
          1159.18430	        -7.00626e+56
          1159.99060	         1.23534e+58
          1160.79690	         1.28031e+58
          1161.60320	         1.18699e+58
          1162.40950	         1.51431e+58
          1163.21580	         1.93022e+58
          1164.02210	         9.30793e+57
          1164.82840	         9.92706e+57
          1165.63470	         1.85865e+58
          1166.44100	         2.80367e+58
          1167.24730	         1.36597e+58
          1168.05360	         5.12735e+57
          1168.85990	         1.59192e+58
          1169.66620	         1.28763e+58
          1170.47250	         1.03878e+58
          1171.27880	         1.29053e+58
          1172.08510	         2.13826e+58
          1172.89140	         1.82310e+58
          1173.69770	         1.76287e+58
          1174.50400	         1.32933e+58
          1175.31030	         1.56207e+58
          1176.11660	         1.57043e+58
          1176.92290	         1.71444e+58
          1177.72920	         1.45339e+58
          1178.53550	         8.35477e+57
          1179.34180	         3.21966e+57
          1180.14810	         8.34103e+56
          1180.95440	         9.22499e+57
          1181.76070	         9.49225e+57
          1182.56700	         7.81249e+57
          1183.37330	         4.18042e+57
          1184.17960	         9.71356e+57
          1184.98590	         7.61214e+57
          1185.79220	         8.15158e+57
          1186.59850	         1.03515e+58
          1187.40480	         9.32063e+57
          1188.21110	         2.06050e+58
          1189.01740	         1.31597e+58
          1189.82370	         1.44816e+58
          1190.63000	         1.13092e+58
          1191.43630	         1.01742e+58
          1192.24260	         1.00045e+58
          1193.04890	         1.45413e+58
          1193.85520	         8.85046e+57
          1194.66150	         8.05698e+56
          1195.46780	         7.39051e+57
          1196.27410	         1.31388e+58
          1197.08040	         1.01288e+58
          1197.88670	         1.29879e+58
          1198.69300	         1.32969e+58
          1199.49930	         1.37901e+58
          1200.30560	         1.47982e+58
          1201.11190	         1.43774e+58
          1201.91820	         9.63082e+57
          1202.72450	         7.82343e+57
          1203.53080	         1.20317e+58
          1204.33710	         6.06588e+57
          1205.14340	         8.65455e+57
          1205.94970	         7.81187e+57
          1206.75600	         1.21729e+58
          1207.56230	         3.25065e+57
          1208.36860	         6.11316e+57
          1209.17490	         5.48189e+57
          1209.98120	         9.67055e+57
          1210.78750	         1.25308e+58
          1211.59380	         1.18405e+58
          1212.40010	         1.68822e+58
          1213.20640	         2.09044e+58
          1214.01270	         2.10215e+58
          1214.81900	         2.71470e+58
          1215.62530	         4.52174e+58
          1216.43160	         9.09011e+58
          1217.23790	         1.50305e+59
          1218.04420	         1.12846e+59
          1218.85050	         8.40097e+58
          1219.65680	         5.48187e+58
          1220.46310	         3.27426e+58
          1221.26940	         2.36692e+58
          1222.07570	         1.48929e+58
          1222.88200	         1.14228e+58
          1223.68830	         8.53985e+57
          1224.49460	         4.80168e+57
          1225.30090	         5.87035e+57
          1226.10720	         6.93648e+57
          1226.91350	         5.51367e+57
          1227.71980	         6.01760e+57
          1228.52610	         9.95032e+57
          1229.33240	         1.01323e+58
          1230.13870	         8.45076e+57
          1230.94500	         8.12341e+57
          1231.75130	         5.54825e+57
          1232.55760	         8.24414e+57
          1233.36390	         1.05256e+58
          1234.17020	         1.01252e+58
          1234.97650	         1.06311e+58
          1235.78280	         8.72391e+57
          1236.58910	         8.25037e+57
          1237.39540	         1.07001e+58
          1238.20170	         1.15970e+58
          1239.00800	         1.19391e+58
          1239.81430	         1.26602e+58
          1240.62060	         9.61974e+57
          1241.42690	         1.06819e+58
          1242.23320	         1.11676e+58
          1243.03950	         7.05935e+57
          1243.84580	         8.76517e+57
          1244.65210	         1.21920e+58
          1245.45840	         8.70055e+57
          1246.26470	         5.40126e+57
          1247.07100	         6.24156e+57
          1247.87730	         5.79716e+57
          1248.68360	         4.81223e+57
          1249.48990	         1.26663e+58
          1250.29620	         1.42259e+58
          1251.10250	         7.02992e+57
          1251.90880	         3.64559e+57
          1252.71510	         3.06379e+57
          1253.52140	         5.42477e+57
          1254.32770	         1.07305e+58
          1255.13400	         1.30487e+58
          1255.94030	         9.84257e+57
          1256.74660	         7.92777e+57
          1257.55290	         9.47325e+57
          1258.35920	         8.62421e+57
          1259.16550	         4.23407e+57
          1259.97180	         5.65652e+57
          1260.77810	         8.18822e+57
          1261.58440	         1.08515e+58
          1262.39070	         6.51148e+57
          1263.19700	         6.15720e+57
          1264.00330	         8.91683e+57
          1264.80960	         1.10702e+58
          1265.61590	         1.34212e+58
          1266.42220	         1.14395e+58
          1267.22850	         8.46376e+57
          1268.03480	         1.38190e+58
          1268.84110	         1.56470e+58
          1269.64740	         1.30470e+58
          1270.45370	         1.20548e+58
          1271.26000	         1.12611e+58
          1272.06630	         1.13279e+58
          1272.87260	         1.26749e+58
          1273.67890	         1.24118e+58
          1274.48520	         1.20236e+58
          1275.29150	         1.18080e+58
          1276.09780	         1.10119e+58
          1276.90410	         1.28608e+58
          1277.71040	         1.17671e+58
          1278.51670	         1.09988e+58
          1279.32300	         1.21945e+58
          1280.12930	         1.11479e+58
          1280.93560	         1.12372e+58
          1281.74190	         1.20567e+58
          1282.54820	         1.12358e+58
          1283.35450	         8.58218e+57
          1284.16080	         1.10499e+58
          1284.96710	         1.21527e+58
          1285.77340	         1.01611e+58
          1286.57970	         1.00657e+58
          1287.38600	         1.27316e+58
          1288.19230	         1.68243e+58
          1288.99860	         1.62225e+58
          1289.80490	         1.18886e+58
          1290.61120	         1.27631e+58
          1291.41750	         1.57048e+58
          1292.22380	         1.34158e+58
          1293.03010	         1.08537e+58
          1293.83640	         1.16034e+58
          1294.64270	         1.02170e+58
          1295.44900	         7.74835e+57
          1296.25530	         7.96865e+57
          1297.06160	         9.57595e+57
          1297.86790	         1.04861e+58
          1298.67420	         1.04622e+58
          1299.48050	         1.05566e+58
          1300.28680	         9.99438e+57
          1301.09310	         7.61854e+57
          1301.89940	         3.73253e+57
          1302.70570	         5.86811e+57
          1303.51200	         8.76943e+57
          1304.31830	         9.90151e+57
          1305.12460	         1.11358e+58
          1305.93090	         1.17585e+58
          1306.73720	         1.12965e+58
          1307.54350	         1.14013e+58
          1308.34980	         1.47474e+58
          1309.15610	         1.59193e+58
          1309.96240	         1.63413e+58
          1310.76870	         1.53035e+58
          1311.57500	         1.22223e+58
          1312.38130	         1.24163e+58
          1313.18760	         1.11190e+58
          1313.99390	         1.42087e+58
          1314.80020	         1.60871e+58
          1315.60650	         1.49619e+58
          1316.41280	         1.36579e+58
          1317.21910	         1.25604e+58
          1318.02540	         1.22660e+58
          1318.83170	         1.32730e+58
          1319.63800	         1.25120e+58
          1320.44430	         1.11546e+58
          1321.25060	         1.09115e+58
          1322.05690	         1.15643e+58
          1322.86320	         1.16141e+58
          1323.66950	         1.16203e+58
          1324.47580	         9.65207e+57
          1325.28210	         9.19715e+57
          1326.08840	         1.16805e+58
          1326.89470	         1.18031e+58
          1327.70100	         1.02586e+58
          1328.50730	         8.94993e+57
          1329.31360	         1.05645e+58
          1330.11990	         1.12277e+58
          1330.92620	         1.01752e+58
          1331.73250	         1.11035e+58
          1332.53880	         1.02203e+58
          1333.34510	         8.36515e+57
          1334.15140	         7.90934e+57
          1334.95770	         8.47950e+57
          1335.76400	         9.82966e+57
          1336.57030	         1.05671e+58
          1337.37660	         1.03894e+58
          1338.18290	         9.93371e+57
          1338.98920	         1.08186e+58
          1339.79550	         1.16888e+58
          1340.60180	         1.14509e+58
          1341.40810	         1.24950e+58
          1342.21440	         1.24248e+58
          1343.02070	         1.23013e+58
          1343.82700	         1.35113e+58
          1344.63330	         1.45305e+58
          1345.43960	         1.51518e+58
          1346.24590	         1.07409e+58
          1347.05220	         1.07976e+58
          1347.85850	         1.18221e+58
          1348.66480	         1.21991e+58
          1349.47110	         1.22910e+58
          1350.27740	         1.13599e+58
          1351.08370	         1.04654e+58
          1351.89000	         9.96766e+57
          1352.69630	         1.09852e+58
          1353.50260	         1.21280e+58
          1354.30890	         1.29782e+58
          1355.11520	         1.25055e+58
          1355.92150	         1.11949e+58
          1356.72780	         1.06019e+58
          1357.53410	         1.05804e+58
          1358.34040	         1.05203e+58
          1359.14670	         1.03410e+58
          1359.95300	         1.08175e+58
          1360.75930	         1.08545e+58
          1361.56560	         1.05613e+58
          1362.37190	         1.01368e+58
          1363.17820	         9.12178e+57
          1363.98450	         1.15025e+58
          1364.79080	         1.30110e+58
          1365.59710	         1.22522e+58
          1366.40340	         1.16622e+58
          1367.20970	         9.77860e+57
          1368.01600	         8.82101e+57
          1368.82230	         7.01979e+57
          1369.62860	         8.68562e+57
          1370.43490	         9.86246e+57
          1371.24120	         9.84912e+57
          1372.04750	         9.02398e+57
          1372.85380	         1.13811e+58
          1373.66010	         1.06912e+58
          1374.46640	         1.01365e+58
          1375.27270	         1.07987e+58
          1376.07900	         9.66510e+57
          1376.88530	         9.04645e+57
          1377.69160	         8.92864e+57
          1378.49790	         8.09113e+57
          1379.30420	         7.87957e+57
          1380.11050	         9.53753e+57
          1380.91680	         9.20412e+57
          1381.72310	         8.86514e+57
          1382.52940	         8.69107e+57
          1383.33570	         9.74671e+57
          1384.14200	         1.05552e+58
          1384.94830	         9.82650e+57
          1385.75460	         1.14890e+58
          1386.56090	         1.14665e+58
          1387.36720	         9.20039e+57
          1388.17350	         1.09446e+58
          1388.97980	         1.03059e+58
          1389.78610	         1.01072e+58
          1390.59240	         8.18805e+57
          1391.39870	         6.90334e+57
          1392.20500	         7.84632e+57
          1393.01130	         7.86689e+57
          1393.81760	         6.97461e+57
          1394.62390	         6.48938e+57
          1395.43020	         5.20746e+57
          1396.23650	         5.39631e+57
          1397.04280	         6.41152e+57
          1397.84910	         8.24205e+57
          1398.65540	         9.76722e+57
          1399.46170	         9.48253e+57
          1400.26800	         6.65739e+57
          1401.07430	         6.35025e+57
          1401.88060	         8.35546e+57
          1402.68690	         9.04840e+57
          1403.49320	         9.34659e+57
          1404.29950	         9.43210e+57
          1405.10580	         9.36961e+57
          1405.91210	         1.02593e+58
          1406.71840	         1.01994e+58
          1407.52470	         8.90607e+57
          1408.33100	         9.67711e+57
          1409.13730	         1.13918e+58
          1409.94360	         1.20788e+58
          1410.74990	         1.23113e+58
          1411.55620	         1.11268e+58
          1412.36250	         1.01884e+58
          1413.16880	         8.76885e+57
          1413.97510	         8.18626e+57
          1414.78140	         9.10526e+57
          1415.58770	         9.63964e+57
          1416.39400	         9.27476e+57
          1417.20030	         1.03139e+58
          1418.00660	         8.69886e+57
          1418.81290	         8.78644e+57
          1419.61920	         9.78070e+57
          1420.42550	         1.04696e+58
          1421.23180	         1.29285e+58
          1422.03810	         1.26948e+58
          1422.84440	         1.03152e+58
          1423.65070	         1.23190e+58
          1424.45700	         1.23099e+58
          1425.26330	         9.52898e+57
          1426.06960	         7.47255e+57
          1426.87590	         8.57189e+57
          1427.68220	         8.86980e+57
          1428.48850	         9.95664e+57
          1429.29480	         1.01432e+58
          1430.10110	         8.82945e+57
          1430.90740	         8.39985e+57
          1431.71370	         8.99745e+57
          1432.52000	         8.40776e+57
          1433.32630	         7.60403e+57
          1434.13260	         8.05684e+57
          1434.93890	         8.66546e+57
          1435.74520	         8.78770e+57
          1436.55150	         9.02004e+57
          1437.35780	         8.85639e+57
          1438.16410	         8.49100e+57
          1438.97040	         8.90410e+57
          1439.77670	         8.43127e+57
          1440.58300	         8.63141e+57
          1441.38930	         9.19823e+57
          1442.19560	         9.45120e+57
          1443.00190	         9.31363e+57
          1443.80820	         1.03809e+58
          1444.61450	         9.10948e+57
          1445.42080	         7.82197e+57
          1446.22710	         1.02881e+58
          1447.03340	         9.76168e+57
          1447.83970	         1.01743e+58
          1448.64600	         1.09620e+58
          1449.45230	         1.01783e+58
          1450.25860	         1.03668e+58
          1451.06490	         8.22097e+57
          1451.87120	         7.20170e+57
          1452.67750	         7.35304e+57
          1453.48380	         7.63758e+57
          1454.29010	         8.02403e+57
          1455.09640	         7.45014e+57
          1455.90270	         7.54029e+57
          1456.70900	         7.73194e+57
          1457.51530	         9.53895e+57
          1458.32160	         1.12920e+58
          1459.12790	         1.12639e+58
          1459.93420	         9.34409e+57
          1460.74050	         7.45486e+57
          1461.54680	         7.59054e+57
          1462.35310	         8.66498e+57
          1463.15940	         9.78731e+57
          1463.96570	         9.63740e+57
          1464.77200	         9.54106e+57
          1465.57830	         1.00141e+58
          1466.38460	         1.01937e+58
          1467.19090	         9.14456e+57
          1467.99720	         8.26174e+57
          1468.80350	         9.60122e+57
          1469.60980	         1.05561e+58
          1470.41610	         1.05991e+58
          1471.22240	         9.23025e+57
          1472.02870	         9.03739e+57
          1472.83500	         9.18529e+57
          1473.64130	         9.28362e+57
          1474.44760	         1.07069e+58
          1475.25390	         1.04857e+58
          1476.06020	         8.99083e+57
          1476.86650	         8.68050e+57
          1477.67280	         7.70578e+57
          1478.47910	         6.61419e+57
          1479.28540	         7.71000e+57
          1480.09170	         9.03224e+57
          1480.89800	         9.29367e+57
          1481.70430	         9.00842e+57
          1482.51060	         9.33535e+57
          1483.31690	         7.08329e+57
          1484.12320	         5.83202e+57
          1484.92950	         7.50533e+57
          1485.73580	         8.48335e+57
          1486.54210	         8.27792e+57
          1487.34840	         8.25469e+57
          1488.15470	         8.97152e+57
          1488.96100	         9.06200e+57
          1489.76730	         9.72064e+57
