#sample_100_stacked_spectrum_rest_UV-bands_median_H-alpha_noDC.txt
#median Lum: 1.69315e+42
#Rest-frame wavelength (A) | Luminosity (erg/s/A)
#
          1110.00000	         0.00000e+00
          1110.80630	         1.10228e+59
          1111.61260	         1.01712e+59
          1112.41890	         4.62038e+58
          1113.22520	         6.30905e+58
          1114.03150	        -1.83261e+59
          1114.83780	         3.23045e+59
          1115.64410	         2.85015e+59
          1116.45040	         2.77469e+59
          1117.25670	         2.01672e+59
          1118.06300	         1.18816e+59
          1118.86930	         1.09331e+59
          1119.67560	         1.79002e+59
          1120.48190	        -2.92679e+58
          1121.28820	        -1.07735e+59
          1122.09450	         1.03956e+58
          1122.90080	         2.61884e+58
          1123.70710	         8.21756e+58
          1124.51340	         1.04393e+59
          1125.31970	        -3.34738e+58
          1126.12600	        -7.42931e+56
          1126.93230	         3.22849e+57
          1127.73860	        -3.57361e+58
          1128.54490	        -3.28884e+57
          1129.35120	         8.22259e+57
          1130.15750	        -1.58191e+58
          1130.96380	        -3.12731e+58
          1131.77010	         4.87688e+58
          1132.57640	         4.22883e+58
          1133.38270	         2.01397e+58
          1134.18900	         2.12874e+58
          1134.99530	         4.04431e+58
          1135.80160	         1.35741e+58
          1136.60790	        -4.18563e+56
          1137.41420	        -1.00830e+58
          1138.22050	         3.83894e+58
          1139.02680	         4.35939e+58
          1139.83310	         3.16443e+58
          1140.63940	         2.57237e+58
          1141.44570	        -2.60895e+57
          1142.25200	        -1.66283e+58
          1143.05830	         3.66078e+57
          1143.86460	         2.58362e+58
          1144.67090	         3.49038e+58
          1145.47720	         2.51750e+58
          1146.28350	         1.11269e+58
          1147.08980	         1.01002e+58
          1147.89610	         1.38219e+58
          1148.70240	         7.82672e+57
          1149.50870	         2.13760e+58
          1150.31500	         2.15154e+58
          1151.12130	         4.37840e+57
          1151.92760	         6.33890e+57
          1152.73390	         1.63842e+58
          1153.54020	         7.10550e+57
          1154.34650	         2.68084e+58
          1155.15280	         2.37536e+58
          1155.95910	         2.06550e+58
          1156.76540	         4.49617e+57
          1157.57170	        -5.34392e+57
          1158.37800	         3.24745e+57
          1159.18430	        -2.28589e+57
          1159.99060	        -2.81549e+56
          1160.79690	         3.70272e+54
          1161.60320	         5.84577e+57
          1162.40950	         1.24676e+58
          1163.21580	         1.18340e+58
          1164.02210	         1.25159e+58
          1164.82840	         1.75955e+57
          1165.63470	         2.28885e+58
          1166.44100	         3.20372e+58
          1167.24730	         2.61640e+58
          1168.05360	         1.40973e+58
          1168.85990	         4.20390e+57
          1169.66620	         1.24413e+58
          1170.47250	         1.71738e+58
          1171.27880	         9.85837e+57
          1172.08510	         1.25176e+58
          1172.89140	         1.35695e+58
          1173.69770	         8.73058e+57
          1174.50400	         6.62467e+57
          1175.31030	         1.30168e+58
          1176.11660	         1.68353e+58
          1176.92290	         1.50493e+58
          1177.72920	         1.10507e+58
          1178.53550	         1.15359e+58
          1179.34180	         9.50728e+57
          1180.14810	         7.76039e+57
          1180.95440	         9.24415e+57
          1181.76070	         1.10153e+58
          1182.56700	         1.50237e+58
          1183.37330	         7.90841e+57
          1184.17960	         9.17154e+57
          1184.98590	         1.28626e+58
          1185.79220	         9.14104e+57
          1186.59850	         9.01107e+57
          1187.40480	         1.19501e+58
          1188.21110	         1.37483e+58
          1189.01740	         1.08857e+58
          1189.82370	         8.40696e+57
          1190.63000	         1.07195e+58
          1191.43630	         1.21895e+58
          1192.24260	         6.58008e+57
          1193.04890	         1.24781e+58
          1193.85520	         1.39429e+58
          1194.66150	         1.19006e+58
          1195.46780	         1.60452e+58
          1196.27410	         2.19756e+58
          1197.08040	         1.49756e+58
          1197.88670	         1.19516e+58
          1198.69300	         1.27937e+58
          1199.49930	         1.22451e+58
          1200.30560	         1.15725e+58
          1201.11190	         9.45439e+57
          1201.91820	         8.77951e+57
          1202.72450	         7.15774e+57
          1203.53080	         1.32625e+58
          1204.33710	         8.98946e+57
          1205.14340	         4.71598e+57
          1205.94970	         5.17453e+57
          1206.75600	         7.69871e+57
          1207.56230	         3.46844e+57
          1208.36860	         8.32613e+57
          1209.17490	         4.31262e+57
          1209.98120	         8.97182e+57
          1210.78750	         6.46518e+57
          1211.59380	         1.06874e+58
          1212.40010	         1.52067e+58
          1213.20640	         1.99184e+58
          1214.01270	         2.01454e+58
          1214.81900	         2.64607e+58
          1215.62530	         4.61217e+58
          1216.43160	         9.31142e+58
          1217.23790	         1.52557e+59
          1218.04420	         1.12548e+59
          1218.85050	         8.53382e+58
          1219.65680	         5.85683e+58
          1220.46310	         3.40575e+58
          1221.26940	         2.06681e+58
          1222.07570	         9.44072e+57
          1222.88200	         1.16500e+58
          1223.68830	         9.14266e+57
          1224.49460	         3.72403e+57
          1225.30090	         6.29183e+57
          1226.10720	         1.08640e+58
          1226.91350	         8.08057e+57
          1227.71980	         9.16043e+57
          1228.52610	         1.12017e+58
          1229.33240	         9.22154e+57
          1230.13870	         1.14533e+58
          1230.94500	         1.12293e+58
          1231.75130	         6.86840e+57
          1232.55760	         9.36941e+57
          1233.36390	         1.10028e+58
          1234.17020	         9.70311e+57
          1234.97650	         9.07133e+57
          1235.78280	         8.79567e+57
          1236.58910	         8.58038e+57
          1237.39540	         9.02428e+57
          1238.20170	         9.62861e+57
          1239.00800	         1.32506e+58
          1239.81430	         1.50315e+58
          1240.62060	         1.26775e+58
          1241.42690	         1.15457e+58
          1242.23320	         1.20377e+58
          1243.03950	         9.82735e+57
          1243.84580	         6.49237e+57
          1244.65210	         7.21607e+57
          1245.45840	         7.23651e+57
          1246.26470	         5.75176e+57
          1247.07100	         6.06315e+57
          1247.87730	         8.39555e+57
          1248.68360	         5.19067e+57
          1249.48990	         1.00952e+58
          1250.29620	         1.00997e+58
          1251.10250	         9.90693e+57
          1251.90880	         8.29326e+57
          1252.71510	         7.32119e+57
          1253.52140	         9.15894e+57
          1254.32770	         9.82546e+57
          1255.13400	         1.08551e+58
          1255.94030	         1.14957e+58
          1256.74660	         9.71453e+57
          1257.55290	         8.57552e+57
          1258.35920	         7.68973e+57
          1259.16550	         6.09532e+57
          1259.97180	         6.57436e+57
          1260.77810	         9.26199e+57
          1261.58440	         1.24515e+58
          1262.39070	         1.08040e+58
          1263.19700	         1.03557e+58
          1264.00330	         9.27396e+57
          1264.80960	         1.06605e+58
          1265.61590	         1.20452e+58
          1266.42220	         1.12268e+58
          1267.22850	         1.07610e+58
          1268.03480	         1.48167e+58
          1268.84110	         1.75577e+58
          1269.64740	         1.68074e+58
          1270.45370	         1.28221e+58
          1271.26000	         1.06897e+58
          1272.06630	         1.28207e+58
          1272.87260	         1.41076e+58
          1273.67890	         1.26822e+58
          1274.48520	         1.31947e+58
          1275.29150	         1.35757e+58
          1276.09780	         1.17243e+58
          1276.90410	         1.34920e+58
          1277.71040	         1.27036e+58
          1278.51670	         1.03187e+58
          1279.32300	         1.24343e+58
          1280.12930	         1.40915e+58
          1280.93560	         1.15512e+58
          1281.74190	         1.35650e+58
          1282.54820	         1.43822e+58
          1283.35450	         1.01547e+58
          1284.16080	         1.18365e+58
          1284.96710	         1.27473e+58
          1285.77340	         1.06043e+58
          1286.57970	         1.08344e+58
          1287.38600	         1.48458e+58
          1288.19230	         1.68198e+58
          1288.99860	         1.45484e+58
          1289.80490	         1.17609e+58
          1290.61120	         1.36030e+58
          1291.41750	         1.44214e+58
          1292.22380	         1.16735e+58
          1293.03010	         9.68041e+57
          1293.83640	         1.10900e+58
          1294.64270	         1.06678e+58
          1295.44900	         7.77792e+57
          1296.25530	         7.47882e+57
          1297.06160	         1.10997e+58
          1297.86790	         1.19979e+58
          1298.67420	         9.67022e+57
          1299.48050	         1.02288e+58
          1300.28680	         1.11551e+58
          1301.09310	         8.10552e+57
          1301.89940	         4.20508e+57
          1302.70570	         5.89441e+57
          1303.51200	         8.62291e+57
          1304.31830	         1.06829e+58
          1305.12460	         1.11496e+58
          1305.93090	         1.08855e+58
          1306.73720	         1.23693e+58
          1307.54350	         1.40156e+58
          1308.34980	         1.45277e+58
          1309.15610	         1.51276e+58
          1309.96240	         1.63889e+58
          1310.76870	         1.52791e+58
          1311.57500	         1.25409e+58
          1312.38130	         1.15788e+58
          1313.18760	         1.33001e+58
          1313.99390	         1.65074e+58
          1314.80020	         1.73527e+58
          1315.60650	         1.61802e+58
          1316.41280	         1.30472e+58
          1317.21910	         1.22325e+58
          1318.02540	         1.18620e+58
          1318.83170	         1.23899e+58
          1319.63800	         1.18341e+58
          1320.44430	         1.12751e+58
          1321.25060	         1.18090e+58
          1322.05690	         1.22190e+58
          1322.86320	         1.22007e+58
          1323.66950	         1.11420e+58
          1324.47580	         9.15687e+57
          1325.28210	         1.13015e+58
          1326.08840	         1.34739e+58
          1326.89470	         1.29593e+58
          1327.70100	         1.03488e+58
          1328.50730	         8.10145e+57
          1329.31360	         9.73889e+57
          1330.11990	         1.06054e+58
          1330.92620	         7.82500e+57
          1331.73250	         9.37073e+57
          1332.53880	         1.02160e+58
          1333.34510	         1.01796e+58
          1334.15140	         9.23655e+57
          1334.95770	         8.99731e+57
          1335.76400	         1.06402e+58
          1336.57030	         1.15963e+58
          1337.37660	         9.99167e+57
          1338.18290	         1.06775e+58
          1338.98920	         1.30092e+58
          1339.79550	         1.18112e+58
          1340.60180	         1.27349e+58
          1341.40810	         1.45984e+58
          1342.21440	         1.37054e+58
          1343.02070	         1.40262e+58
          1343.82700	         1.46174e+58
          1344.63330	         1.22276e+58
          1345.43960	         1.25690e+58
          1346.24590	         1.22993e+58
          1347.05220	         1.21153e+58
          1347.85850	         9.75426e+57
          1348.66480	         1.18765e+58
          1349.47110	         1.37518e+58
          1350.27740	         1.12507e+58
          1351.08370	         1.16166e+58
          1351.89000	         1.25352e+58
          1352.69630	         1.18383e+58
          1353.50260	         1.12951e+58
          1354.30890	         1.28599e+58
          1355.11520	         1.22045e+58
          1355.92150	         1.11164e+58
          1356.72780	         9.87431e+57
          1357.53410	         1.02436e+58
          1358.34040	         1.10998e+58
          1359.14670	         9.90064e+57
          1359.95300	         1.10006e+58
          1360.75930	         1.24358e+58
          1361.56560	         1.14766e+58
          1362.37190	         1.05055e+58
          1363.17820	         9.81111e+57
          1363.98450	         1.17467e+58
          1364.79080	         1.30139e+58
          1365.59710	         1.29409e+58
          1366.40340	         1.25713e+58
          1367.20970	         9.91625e+57
          1368.01600	         8.46821e+57
          1368.82230	         9.94842e+57
          1369.62860	         1.09662e+58
          1370.43490	         9.46580e+57
          1371.24120	         8.57558e+57
          1372.04750	         8.92997e+57
          1372.85380	         1.04805e+58
          1373.66010	         1.10678e+58
          1374.46640	         1.05487e+58
          1375.27270	         9.83910e+57
          1376.07900	         8.30925e+57
          1376.88530	         8.78142e+57
          1377.69160	         8.90407e+57
          1378.49790	         7.15120e+57
          1379.30420	         6.31515e+57
          1380.11050	         7.97048e+57
          1380.91680	         8.02469e+57
          1381.72310	         7.79323e+57
          1382.52940	         7.75585e+57
          1383.33570	         7.94264e+57
          1384.14200	         9.55801e+57
          1384.94830	         1.08556e+58
          1385.75460	         1.11787e+58
          1386.56090	         1.16630e+58
          1387.36720	         1.27856e+58
          1388.17350	         1.38850e+58
          1388.97980	         1.27011e+58
          1389.78610	         1.06425e+58
          1390.59240	         9.07355e+57
          1391.39870	         6.96154e+57
          1392.20500	         6.13482e+57
          1393.01130	         5.68317e+57
          1393.81760	         6.51234e+57
          1394.62390	         8.43687e+57
          1395.43020	         6.37192e+57
          1396.23650	         6.82493e+57
          1397.04280	         7.88938e+57
          1397.84910	         8.42753e+57
          1398.65540	         8.89968e+57
          1399.46170	         1.09523e+58
          1400.26800	         9.89314e+57
          1401.07430	         7.68748e+57
          1401.88060	         7.34052e+57
          1402.68690	         8.10223e+57
          1403.49320	         8.71357e+57
          1404.29950	         8.40764e+57
          1405.10580	         1.08543e+58
          1405.91210	         1.20019e+58
          1406.71840	         1.13605e+58
          1407.52470	         1.17019e+58
          1408.33100	         1.05114e+58
          1409.13730	         1.14043e+58
          1409.94360	         1.26744e+58
          1410.74990	         1.16417e+58
          1411.55620	         9.84908e+57
          1412.36250	         9.51965e+57
          1413.16880	         9.16613e+57
          1413.97510	         8.61143e+57
          1414.78140	         8.73428e+57
          1415.58770	         1.01028e+58
          1416.39400	         9.93986e+57
          1417.20030	         1.08025e+58
          1418.00660	         1.11529e+58
          1418.81290	         1.17660e+58
          1419.61920	         1.22514e+58
          1420.42550	         1.24498e+58
          1421.23180	         1.36523e+58
          1422.03810	         1.21087e+58
          1422.84440	         1.10404e+58
          1423.65070	         1.30861e+58
          1424.45700	         1.16295e+58
          1425.26330	         8.66755e+57
          1426.06960	         8.93452e+57
          1426.87590	         1.01076e+58
          1427.68220	         9.86026e+57
          1428.48850	         1.02165e+58
          1429.29480	         1.05895e+58
          1430.10110	         1.10666e+58
          1430.90740	         7.66101e+57
          1431.71370	         8.23926e+57
          1432.52000	         8.68881e+57
          1433.32630	         7.86543e+57
          1434.13260	         8.19258e+57
          1434.93890	         9.01040e+57
          1435.74520	         9.16374e+57
          1436.55150	         1.00886e+58
          1437.35780	         1.01168e+58
          1438.16410	         8.91925e+57
          1438.97040	         8.53949e+57
          1439.77670	         8.35664e+57
          1440.58300	         9.84849e+57
          1441.38930	         1.02498e+58
          1442.19560	         9.95831e+57
          1443.00190	         9.56207e+57
          1443.80820	         9.89644e+57
          1444.61450	         8.44633e+57
          1445.42080	         8.21882e+57
          1446.22710	         1.12759e+58
          1447.03340	         1.03211e+58
          1447.83970	         1.11773e+58
          1448.64600	         1.07929e+58
          1449.45230	         8.81663e+57
          1450.25860	         9.99182e+57
          1451.06490	         9.12763e+57
          1451.87120	         7.55177e+57
          1452.67750	         7.27709e+57
          1453.48380	         8.96376e+57
          1454.29010	         8.04096e+57
          1455.09640	         8.16734e+57
          1455.90270	         9.33432e+57
          1456.70900	         8.63644e+57
          1457.51530	         9.78747e+57
          1458.32160	         1.31860e+58
          1459.12790	         1.32382e+58
          1459.93420	         9.41778e+57
          1460.74050	         7.81465e+57
          1461.54680	         9.03262e+57
          1462.35310	         7.59916e+57
          1463.15940	         8.11505e+57
          1463.96570	         9.98918e+57
          1464.77200	         1.11325e+58
          1465.57830	         9.74454e+57
          1466.38460	         9.39316e+57
          1467.19090	         8.77058e+57
          1467.99720	         8.73190e+57
          1468.80350	         9.14166e+57
          1469.60980	         9.55360e+57
          1470.41610	         1.01573e+58
          1471.22240	         9.30977e+57
          1472.02870	         9.55135e+57
          1472.83500	         9.60932e+57
          1473.64130	         1.00774e+58
          1474.44760	         1.06112e+58
          1475.25390	         9.53992e+57
          1476.06020	         8.48723e+57
          1476.86650	         8.58147e+57
          1477.67280	         8.65624e+57
          1478.47910	         7.08357e+57
          1479.28540	         6.24551e+57
          1480.09170	         8.30417e+57
          1480.89800	         9.70801e+57
          1481.70430	         8.54814e+57
          1482.51060	         7.15514e+57
          1483.31690	         7.22605e+57
          1484.12320	         7.82892e+57
          1484.92950	         8.80732e+57
          1485.73580	         8.99280e+57
          1486.54210	         8.92497e+57
          1487.34840	         8.21178e+57
          1488.15470	         7.53662e+57
          1488.96100	         8.26899e+57
          1489.76730	         8.79944e+57
