#sample_275_stacked_spectrum_rest_UV-bands_median_H-alpha_noDC.txt
#median Lum: 1.71039e+42
#Rest-frame wavelength (A) | Luminosity (erg/s/A)
#
          1110.00000	         0.00000e+00
          1110.80630	         4.94991e+58
          1111.61260	        -1.47512e+59
          1112.41890	         1.76551e+59
          1113.22520	        -1.77039e+59
          1114.03150	        -1.57651e+58
          1114.83780	         2.34679e+59
          1115.64410	         7.08349e+58
          1116.45040	         1.11606e+59
          1117.25670	         8.31318e+58
          1118.06300	         4.85415e+58
          1118.86930	        -2.51086e+58
          1119.67560	         7.49456e+58
          1120.48190	         5.13227e+58
          1121.28820	        -9.94511e+58
          1122.09450	        -5.33387e+58
          1122.90080	         5.28945e+58
          1123.70710	         2.79624e+57
          1124.51340	         6.80903e+58
          1125.31970	         1.33496e+58
          1126.12600	        -2.21554e+58
          1126.93230	        -5.80665e+58
          1127.73860	        -1.89706e+58
          1128.54490	        -3.52619e+58
          1129.35120	        -3.04191e+58
          1130.15750	        -6.48531e+58
          1130.96380	        -2.07476e+58
          1131.77010	         3.82381e+58
          1132.57640	        -1.93400e+58
          1133.38270	         8.63238e+57
          1134.18900	         2.78040e+58
          1134.99530	         2.60822e+58
          1135.80160	         2.74460e+58
          1136.60790	         2.35498e+58
          1137.41420	        -4.69993e+57
          1138.22050	         4.53122e+58
          1139.02680	         3.13039e+58
          1139.83310	         1.97904e+58
          1140.63940	         3.06214e+58
          1141.44570	         1.09872e+57
          1142.25200	        -1.21852e+58
          1143.05830	         2.49043e+58
          1143.86460	         3.80384e+58
          1144.67090	         2.11816e+58
          1145.47720	         1.48704e+58
          1146.28350	         2.89551e+58
          1147.08980	         1.05301e+58
          1147.89610	        -4.01554e+56
          1148.70240	         1.73370e+58
          1149.50870	         2.95025e+58
          1150.31500	         1.25688e+58
          1151.12130	         2.45097e+57
          1151.92760	        -3.54656e+57
          1152.73390	         6.71080e+56
          1153.54020	         5.60354e+57
          1154.34650	         2.07907e+58
          1155.15280	         1.95127e+58
          1155.95910	        -2.93319e+57
          1156.76540	        -9.68195e+57
          1157.57170	         5.56253e+56
          1158.37800	         6.47270e+57
          1159.18430	         1.29814e+57
          1159.99060	         1.66344e+58
          1160.79690	         1.34409e+58
          1161.60320	         1.00023e+58
          1162.40950	         1.18057e+58
          1163.21580	         1.30562e+58
          1164.02210	         7.91675e+57
          1164.82840	         1.05775e+58
          1165.63470	         2.48119e+58
          1166.44100	         2.98599e+58
          1167.24730	         1.29693e+58
          1168.05360	         1.08479e+58
          1168.85990	         7.93906e+57
          1169.66620	         1.27574e+58
          1170.47250	         1.26586e+58
          1171.27880	         1.27435e+58
          1172.08510	         1.83571e+58
          1172.89140	         1.56035e+58
          1173.69770	         5.56323e+57
          1174.50400	         7.31426e+57
          1175.31030	         1.31880e+58
          1176.11660	         1.48612e+58
          1176.92290	         1.63127e+58
          1177.72920	         1.12067e+58
          1178.53550	         3.35786e+57
          1179.34180	        -4.53904e+57
          1180.14810	         3.28264e+57
          1180.95440	         9.45845e+57
          1181.76070	         8.40799e+57
          1182.56700	         7.82989e+57
          1183.37330	         6.29383e+57
          1184.17960	         1.26326e+58
          1184.98590	         8.18600e+57
          1185.79220	         2.01344e+57
          1186.59850	         1.06429e+58
          1187.40480	         1.03562e+58
          1188.21110	         1.50437e+58
          1189.01740	         8.33029e+57
          1189.82370	         1.07687e+58
          1190.63000	         7.38561e+57
          1191.43630	         9.12758e+57
          1192.24260	         1.04511e+58
          1193.04890	         9.70514e+57
          1193.85520	         1.21359e+58
          1194.66150	         5.46392e+57
          1195.46780	         1.12563e+58
          1196.27410	         1.39917e+58
          1197.08040	         7.59472e+57
          1197.88670	         1.35147e+58
          1198.69300	         1.71421e+58
          1199.49930	         1.58345e+58
          1200.30560	         1.02975e+58
          1201.11190	         1.04037e+58
          1201.91820	         1.28069e+58
          1202.72450	         8.50829e+57
          1203.53080	         1.34712e+58
          1204.33710	         9.76091e+57
          1205.14340	         1.29732e+58
          1205.94970	         8.10844e+57
          1206.75600	         4.46435e+57
          1207.56230	         3.86619e+57
          1208.36860	         8.24590e+57
          1209.17490	         2.21354e+57
          1209.98120	         3.78449e+57
          1210.78750	         6.17822e+57
          1211.59380	         9.69401e+57
          1212.40010	         1.99592e+58
          1213.20640	         2.27638e+58
          1214.01270	         2.17814e+58
          1214.81900	         2.93425e+58
          1215.62530	         4.69671e+58
          1216.43160	         8.75628e+58
          1217.23790	         1.50523e+59
          1218.04420	         1.16288e+59
          1218.85050	         8.87328e+58
          1219.65680	         5.62159e+58
          1220.46310	         3.15386e+58
          1221.26940	         2.21455e+58
          1222.07570	         1.31453e+58
          1222.88200	         1.39477e+58
          1223.68830	         1.24866e+58
          1224.49460	         7.60288e+57
          1225.30090	         4.30404e+57
          1226.10720	         4.67894e+57
          1226.91350	         6.40362e+57
          1227.71980	         8.40499e+57
          1228.52610	         1.29762e+58
          1229.33240	         8.99579e+57
          1230.13870	         7.31952e+57
          1230.94500	         7.69955e+57
          1231.75130	         7.09680e+57
          1232.55760	         8.22732e+57
          1233.36390	         7.46690e+57
          1234.17020	         7.44217e+57
          1234.97650	         8.77291e+57
          1235.78280	         9.67695e+57
          1236.58910	         7.20654e+57
          1237.39540	         8.65909e+57
          1238.20170	         1.19424e+58
          1239.00800	         1.48018e+58
          1239.81430	         1.48607e+58
          1240.62060	         9.31495e+57
          1241.42690	         8.60201e+57
          1242.23320	         1.02498e+58
          1243.03950	         7.91385e+57
          1243.84580	         9.22805e+57
          1244.65210	         1.08127e+58
          1245.45840	         1.02134e+58
          1246.26470	         1.06027e+58
          1247.07100	         6.65967e+57
          1247.87730	         5.38297e+57
          1248.68360	         4.05024e+57
          1249.48990	         5.73431e+57
          1250.29620	         4.10022e+57
          1251.10250	         3.96029e+57
          1251.90880	         7.21203e+57
          1252.71510	         8.80392e+57
          1253.52140	         8.95550e+57
          1254.32770	         1.00929e+58
          1255.13400	         1.29153e+58
          1255.94030	         1.26890e+58
          1256.74660	         9.83213e+57
          1257.55290	         9.01382e+57
          1258.35920	         9.25890e+57
          1259.16550	         6.52691e+57
          1259.97180	         6.25707e+57
          1260.77810	         9.22272e+57
          1261.58440	         1.01010e+58
          1262.39070	         7.47975e+57
          1263.19700	         5.86595e+57
          1264.00330	         6.73517e+57
          1264.80960	         1.10777e+58
          1265.61590	         1.32109e+58
          1266.42220	         1.20077e+58
          1267.22850	         1.06138e+58
          1268.03480	         1.37163e+58
          1268.84110	         1.41425e+58
          1269.64740	         1.25287e+58
          1270.45370	         1.18555e+58
          1271.26000	         1.05858e+58
          1272.06630	         1.13056e+58
          1272.87260	         1.14715e+58
          1273.67890	         1.17839e+58
          1274.48520	         1.25095e+58
          1275.29150	         1.06072e+58
          1276.09780	         9.99803e+57
          1276.90410	         1.38084e+58
          1277.71040	         1.10386e+58
          1278.51670	         9.05429e+57
          1279.32300	         1.23444e+58
          1280.12930	         1.17065e+58
          1280.93560	         9.72261e+57
          1281.74190	         1.20211e+58
          1282.54820	         1.33080e+58
          1283.35450	         9.73570e+57
          1284.16080	         9.92593e+57
          1284.96710	         1.23076e+58
          1285.77340	         1.10426e+58
          1286.57970	         1.20752e+58
          1287.38600	         1.43413e+58
          1288.19230	         1.53319e+58
          1288.99860	         1.37089e+58
          1289.80490	         1.01205e+58
          1290.61120	         1.35791e+58
          1291.41750	         1.59604e+58
          1292.22380	         1.25112e+58
          1293.03010	         1.22121e+58
          1293.83640	         1.17381e+58
          1294.64270	         8.38981e+57
          1295.44900	         6.02835e+57
          1296.25530	         5.97207e+57
          1297.06160	         8.26414e+57
          1297.86790	         1.17497e+58
          1298.67420	         1.22860e+58
          1299.48050	         1.10561e+58
          1300.28680	         1.06602e+58
          1301.09310	         8.49832e+57
          1301.89940	         5.33845e+57
          1302.70570	         5.55684e+57
          1303.51200	         6.36319e+57
          1304.31830	         9.57128e+57
          1305.12460	         1.14940e+58
          1305.93090	         1.18176e+58
          1306.73720	         1.34097e+58
          1307.54350	         1.47915e+58
          1308.34980	         1.54061e+58
          1309.15610	         1.62020e+58
          1309.96240	         1.72948e+58
          1310.76870	         1.40396e+58
          1311.57500	         1.17448e+58
          1312.38130	         1.05976e+58
          1313.18760	         1.22541e+58
          1313.99390	         1.48962e+58
          1314.80020	         1.63490e+58
          1315.60650	         1.45459e+58
          1316.41280	         1.19545e+58
          1317.21910	         1.09944e+58
          1318.02540	         1.22578e+58
          1318.83170	         1.27245e+58
          1319.63800	         1.11053e+58
          1320.44430	         1.20407e+58
          1321.25060	         1.23087e+58
          1322.05690	         1.17222e+58
          1322.86320	         1.20510e+58
          1323.66950	         1.13504e+58
          1324.47580	         9.51730e+57
          1325.28210	         1.04468e+58
          1326.08840	         1.19736e+58
          1326.89470	         1.16937e+58
          1327.70100	         1.09954e+58
          1328.50730	         8.06656e+57
          1329.31360	         7.66079e+57
          1330.11990	         8.30832e+57
          1330.92620	         8.77786e+57
          1331.73250	         1.05863e+58
          1332.53880	         9.75436e+57
          1333.34510	         8.31762e+57
          1334.15140	         8.59578e+57
          1334.95770	         8.04052e+57
          1335.76400	         9.12359e+57
          1336.57030	         9.95361e+57
          1337.37660	         1.04501e+58
          1338.18290	         1.05127e+58
          1338.98920	         1.14519e+58
          1339.79550	         1.06004e+58
          1340.60180	         1.24488e+58
          1341.40810	         1.32827e+58
          1342.21440	         1.14138e+58
          1343.02070	         1.26706e+58
          1343.82700	         1.34307e+58
          1344.63330	         1.25765e+58
          1345.43960	         1.27054e+58
          1346.24590	         1.08773e+58
          1347.05220	         1.09509e+58
          1347.85850	         9.12828e+57
          1348.66480	         1.10616e+58
          1349.47110	         1.16483e+58
          1350.27740	         1.09021e+58
          1351.08370	         1.05973e+58
          1351.89000	         1.11976e+58
          1352.69630	         1.19436e+58
          1353.50260	         1.28746e+58
          1354.30890	         1.28566e+58
          1355.11520	         1.18160e+58
          1355.92150	         1.00469e+58
          1356.72780	         9.71504e+57
          1357.53410	         9.60688e+57
          1358.34040	         1.03765e+58
          1359.14670	         1.04079e+58
          1359.95300	         9.82333e+57
          1360.75930	         1.07129e+58
          1361.56560	         1.03960e+58
          1362.37190	         1.08144e+58
          1363.17820	         1.12816e+58
          1363.98450	         1.19998e+58
          1364.79080	         1.23369e+58
          1365.59710	         1.18155e+58
          1366.40340	         1.11331e+58
          1367.20970	         1.02796e+58
          1368.01600	         9.31406e+57
          1368.82230	         8.59959e+57
          1369.62860	         1.11316e+58
          1370.43490	         9.78877e+57
          1371.24120	         8.97928e+57
          1372.04750	         9.32478e+57
          1372.85380	         1.01306e+58
          1373.66010	         1.10518e+58
          1374.46640	         9.92888e+57
          1375.27270	         1.07921e+58
          1376.07900	         1.00691e+58
          1376.88530	         8.23136e+57
          1377.69160	         8.20097e+57
          1378.49790	         7.26875e+57
          1379.30420	         7.09956e+57
          1380.11050	         8.96173e+57
          1380.91680	         9.22369e+57
          1381.72310	         7.01864e+57
          1382.52940	         7.90223e+57
          1383.33570	         9.24638e+57
          1384.14200	         1.03360e+58
          1384.94830	         1.15989e+58
          1385.75460	         9.85662e+57
          1386.56090	         1.05049e+58
          1387.36720	         1.05260e+58
          1388.17350	         1.08457e+58
          1388.97980	         1.00967e+58
          1389.78610	         8.17579e+57
          1390.59240	         7.38340e+57
          1391.39870	         7.67931e+57
          1392.20500	         9.61356e+57
          1393.01130	         9.20169e+57
          1393.81760	         7.70642e+57
          1394.62390	         6.96923e+57
          1395.43020	         5.57211e+57
          1396.23650	         6.27340e+57
          1397.04280	         6.77359e+57
          1397.84910	         7.49740e+57
          1398.65540	         8.72246e+57
          1399.46170	         1.03622e+58
          1400.26800	         8.00698e+57
          1401.07430	         6.48754e+57
          1401.88060	         8.02469e+57
          1402.68690	         9.26444e+57
          1403.49320	         8.65783e+57
          1404.29950	         8.46443e+57
          1405.10580	         1.02052e+58
          1405.91210	         1.05651e+58
          1406.71840	         9.54463e+57
          1407.52470	         9.15878e+57
          1408.33100	         9.31730e+57
          1409.13730	         1.17905e+58
          1409.94360	         1.26827e+58
          1410.74990	         1.23415e+58
          1411.55620	         9.82665e+57
          1412.36250	         8.95349e+57
          1413.16880	         7.63498e+57
          1413.97510	         7.44460e+57
          1414.78140	         8.56434e+57
          1415.58770	         9.93175e+57
          1416.39400	         1.10202e+58
          1417.20030	         1.02538e+58
          1418.00660	         9.33561e+57
          1418.81290	         8.99137e+57
          1419.61920	         8.53658e+57
          1420.42550	         1.26853e+58
          1421.23180	         1.41320e+58
          1422.03810	         1.24266e+58
          1422.84440	         1.06693e+58
          1423.65070	         1.21129e+58
          1424.45700	         1.20142e+58
          1425.26330	         9.26362e+57
          1426.06960	         9.32120e+57
          1426.87590	         1.04845e+58
          1427.68220	         9.78339e+57
          1428.48850	         9.89707e+57
          1429.29480	         1.05255e+58
          1430.10110	         9.97927e+57
          1430.90740	         8.55169e+57
          1431.71370	         8.20276e+57
          1432.52000	         8.20752e+57
          1433.32630	         7.44173e+57
          1434.13260	         7.38143e+57
          1434.93890	         8.66456e+57
          1435.74520	         8.51820e+57
          1436.55150	         9.37301e+57
          1437.35780	         8.64026e+57
          1438.16410	         8.72049e+57
          1438.97040	         8.94686e+57
          1439.77670	         8.39500e+57
          1440.58300	         8.49710e+57
          1441.38930	         9.60986e+57
          1442.19560	         1.03922e+58
          1443.00190	         1.03081e+58
          1443.80820	         1.04527e+58
          1444.61450	         9.19213e+57
          1445.42080	         8.29794e+57
          1446.22710	         9.59843e+57
          1447.03340	         9.19983e+57
          1447.83970	         1.04680e+58
          1448.64600	         1.03392e+58
          1449.45230	         1.04990e+58
          1450.25860	         1.00775e+58
          1451.06490	         8.75369e+57
          1451.87120	         7.99070e+57
          1452.67750	         6.77988e+57
          1453.48380	         7.52220e+57
          1454.29010	         8.08201e+57
          1455.09640	         6.88127e+57
          1455.90270	         7.83897e+57
          1456.70900	         8.90176e+57
          1457.51530	         1.03053e+58
          1458.32160	         1.26319e+58
          1459.12790	         1.28665e+58
          1459.93420	         1.09653e+58
          1460.74050	         8.64990e+57
          1461.54680	         8.34661e+57
          1462.35310	         7.12794e+57
          1463.15940	         8.61375e+57
          1463.96570	         1.13539e+58
          1464.77200	         1.23016e+58
          1465.57830	         1.15711e+58
          1466.38460	         9.13943e+57
          1467.19090	         8.29552e+57
          1467.99720	         8.53475e+57
          1468.80350	         9.44020e+57
          1469.60980	         9.61189e+57
          1470.41610	         9.86637e+57
          1471.22240	         8.57609e+57
          1472.02870	         9.41002e+57
          1472.83500	         1.01568e+58
          1473.64130	         1.01071e+58
          1474.44760	         1.03172e+58
          1475.25390	         9.40353e+57
          1476.06020	         8.67775e+57
          1476.86650	         8.48425e+57
          1477.67280	         8.34150e+57
          1478.47910	         7.27729e+57
          1479.28540	         6.91682e+57
          1480.09170	         9.43809e+57
          1480.89800	         9.42504e+57
          1481.70430	         8.78932e+57
          1482.51060	         8.96061e+57
          1483.31690	         8.12364e+57
          1484.12320	         6.87225e+57
          1484.92950	         7.56713e+57
          1485.73580	         8.12723e+57
          1486.54210	         8.29863e+57
          1487.34840	         7.66831e+57
          1488.15470	         8.68475e+57
          1488.96100	         9.63376e+57
          1489.76730	         9.74119e+57
