#sample_473_stacked_spectrum_rest_UV-bands_median_H-alpha_noDC.txt
#median Lum: 1.71646e+42
#Rest-frame wavelength (A) | Luminosity (erg/s/A)
#
          1110.00000	         0.00000e+00
          1110.80630	         1.23187e+59
          1111.61260	         9.92325e+58
          1112.41890	         1.46314e+59
          1113.22520	        -2.85918e+58
          1114.03150	        -1.86973e+59
          1114.83780	        -7.12062e+58
          1115.64410	        -4.90857e+58
          1116.45040	         1.12356e+59
          1117.25670	         9.31910e+58
          1118.06300	         1.91670e+59
          1118.86930	         1.00830e+58
          1119.67560	         9.01770e+58
          1120.48190	         4.40820e+58
          1121.28820	        -1.13806e+59
          1122.09450	        -5.98806e+58
          1122.90080	        -4.08833e+58
          1123.70710	         6.75506e+58
          1124.51340	         5.44569e+58
          1125.31970	        -1.02062e+58
          1126.12600	        -4.79268e+58
          1126.93230	        -4.39000e+58
          1127.73860	        -2.48553e+58
          1128.54490	         4.33616e+58
          1129.35120	         4.21096e+58
          1130.15750	        -1.43063e+57
          1130.96380	        -4.12612e+58
          1131.77010	         7.87576e+58
          1132.57640	         6.82610e+58
          1133.38270	         7.38531e+57
          1134.18900	         3.54799e+58
          1134.99530	         1.22273e+58
          1135.80160	         2.49402e+58
          1136.60790	         2.91297e+57
          1137.41420	         1.01802e+58
          1138.22050	         4.79455e+58
          1139.02680	         2.57756e+58
          1139.83310	         2.97810e+58
          1140.63940	         2.63626e+58
          1141.44570	         8.42123e+57
          1142.25200	        -8.55561e+57
          1143.05830	         1.35340e+58
          1143.86460	         1.98846e+58
          1144.67090	         1.74402e+58
          1145.47720	         8.60652e+57
          1146.28350	         1.95634e+58
          1147.08980	         2.14654e+58
          1147.89610	         1.09750e+58
          1148.70240	         2.12032e+58
          1149.50870	         2.96131e+58
          1150.31500	         1.56486e+58
          1151.12130	         1.23727e+58
          1151.92760	         1.56174e+57
          1152.73390	         1.14010e+58
          1153.54020	         1.79437e+58
          1154.34650	         2.19054e+58
          1155.15280	         1.74355e+58
          1155.95910	         1.69079e+58
          1156.76540	        -3.38890e+57
          1157.57170	        -1.20066e+58
          1158.37800	        -2.63669e+57
          1159.18430	        -2.48539e+57
          1159.99060	         8.97328e+57
          1160.79690	         9.31090e+57
          1161.60320	         1.16383e+58
          1162.40950	         1.09587e+58
          1163.21580	         1.73710e+58
          1164.02210	         1.66691e+58
          1164.82840	         8.67204e+57
          1165.63470	         2.33350e+58
          1166.44100	         3.36687e+58
          1167.24730	         2.07240e+58
          1168.05360	         3.10436e+57
          1168.85990	         3.56522e+57
          1169.66620	         1.32990e+57
          1170.47250	         8.84179e+57
          1171.27880	         1.88537e+58
          1172.08510	         1.69272e+58
          1172.89140	         7.02136e+57
          1173.69770	         1.39204e+58
          1174.50400	         1.39641e+58
          1175.31030	         1.69289e+58
          1176.11660	         1.77711e+58
          1176.92290	         1.68213e+58
          1177.72920	         1.35422e+58
          1178.53550	         1.00409e+58
          1179.34180	         9.96509e+57
          1180.14810	         8.89326e+57
          1180.95440	         8.27757e+57
          1181.76070	         4.20188e+57
          1182.56700	         1.16830e+58
          1183.37330	         9.28781e+57
          1184.17960	         1.15490e+58
          1184.98590	         9.59255e+57
          1185.79220	         5.21085e+57
          1186.59850	         1.18082e+58
          1187.40480	         1.21759e+58
          1188.21110	         1.11992e+58
          1189.01740	         1.08144e+58
          1189.82370	         1.20190e+58
          1190.63000	         1.32579e+58
          1191.43630	         1.74550e+58
          1192.24260	         1.03075e+58
          1193.04890	         1.33399e+58
          1193.85520	         1.22851e+58
          1194.66150	         9.31662e+57
          1195.46780	         1.41591e+58
          1196.27410	         1.62501e+58
          1197.08040	         1.12093e+58
          1197.88670	         1.42017e+58
          1198.69300	         1.57503e+58
          1199.49930	         1.90282e+58
          1200.30560	         1.41050e+58
          1201.11190	         1.23090e+58
          1201.91820	         1.08850e+58
          1202.72450	         6.84173e+57
          1203.53080	         1.25390e+58
          1204.33710	         7.49405e+57
          1205.14340	         5.00898e+57
          1205.94970	         4.88473e+57
          1206.75600	         5.83689e+57
          1207.56230	         4.73182e+57
          1208.36860	         6.71698e+57
          1209.17490	         2.87124e+57
          1209.98120	         4.76387e+57
          1210.78750	         6.21586e+57
          1211.59380	         9.88857e+57
          1212.40010	         1.82470e+58
          1213.20640	         1.93814e+58
          1214.01270	         2.25241e+58
          1214.81900	         2.60502e+58
          1215.62530	         4.20948e+58
          1216.43160	         8.65832e+58
          1217.23790	         1.48174e+59
          1218.04420	         1.20690e+59
          1218.85050	         9.59753e+58
          1219.65680	         6.42464e+58
          1220.46310	         3.67074e+58
          1221.26940	         2.24473e+58
          1222.07570	         1.10078e+58
          1222.88200	         1.13940e+58
          1223.68830	         1.05425e+58
          1224.49460	         7.84102e+57
          1225.30090	         8.68319e+57
          1226.10720	         7.15155e+57
          1226.91350	         6.92213e+57
          1227.71980	         8.94030e+57
          1228.52610	         1.10319e+58
          1229.33240	         8.48006e+57
          1230.13870	         1.22445e+58
          1230.94500	         1.10146e+58
          1231.75130	         5.29453e+57
          1232.55760	         8.33834e+57
          1233.36390	         7.43704e+57
          1234.17020	         8.11805e+57
          1234.97650	         1.00496e+58
          1235.78280	         1.06666e+58
          1236.58910	         1.05606e+58
          1237.39540	         1.12590e+58
          1238.20170	         9.66550e+57
          1239.00800	         1.03809e+58
          1239.81430	         1.48283e+58
          1240.62060	         9.99640e+57
          1241.42690	         7.59979e+57
          1242.23320	         1.01101e+58
          1243.03950	         9.84571e+57
          1243.84580	         1.14286e+58
          1244.65210	         1.35867e+58
          1245.45840	         1.07690e+58
          1246.26470	         8.63840e+57
          1247.07100	         1.02915e+58
          1247.87730	         6.35700e+57
          1248.68360	         5.13736e+57
          1249.48990	         1.09446e+58
          1250.29620	         9.90460e+57
          1251.10250	         7.69413e+57
          1251.90880	         7.91996e+57
          1252.71510	         5.73692e+57
          1253.52140	         6.62343e+57
          1254.32770	         9.87836e+57
          1255.13400	         1.29393e+58
          1255.94030	         1.09192e+58
          1256.74660	         1.08881e+58
          1257.55290	         1.28477e+58
          1258.35920	         9.59169e+57
          1259.16550	         4.53479e+57
          1259.97180	         5.70459e+57
          1260.77810	         8.55080e+57
          1261.58440	         8.21031e+57
          1262.39070	         6.03043e+57
          1263.19700	         6.04163e+57
          1264.00330	         8.59427e+57
          1264.80960	         1.02019e+58
          1265.61590	         1.23432e+58
          1266.42220	         1.23879e+58
          1267.22850	         1.12360e+58
          1268.03480	         1.33823e+58
          1268.84110	         1.41716e+58
          1269.64740	         1.24688e+58
          1270.45370	         1.19024e+58
          1271.26000	         1.27296e+58
          1272.06630	         1.05394e+58
          1272.87260	         1.27071e+58
          1273.67890	         1.28690e+58
          1274.48520	         1.31005e+58
          1275.29150	         1.47534e+58
          1276.09780	         1.38334e+58
          1276.90410	         1.45246e+58
          1277.71040	         1.25928e+58
          1278.51670	         1.15610e+58
          1279.32300	         1.26438e+58
          1280.12930	         1.08592e+58
          1280.93560	         9.90730e+57
          1281.74190	         1.11306e+58
          1282.54820	         1.19625e+58
          1283.35450	         1.06233e+58
          1284.16080	         1.24750e+58
          1284.96710	         1.32408e+58
          1285.77340	         9.02134e+57
          1286.57970	         8.60049e+57
          1287.38600	         1.32539e+58
          1288.19230	         1.76960e+58
          1288.99860	         1.47566e+58
          1289.80490	         1.07145e+58
          1290.61120	         1.36136e+58
          1291.41750	         1.32552e+58
          1292.22380	         1.01540e+58
          1293.03010	         1.09896e+58
          1293.83640	         1.26741e+58
          1294.64270	         1.18631e+58
          1295.44900	         7.35050e+57
          1296.25530	         6.36455e+57
          1297.06160	         9.21538e+57
          1297.86790	         9.80672e+57
          1298.67420	         8.91384e+57
          1299.48050	         1.03807e+58
          1300.28680	         9.53830e+57
          1301.09310	         6.59512e+57
          1301.89940	         4.89180e+57
          1302.70570	         7.04520e+57
          1303.51200	         9.41198e+57
          1304.31830	         1.02430e+58
          1305.12460	         1.10690e+58
          1305.93090	         1.15243e+58
          1306.73720	         1.34216e+58
          1307.54350	         1.50797e+58
          1308.34980	         1.41979e+58
          1309.15610	         1.33222e+58
          1309.96240	         1.31846e+58
          1310.76870	         1.24567e+58
          1311.57500	         9.66510e+57
          1312.38130	         9.89721e+57
          1313.18760	         1.34350e+58
          1313.99390	         1.23990e+58
          1314.80020	         1.59478e+58
          1315.60650	         1.57426e+58
          1316.41280	         1.16890e+58
          1317.21910	         1.05500e+58
          1318.02540	         1.20852e+58
          1318.83170	         1.27280e+58
          1319.63800	         1.18306e+58
          1320.44430	         1.11833e+58
          1321.25060	         1.21795e+58
          1322.05690	         1.27733e+58
          1322.86320	         1.25212e+58
          1323.66950	         1.04582e+58
          1324.47580	         9.85119e+57
          1325.28210	         1.06181e+58
          1326.08840	         1.18916e+58
          1326.89470	         1.29615e+58
          1327.70100	         9.72103e+57
          1328.50730	         8.27344e+57
          1329.31360	         9.51839e+57
          1330.11990	         9.96464e+57
          1330.92620	         9.91744e+57
          1331.73250	         1.13297e+58
          1332.53880	         1.11843e+58
          1333.34510	         9.14266e+57
          1334.15140	         8.50896e+57
          1334.95770	         8.08582e+57
          1335.76400	         1.00488e+58
          1336.57030	         1.09073e+58
          1337.37660	         9.20416e+57
          1338.18290	         9.00156e+57
          1338.98920	         1.11351e+58
          1339.79550	         1.16578e+58
          1340.60180	         1.16232e+58
          1341.40810	         1.27652e+58
          1342.21440	         1.07068e+58
          1343.02070	         1.19129e+58
          1343.82700	         1.32122e+58
          1344.63330	         1.26582e+58
          1345.43960	         1.38041e+58
          1346.24590	         1.21539e+58
          1347.05220	         1.18913e+58
          1347.85850	         1.07172e+58
          1348.66480	         1.17606e+58
          1349.47110	         1.24654e+58
          1350.27740	         1.14947e+58
          1351.08370	         1.24102e+58
          1351.89000	         1.17289e+58
          1352.69630	         1.08289e+58
          1353.50260	         1.10843e+58
          1354.30890	         1.15561e+58
          1355.11520	         1.22557e+58
          1355.92150	         1.20246e+58
          1356.72780	         1.15108e+58
          1357.53410	         1.08978e+58
          1358.34040	         1.09582e+58
          1359.14670	         1.07263e+58
          1359.95300	         1.16604e+58
          1360.75930	         1.13323e+58
          1361.56560	         1.03484e+58
          1362.37190	         1.11765e+58
          1363.17820	         1.03273e+58
          1363.98450	         1.25663e+58
          1364.79080	         1.39292e+58
          1365.59710	         1.28019e+58
          1366.40340	         1.13436e+58
          1367.20970	         1.09300e+58
          1368.01600	         9.91148e+57
          1368.82230	         9.99795e+57
          1369.62860	         1.09375e+58
          1370.43490	         8.60349e+57
          1371.24120	         9.35581e+57
          1372.04750	         8.86755e+57
          1372.85380	         1.19456e+58
          1373.66010	         1.19265e+58
          1374.46640	         1.03180e+58
          1375.27270	         9.88893e+57
          1376.07900	         8.86034e+57
          1376.88530	         8.83251e+57
          1377.69160	         9.09900e+57
          1378.49790	         7.19863e+57
          1379.30420	         7.15710e+57
          1380.11050	         9.52230e+57
          1380.91680	         8.90785e+57
          1381.72310	         7.50482e+57
          1382.52940	         6.59025e+57
          1383.33570	         8.07207e+57
          1384.14200	         1.09690e+58
          1384.94830	         1.11411e+58
          1385.75460	         9.68471e+57
          1386.56090	         1.07290e+58
          1387.36720	         1.03172e+58
          1388.17350	         1.23323e+58
          1388.97980	         1.18657e+58
          1389.78610	         9.48102e+57
          1390.59240	         8.07557e+57
          1391.39870	         7.12170e+57
          1392.20500	         8.41969e+57
          1393.01130	         8.05564e+57
          1393.81760	         8.63986e+57
          1394.62390	         9.40914e+57
          1395.43020	         7.84790e+57
          1396.23650	         6.68448e+57
          1397.04280	         7.81583e+57
          1397.84910	         9.14657e+57
          1398.65540	         9.41769e+57
          1399.46170	         9.81415e+57
          1400.26800	         9.32646e+57
          1401.07430	         7.08187e+57
          1401.88060	         8.69181e+57
          1402.68690	         1.03616e+58
          1403.49320	         1.01631e+58
          1404.29950	         9.85576e+57
          1405.10580	         1.07375e+58
          1405.91210	         1.13883e+58
          1406.71840	         1.05657e+58
          1407.52470	         9.78709e+57
          1408.33100	         9.40665e+57
          1409.13730	         1.11531e+58
          1409.94360	         1.13076e+58
          1410.74990	         1.11076e+58
          1411.55620	         1.08594e+58
          1412.36250	         9.72751e+57
          1413.16880	         8.85364e+57
          1413.97510	         7.63491e+57
          1414.78140	         8.74714e+57
          1415.58770	         1.04918e+58
          1416.39400	         1.00696e+58
          1417.20030	         1.07573e+58
          1418.00660	         1.08292e+58
          1418.81290	         9.85751e+57
          1419.61920	         9.71338e+57
          1420.42550	         1.15357e+58
          1421.23180	         1.41818e+58
          1422.03810	         1.22162e+58
          1422.84440	         9.50416e+57
          1423.65070	         1.21355e+58
          1424.45700	         1.16199e+58
          1425.26330	         8.67898e+57
          1426.06960	         8.03044e+57
          1426.87590	         1.02238e+58
          1427.68220	         1.09284e+58
          1428.48850	         1.13719e+58
          1429.29480	         1.06875e+58
          1430.10110	         1.06821e+58
          1430.90740	         8.70972e+57
          1431.71370	         8.53612e+57
          1432.52000	         9.17963e+57
          1433.32630	         7.40964e+57
          1434.13260	         7.97310e+57
          1434.93890	         9.69070e+57
          1435.74520	         9.85142e+57
          1436.55150	         9.17827e+57
          1437.35780	         9.38135e+57
          1438.16410	         9.66921e+57
          1438.97040	         9.31708e+57
          1439.77670	         8.86778e+57
          1440.58300	         9.44747e+57
          1441.38930	         9.89546e+57
          1442.19560	         1.03765e+58
          1443.00190	         9.63112e+57
          1443.80820	         9.57886e+57
          1444.61450	         9.75464e+57
          1445.42080	         8.39964e+57
          1446.22710	         9.51422e+57
          1447.03340	         1.00114e+58
          1447.83970	         1.13870e+58
          1448.64600	         1.24058e+58
          1449.45230	         1.08039e+58
          1450.25860	         1.06025e+58
          1451.06490	         9.75695e+57
          1451.87120	         8.06233e+57
          1452.67750	         7.94507e+57
          1453.48380	         8.97117e+57
          1454.29010	         8.01716e+57
          1455.09640	         8.29492e+57
          1455.90270	         1.02237e+58
          1456.70900	         9.72450e+57
          1457.51530	         9.23691e+57
          1458.32160	         1.16506e+58
          1459.12790	         1.14635e+58
          1459.93420	         1.05258e+58
          1460.74050	         7.79925e+57
          1461.54680	         7.87392e+57
          1462.35310	         8.56744e+57
          1463.15940	         9.03835e+57
          1463.96570	         1.10521e+58
          1464.77200	         1.14984e+58
          1465.57830	         1.09296e+58
          1466.38460	         1.00293e+58
          1467.19090	         9.28303e+57
          1467.99720	         9.35783e+57
          1468.80350	         9.12047e+57
          1469.60980	         1.11072e+58
          1470.41610	         1.11995e+58
          1471.22240	         9.20311e+57
          1472.02870	         9.80551e+57
          1472.83500	         1.07047e+58
          1473.64130	         1.03771e+58
          1474.44760	         9.95809e+57
          1475.25390	         9.09495e+57
          1476.06020	         9.21142e+57
          1476.86650	         8.42305e+57
          1477.67280	         8.22577e+57
          1478.47910	         8.73205e+57
          1479.28540	         7.68917e+57
          1480.09170	         7.68407e+57
          1480.89800	         8.57140e+57
          1481.70430	         8.28254e+57
          1482.51060	         7.25392e+57
          1483.31690	         6.88335e+57
          1484.12320	         7.37135e+57
          1484.92950	         6.88162e+57
          1485.73580	         8.74592e+57
          1486.54210	         9.56211e+57
          1487.34840	         9.15033e+57
          1488.15470	         8.08252e+57
          1488.96100	         8.80574e+57
          1489.76730	         9.00986e+57
