#sample_441_stacked_spectrum_rest_UV-bands_median_H-alpha_noDC.txt
#median Lum: 1.69489e+42
#Rest-frame wavelength (A) | Luminosity (erg/s/A)
#
          1110.00000	         0.00000e+00
          1110.80630	        -3.08387e+58
          1111.61260	         2.41669e+59
          1112.41890	         3.42314e+59
          1113.22520	         3.90547e+58
          1114.03150	        -7.78572e+58
          1114.83780	         8.45524e+58
          1115.64410	        -4.04759e+57
          1116.45040	        -3.43712e+58
          1117.25670	         1.23526e+59
          1118.06300	         1.86262e+59
          1118.86930	         1.66350e+58
          1119.67560	        -2.94159e+58
          1120.48190	        -1.55729e+58
          1121.28820	        -8.76824e+58
          1122.09450	        -3.07939e+58
          1122.90080	        -7.34703e+56
          1123.70710	        -2.11136e+57
          1124.51340	         5.98848e+58
          1125.31970	        -3.91777e+55
          1126.12600	        -1.50778e+58
          1126.93230	        -6.30652e+58
          1127.73860	        -6.18789e+58
          1128.54490	         2.52130e+58
          1129.35120	         1.91971e+58
          1130.15750	        -4.49067e+58
          1130.96380	        -4.30691e+58
          1131.77010	         4.71851e+58
          1132.57640	         5.21216e+58
          1133.38270	         4.45048e+58
          1134.18900	         2.96147e+58
          1134.99530	         2.84106e+58
          1135.80160	         1.04083e+58
          1136.60790	         7.12745e+57
          1137.41420	        -2.71710e+58
          1138.22050	         3.17368e+58
          1139.02680	         2.61141e+58
          1139.83310	         2.87502e+58
          1140.63940	         2.09097e+58
          1141.44570	         1.15279e+58
          1142.25200	         1.81303e+58
          1143.05830	         2.04821e+58
          1143.86460	         1.96384e+58
          1144.67090	         2.62825e+58
          1145.47720	        -3.89558e+57
          1146.28350	         5.22582e+57
          1147.08980	         1.34826e+58
          1147.89610	         1.58707e+58
          1148.70240	         3.57950e+58
          1149.50870	         3.74113e+58
          1150.31500	         1.57171e+58
          1151.12130	         4.94750e+57
          1151.92760	         1.86389e+57
          1152.73390	         1.02352e+58
          1153.54020	         1.14865e+58
          1154.34650	         1.91018e+58
          1155.15280	         2.09549e+58
          1155.95910	         1.16220e+58
          1156.76540	         1.87527e+58
          1157.57170	         1.15669e+58
          1158.37800	         7.68251e+55
          1159.18430	         3.03434e+56
          1159.99060	         5.79560e+57
          1160.79690	        -1.89805e+57
          1161.60320	         1.55054e+58
          1162.40950	         1.82085e+58
          1163.21580	         2.01550e+58
          1164.02210	         1.77785e+58
          1164.82840	         1.43965e+58
          1165.63470	         2.24047e+58
          1166.44100	         2.37527e+58
          1167.24730	         1.30390e+58
          1168.05360	         1.62892e+58
          1168.85990	         3.83539e+57
          1169.66620	         5.92607e+57
          1170.47250	         1.24183e+58
          1171.27880	         1.29751e+58
          1172.08510	         2.32755e+58
          1172.89140	         2.19596e+58
          1173.69770	         9.80740e+57
          1174.50400	         1.04294e+58
          1175.31030	         1.16625e+58
          1176.11660	         1.89648e+58
          1176.92290	         1.74642e+58
          1177.72920	         1.59589e+58
          1178.53550	         7.17485e+57
          1179.34180	        -2.20665e+57
          1180.14810	         4.74198e+57
          1180.95440	         1.15690e+58
          1181.76070	         6.34336e+57
          1182.56700	         3.02603e+57
          1183.37330	         5.12632e+57
          1184.17960	         8.14719e+57
          1184.98590	         1.07447e+58
          1185.79220	         4.66091e+57
          1186.59850	         1.02483e+58
          1187.40480	         1.05760e+58
          1188.21110	         1.45519e+58
          1189.01740	         1.47678e+58
          1189.82370	         1.11024e+58
          1190.63000	         1.22444e+58
          1191.43630	         1.03446e+58
          1192.24260	         7.50539e+57
          1193.04890	         1.18974e+58
          1193.85520	         1.07757e+58
          1194.66150	         1.08687e+57
          1195.46780	         5.33978e+57
          1196.27410	         8.46093e+57
          1197.08040	         1.50481e+58
          1197.88670	         2.00345e+58
          1198.69300	         1.70452e+58
          1199.49930	         1.42800e+58
          1200.30560	         1.07254e+58
          1201.11190	         1.01863e+58
          1201.91820	         8.28155e+57
          1202.72450	         7.31417e+57
          1203.53080	         1.57706e+58
          1204.33710	         7.37112e+57
          1205.14340	         6.05492e+57
          1205.94970	         4.96849e+57
          1206.75600	         5.59208e+57
          1207.56230	         5.71462e+57
          1208.36860	         8.21955e+57
          1209.17490	         2.86666e+57
          1209.98120	         5.58636e+57
          1210.78750	         8.27430e+57
          1211.59380	         1.04594e+58
          1212.40010	         1.80841e+58
          1213.20640	         1.93475e+58
          1214.01270	         2.16675e+58
          1214.81900	         2.33028e+58
          1215.62530	         4.32599e+58
          1216.43160	         9.28264e+58
          1217.23790	         1.52081e+59
          1218.04420	         1.11649e+59
          1218.85050	         8.72129e+58
          1219.65680	         5.76793e+58
          1220.46310	         3.37831e+58
          1221.26940	         2.12696e+58
          1222.07570	         1.44534e+58
          1222.88200	         1.36790e+58
          1223.68830	         1.03097e+58
          1224.49460	         9.42284e+57
          1225.30090	         6.57966e+57
          1226.10720	         6.83693e+57
          1226.91350	         8.16058e+57
          1227.71980	         8.58987e+57
          1228.52610	         1.26499e+58
          1229.33240	         1.38699e+58
          1230.13870	         1.04531e+58
          1230.94500	         7.86528e+57
          1231.75130	         7.92627e+57
          1232.55760	         9.24841e+57
          1233.36390	         7.43113e+57
          1234.17020	         6.68768e+57
          1234.97650	         7.57246e+57
          1235.78280	         8.01313e+57
          1236.58910	         9.34425e+57
          1237.39540	         1.16880e+58
          1238.20170	         1.33590e+58
          1239.00800	         1.23523e+58
          1239.81430	         1.27346e+58
          1240.62060	         1.25778e+58
          1241.42690	         1.04915e+58
          1242.23320	         1.10974e+58
          1243.03950	         1.06578e+58
          1243.84580	         8.84010e+57
          1244.65210	         1.06524e+58
          1245.45840	         1.18193e+58
          1246.26470	         9.61392e+57
          1247.07100	         6.83972e+57
          1247.87730	         6.00236e+57
          1248.68360	         9.13457e+57
          1249.48990	         1.34285e+58
          1250.29620	         1.20473e+58
          1251.10250	         6.70835e+57
          1251.90880	         4.07392e+57
          1252.71510	         5.78194e+57
          1253.52140	         6.05538e+57
          1254.32770	         9.46030e+57
          1255.13400	         1.17549e+58
          1255.94030	         1.00402e+58
          1256.74660	         1.04057e+58
          1257.55290	         9.19919e+57
          1258.35920	         7.47846e+57
          1259.16550	         5.57431e+57
          1259.97180	         4.69614e+57
          1260.77810	         9.95488e+57
          1261.58440	         1.34446e+58
          1262.39070	         8.04967e+57
          1263.19700	         6.64372e+57
          1264.00330	         9.28482e+57
          1264.80960	         9.42266e+57
          1265.61590	         1.10825e+58
          1266.42220	         1.21042e+58
          1267.22850	         1.01477e+58
          1268.03480	         1.32822e+58
          1268.84110	         1.58907e+58
          1269.64740	         1.30705e+58
          1270.45370	         1.21816e+58
          1271.26000	         1.37954e+58
          1272.06630	         1.31415e+58
          1272.87260	         1.15407e+58
          1273.67890	         1.33388e+58
          1274.48520	         1.33870e+58
          1275.29150	         1.28124e+58
          1276.09780	         1.11063e+58
          1276.90410	         1.49521e+58
          1277.71040	         1.41466e+58
          1278.51670	         1.33850e+58
          1279.32300	         1.41833e+58
          1280.12930	         1.25304e+58
          1280.93560	         9.50987e+57
          1281.74190	         1.02597e+58
          1282.54820	         1.02066e+58
          1283.35450	         8.92209e+57
          1284.16080	         9.80119e+57
          1284.96710	         1.32892e+58
          1285.77340	         1.27067e+58
          1286.57970	         1.08117e+58
          1287.38600	         1.47448e+58
          1288.19230	         1.79579e+58
          1288.99860	         1.82710e+58
          1289.80490	         1.39838e+58
          1290.61120	         1.33457e+58
          1291.41750	         1.23711e+58
          1292.22380	         1.03284e+58
          1293.03010	         9.85335e+57
          1293.83640	         1.08209e+58
          1294.64270	         1.06200e+58
          1295.44900	         7.54927e+57
          1296.25530	         7.86563e+57
          1297.06160	         9.73001e+57
          1297.86790	         1.04254e+58
          1298.67420	         1.14039e+58
          1299.48050	         1.07583e+58
          1300.28680	         1.16575e+58
          1301.09310	         8.41684e+57
          1301.89940	         3.06104e+57
          1302.70570	         5.55391e+57
          1303.51200	         7.47082e+57
          1304.31830	         1.06979e+58
          1305.12460	         1.10085e+58
          1305.93090	         1.04801e+58
          1306.73720	         1.13154e+58
          1307.54350	         1.36173e+58
          1308.34980	         1.57501e+58
          1309.15610	         1.46257e+58
          1309.96240	         1.49800e+58
          1310.76870	         1.51288e+58
          1311.57500	         1.09336e+58
          1312.38130	         9.85095e+57
          1313.18760	         1.39419e+58
          1313.99390	         1.64138e+58
          1314.80020	         1.61217e+58
          1315.60650	         1.46176e+58
          1316.41280	         1.21273e+58
          1317.21910	         1.07434e+58
          1318.02540	         1.26283e+58
          1318.83170	         1.35467e+58
          1319.63800	         1.26661e+58
          1320.44430	         1.15947e+58
          1321.25060	         1.22894e+58
          1322.05690	         1.23948e+58
          1322.86320	         1.29892e+58
          1323.66950	         1.15751e+58
          1324.47580	         8.94646e+57
          1325.28210	         9.70972e+57
          1326.08840	         1.17640e+58
          1326.89470	         1.38320e+58
          1327.70100	         1.25120e+58
          1328.50730	         8.60859e+57
          1329.31360	         8.42158e+57
          1330.11990	         1.01729e+58
          1330.92620	         1.02464e+58
          1331.73250	         1.25142e+58
          1332.53880	         1.17875e+58
          1333.34510	         8.94351e+57
          1334.15140	         8.61751e+57
          1334.95770	         8.98662e+57
          1335.76400	         1.22141e+58
          1336.57030	         1.23210e+58
          1337.37660	         9.97250e+57
          1338.18290	         1.13140e+58
          1338.98920	         1.28994e+58
          1339.79550	         1.30068e+58
          1340.60180	         1.10084e+58
          1341.40810	         1.11208e+58
          1342.21440	         1.12258e+58
          1343.02070	         1.14644e+58
          1343.82700	         1.15943e+58
          1344.63330	         1.04302e+58
          1345.43960	         1.30736e+58
          1346.24590	         1.30906e+58
          1347.05220	         1.27425e+58
          1347.85850	         1.09529e+58
          1348.66480	         1.32869e+58
          1349.47110	         1.49424e+58
          1350.27740	         1.26247e+58
          1351.08370	         1.21306e+58
          1351.89000	         1.19072e+58
          1352.69630	         1.14548e+58
          1353.50260	         1.13630e+58
          1354.30890	         1.23793e+58
          1355.11520	         1.22675e+58
          1355.92150	         1.08542e+58
          1356.72780	         9.78862e+57
          1357.53410	         1.00051e+58
          1358.34040	         1.15157e+58
          1359.14670	         1.07069e+58
          1359.95300	         1.09011e+58
          1360.75930	         1.06344e+58
          1361.56560	         1.06759e+58
          1362.37190	         1.16356e+58
          1363.17820	         1.16446e+58
          1363.98450	         1.17840e+58
          1364.79080	         1.14034e+58
          1365.59710	         1.23486e+58
          1366.40340	         1.18190e+58
          1367.20970	         9.30516e+57
          1368.01600	         9.13181e+57
          1368.82230	         8.00063e+57
          1369.62860	         8.42982e+57
          1370.43490	         9.54275e+57
          1371.24120	         9.24379e+57
          1372.04750	         8.43679e+57
          1372.85380	         1.07184e+58
          1373.66010	         1.03639e+58
          1374.46640	         1.05270e+58
          1375.27270	         1.17700e+58
          1376.07900	         1.04572e+58
          1376.88530	         8.99292e+57
          1377.69160	         8.92925e+57
          1378.49790	         7.41742e+57
          1379.30420	         7.92605e+57
          1380.11050	         7.72322e+57
          1380.91680	         6.62274e+57
          1381.72310	         7.26728e+57
          1382.52940	         8.67962e+57
          1383.33570	         9.12402e+57
          1384.14200	         9.34541e+57
          1384.94830	         1.00088e+58
          1385.75460	         1.10977e+58
          1386.56090	         1.12097e+58
          1387.36720	         1.15905e+58
          1388.17350	         1.42429e+58
          1388.97980	         1.24771e+58
          1389.78610	         1.06657e+58
          1390.59240	         1.04790e+58
          1391.39870	         8.96301e+57
          1392.20500	         8.66295e+57
          1393.01130	         7.87558e+57
          1393.81760	         7.17642e+57
          1394.62390	         7.76253e+57
          1395.43020	         7.34450e+57
          1396.23650	         7.37877e+57
          1397.04280	         7.75029e+57
          1397.84910	         8.96439e+57
          1398.65540	         9.59824e+57
          1399.46170	         1.02920e+58
          1400.26800	         8.65958e+57
          1401.07430	         7.31330e+57
          1401.88060	         7.56055e+57
          1402.68690	         8.68491e+57
          1403.49320	         9.94875e+57
          1404.29950	         9.73904e+57
          1405.10580	         1.03360e+58
          1405.91210	         1.06995e+58
          1406.71840	         1.06578e+58
          1407.52470	         1.03726e+58
          1408.33100	         1.13360e+58
          1409.13730	         1.25863e+58
          1409.94360	         1.04498e+58
          1410.74990	         1.06854e+58
          1411.55620	         1.06495e+58
          1412.36250	         1.00169e+58
          1413.16880	         9.61198e+57
          1413.97510	         8.50641e+57
          1414.78140	         9.72498e+57
          1415.58770	         1.08705e+58
          1416.39400	         1.05197e+58
          1417.20030	         1.09459e+58
          1418.00660	         1.08402e+58
          1418.81290	         1.09210e+58
          1419.61920	         9.66259e+57
          1420.42550	         1.23794e+58
          1421.23180	         1.37903e+58
          1422.03810	         1.19271e+58
          1422.84440	         1.24872e+58
          1423.65070	         1.41526e+58
          1424.45700	         1.17131e+58
          1425.26330	         9.38303e+57
          1426.06960	         9.25957e+57
          1426.87590	         9.04793e+57
          1427.68220	         9.44738e+57
          1428.48850	         1.07507e+58
          1429.29480	         1.13958e+58
          1430.10110	         1.07421e+58
          1430.90740	         8.64484e+57
          1431.71370	         8.67090e+57
          1432.52000	         8.69854e+57
          1433.32630	         7.94541e+57
          1434.13260	         7.36716e+57
          1434.93890	         8.60376e+57
          1435.74520	         9.98233e+57
          1436.55150	         1.01730e+58
          1437.35780	         9.44972e+57
          1438.16410	         9.27528e+57
          1438.97040	         9.17444e+57
          1439.77670	         8.86685e+57
          1440.58300	         9.82668e+57
          1441.38930	         1.06534e+58
          1442.19560	         1.01027e+58
          1443.00190	         1.01727e+58
          1443.80820	         1.14290e+58
          1444.61450	         1.00985e+58
          1445.42080	         8.28547e+57
          1446.22710	         9.80933e+57
          1447.03340	         9.64486e+57
          1447.83970	         9.67912e+57
          1448.64600	         9.07988e+57
          1449.45230	         9.42115e+57
          1450.25860	         9.52594e+57
          1451.06490	         7.48848e+57
          1451.87120	         7.12996e+57
          1452.67750	         7.31823e+57
          1453.48380	         9.26638e+57
          1454.29010	         8.99213e+57
          1455.09640	         8.00743e+57
          1455.90270	         9.65465e+57
          1456.70900	         9.61116e+57
          1457.51530	         1.02762e+58
          1458.32160	         1.16529e+58
          1459.12790	         1.00776e+58
          1459.93420	         1.01872e+58
          1460.74050	         8.20168e+57
          1461.54680	         7.75090e+57
          1462.35310	         7.97839e+57
          1463.15940	         9.55036e+57
          1463.96570	         1.14717e+58
          1464.77200	         1.23133e+58
          1465.57830	         1.03598e+58
          1466.38460	         8.35949e+57
          1467.19090	         8.40875e+57
          1467.99720	         8.96293e+57
          1468.80350	         9.06599e+57
          1469.60980	         1.03782e+58
          1470.41610	         1.22744e+58
          1471.22240	         1.05898e+58
          1472.02870	         9.20053e+57
          1472.83500	         9.25852e+57
          1473.64130	         9.72791e+57
          1474.44760	         9.91283e+57
          1475.25390	         8.65112e+57
          1476.06020	         8.06570e+57
          1476.86650	         8.14919e+57
          1477.67280	         7.25120e+57
          1478.47910	         6.36407e+57
          1479.28540	         6.49071e+57
          1480.09170	         7.56673e+57
          1480.89800	         8.47870e+57
          1481.70430	         9.42275e+57
          1482.51060	         8.20506e+57
          1483.31690	         8.16575e+57
          1484.12320	         8.54220e+57
          1484.92950	         8.26061e+57
          1485.73580	         9.35766e+57
          1486.54210	         9.68618e+57
          1487.34840	         9.87158e+57
          1488.15470	         8.32939e+57
          1488.96100	         8.20744e+57
          1489.76730	         9.90123e+57
