#sample_323_stacked_spectrum_rest_UV-bands_median_H-alpha_noDC.txt
#median Lum: 1.69982e+42
#Rest-frame wavelength (A) | Luminosity (erg/s/A)
#
          1110.00000	         0.00000e+00
          1110.80630	         2.24080e+59
          1111.61260	         7.90038e+58
          1112.41890	         2.97469e+59
          1113.22520	         1.64433e+59
          1114.03150	        -1.01745e+59
          1114.83780	         2.10179e+58
          1115.64410	         1.44492e+59
          1116.45040	         2.15674e+59
          1117.25670	         9.86868e+58
          1118.06300	         9.34180e+58
          1118.86930	        -8.13289e+58
          1119.67560	         2.85061e+58
          1120.48190	        -3.78376e+58
          1121.28820	        -1.35689e+59
          1122.09450	        -2.35843e+58
          1122.90080	        -1.54644e+58
          1123.70710	         4.60054e+58
          1124.51340	         8.70455e+58
          1125.31970	         1.23309e+58
          1126.12600	        -7.73598e+57
          1126.93230	        -2.67650e+58
          1127.73860	        -7.12999e+58
          1128.54490	        -2.34263e+58
          1129.35120	         4.75380e+57
          1130.15750	        -2.12886e+58
          1130.96380	         2.42657e+57
          1131.77010	         4.96010e+58
          1132.57640	         4.54816e+58
          1133.38270	         2.00905e+58
          1134.18900	         1.47067e+58
          1134.99530	        -1.52875e+55
          1135.80160	         2.24905e+58
          1136.60790	         2.23730e+58
          1137.41420	         1.12086e+58
          1138.22050	         3.86125e+58
          1139.02680	         1.53330e+58
          1139.83310	         2.01321e+58
          1140.63940	         1.89329e+58
          1141.44570	        -2.03734e+58
          1142.25200	        -6.91948e+57
          1143.05830	         2.28195e+58
          1143.86460	         2.90643e+58
          1144.67090	         2.05055e+58
          1145.47720	         1.07175e+58
          1146.28350	         1.25197e+58
          1147.08980	         1.24110e+58
          1147.89610	         1.71166e+58
          1148.70240	         1.61644e+58
          1149.50870	         1.62742e+58
          1150.31500	         1.08634e+58
          1151.12130	         1.68505e+58
          1151.92760	         9.15423e+57
          1152.73390	        -2.47591e+56
          1153.54020	         3.30671e+57
          1154.34650	         1.59575e+58
          1155.15280	         4.52511e+57
          1155.95910	         7.38293e+57
          1156.76540	        -3.63711e+57
          1157.57170	         5.48097e+57
          1158.37800	         8.25120e+57
          1159.18430	         4.25653e+57
          1159.99060	         3.84685e+57
          1160.79690	         9.72063e+57
          1161.60320	         2.09959e+58
          1162.40950	         1.27543e+58
          1163.21580	         1.29156e+58
          1164.02210	         9.67528e+57
          1164.82840	         1.15575e+58
          1165.63470	         2.06201e+58
          1166.44100	         2.62367e+58
          1167.24730	         1.86030e+58
          1168.05360	         7.50438e+57
          1168.85990	         1.23652e+58
          1169.66620	         1.45249e+58
          1170.47250	         1.22078e+58
          1171.27880	         3.23623e+57
          1172.08510	         1.07951e+58
          1172.89140	         1.39009e+58
          1173.69770	         4.05284e+57
          1174.50400	         1.40265e+58
          1175.31030	         1.62997e+58
          1176.11660	         1.64673e+58
          1176.92290	         1.53310e+58
          1177.72920	         1.39987e+58
          1178.53550	         8.89224e+57
          1179.34180	         7.26091e+56
          1180.14810	        -4.36407e+57
          1180.95440	         2.30774e+57
          1181.76070	         5.38233e+57
          1182.56700	         1.25043e+58
          1183.37330	         8.75488e+57
          1184.17960	         8.93108e+57
          1184.98590	         1.06068e+58
          1185.79220	         7.84431e+57
          1186.59850	         1.34212e+58
          1187.40480	         7.74843e+57
          1188.21110	         1.52640e+58
          1189.01740	         1.09059e+58
          1189.82370	         1.03186e+58
          1190.63000	         1.12217e+58
          1191.43630	         1.09897e+58
          1192.24260	         2.61151e+57
          1193.04890	         8.00092e+57
          1193.85520	         1.53023e+58
          1194.66150	         1.08066e+57
          1195.46780	         5.31258e+57
          1196.27410	         1.33172e+58
          1197.08040	         1.10621e+58
          1197.88670	         1.22816e+58
          1198.69300	         1.44839e+58
          1199.49930	         1.23828e+58
          1200.30560	         1.11792e+58
          1201.11190	         8.75537e+57
          1201.91820	         8.86151e+57
          1202.72450	         8.08103e+57
          1203.53080	         1.29532e+58
          1204.33710	         6.39250e+57
          1205.14340	         7.55406e+57
          1205.94970	         1.01471e+58
          1206.75600	         7.17435e+57
          1207.56230	         6.89089e+57
          1208.36860	         6.89427e+57
          1209.17490	         7.86484e+57
          1209.98120	         6.57968e+57
          1210.78750	         7.81764e+57
          1211.59380	         9.21943e+57
          1212.40010	         1.62554e+58
          1213.20640	         2.05431e+58
          1214.01270	         2.14774e+58
          1214.81900	         2.25856e+58
          1215.62530	         4.05831e+58
          1216.43160	         8.97344e+58
          1217.23790	         1.51416e+59
          1218.04420	         1.11820e+59
          1218.85050	         8.22735e+58
          1219.65680	         5.70256e+58
          1220.46310	         3.17597e+58
          1221.26940	         2.01792e+58
          1222.07570	         1.45787e+58
          1222.88200	         1.16342e+58
          1223.68830	         1.00683e+58
          1224.49460	         6.04886e+57
          1225.30090	         7.22286e+57
          1226.10720	         8.06958e+57
          1226.91350	         6.79944e+57
          1227.71980	         1.13046e+58
          1228.52610	         1.80976e+58
          1229.33240	         1.06110e+58
          1230.13870	         8.38459e+57
          1230.94500	         7.10636e+57
          1231.75130	         6.29869e+57
          1232.55760	         7.80410e+57
          1233.36390	         1.02906e+58
          1234.17020	         9.25291e+57
          1234.97650	         7.19843e+57
          1235.78280	         8.49265e+57
          1236.58910	         8.17861e+57
          1237.39540	         9.07843e+57
          1238.20170	         1.12974e+58
          1239.00800	         1.25697e+58
          1239.81430	         1.47502e+58
          1240.62060	         1.18580e+58
          1241.42690	         1.09685e+58
          1242.23320	         1.35353e+58
          1243.03950	         1.07499e+58
          1243.84580	         8.66678e+57
          1244.65210	         9.64600e+57
          1245.45840	         1.03430e+58
          1246.26470	         1.22641e+58
          1247.07100	         1.02982e+58
          1247.87730	         7.64683e+57
          1248.68360	         4.85082e+57
          1249.48990	         6.11378e+57
          1250.29620	         7.68092e+57
          1251.10250	         5.87023e+57
          1251.90880	         6.05018e+57
          1252.71510	         6.36905e+57
          1253.52140	         7.05794e+57
          1254.32770	         7.84354e+57
          1255.13400	         9.48829e+57
          1255.94030	         9.85448e+57
          1256.74660	         8.11293e+57
          1257.55290	         9.43057e+57
          1258.35920	         7.43009e+57
          1259.16550	         3.37831e+57
          1259.97180	         2.68108e+57
          1260.77810	         6.51169e+57
          1261.58440	         9.08025e+57
          1262.39070	         8.74073e+57
          1263.19700	         9.56200e+57
          1264.00330	         1.12525e+58
          1264.80960	         1.06647e+58
          1265.61590	         1.26453e+58
          1266.42220	         1.32917e+58
          1267.22850	         1.05987e+58
          1268.03480	         1.40635e+58
          1268.84110	         1.56982e+58
          1269.64740	         1.12487e+58
          1270.45370	         1.28158e+58
          1271.26000	         1.32497e+58
          1272.06630	         1.10800e+58
          1272.87260	         1.04854e+58
          1273.67890	         1.02255e+58
          1274.48520	         1.23088e+58
          1275.29150	         1.36077e+58
          1276.09780	         1.17912e+58
          1276.90410	         1.30353e+58
          1277.71040	         1.20903e+58
          1278.51670	         1.16899e+58
          1279.32300	         1.54901e+58
          1280.12930	         1.27599e+58
          1280.93560	         9.67543e+57
          1281.74190	         1.16444e+58
          1282.54820	         1.27972e+58
          1283.35450	         1.19201e+58
          1284.16080	         1.16123e+58
          1284.96710	         1.21431e+58
          1285.77340	         1.20962e+58
          1286.57970	         1.26696e+58
          1287.38600	         1.55577e+58
          1288.19230	         1.49267e+58
          1288.99860	         1.45291e+58
          1289.80490	         1.25592e+58
          1290.61120	         1.33254e+58
          1291.41750	         1.41674e+58
          1292.22380	         1.18227e+58
          1293.03010	         9.82984e+57
          1293.83640	         9.52293e+57
          1294.64270	         8.02438e+57
          1295.44900	         6.94112e+57
          1296.25530	         7.96721e+57
          1297.06160	         7.87679e+57
          1297.86790	         8.50855e+57
          1298.67420	         9.82431e+57
          1299.48050	         1.00015e+58
          1300.28680	         9.78023e+57
          1301.09310	         8.96819e+57
          1301.89940	         5.28266e+57
          1302.70570	         6.36790e+57
          1303.51200	         7.61474e+57
          1304.31830	         8.71410e+57
          1305.12460	         8.51823e+57
          1305.93090	         1.05719e+58
          1306.73720	         1.23430e+58
          1307.54350	         1.40885e+58
          1308.34980	         1.55902e+58
          1309.15610	         1.43051e+58
          1309.96240	         1.37418e+58
          1310.76870	         1.43002e+58
          1311.57500	         1.19397e+58
          1312.38130	         1.07939e+58
          1313.18760	         1.23308e+58
          1313.99390	         1.37442e+58
          1314.80020	         1.46802e+58
          1315.60650	         1.39826e+58
          1316.41280	         1.20902e+58
          1317.21910	         1.17218e+58
          1318.02540	         1.18702e+58
          1318.83170	         1.17571e+58
          1319.63800	         1.16872e+58
          1320.44430	         1.17133e+58
          1321.25060	         1.17585e+58
          1322.05690	         1.22869e+58
          1322.86320	         1.26287e+58
          1323.66950	         1.15316e+58
          1324.47580	         9.42660e+57
          1325.28210	         9.94564e+57
          1326.08840	         1.10122e+58
          1326.89470	         1.13900e+58
          1327.70100	         8.76686e+57
          1328.50730	         7.95601e+57
          1329.31360	         1.02141e+58
          1330.11990	         1.13258e+58
          1330.92620	         9.17126e+57
          1331.73250	         9.62172e+57
          1332.53880	         9.20700e+57
          1333.34510	         8.51508e+57
          1334.15140	         8.86288e+57
          1334.95770	         8.68185e+57
          1335.76400	         9.41489e+57
          1336.57030	         1.09750e+58
          1337.37660	         1.16854e+58
          1338.18290	         1.04207e+58
          1338.98920	         1.11577e+58
          1339.79550	         1.07775e+58
          1340.60180	         1.09630e+58
          1341.40810	         1.36385e+58
          1342.21440	         1.42501e+58
          1343.02070	         1.19600e+58
          1343.82700	         1.22464e+58
          1344.63330	         1.24766e+58
          1345.43960	         1.13107e+58
          1346.24590	         1.12697e+58
          1347.05220	         1.34197e+58
          1347.85850	         1.18022e+58
          1348.66480	         1.10454e+58
          1349.47110	         1.24213e+58
          1350.27740	         1.11853e+58
          1351.08370	         1.16961e+58
          1351.89000	         1.12046e+58
          1352.69630	         1.01702e+58
          1353.50260	         1.08419e+58
          1354.30890	         1.20244e+58
          1355.11520	         1.12621e+58
          1355.92150	         1.06991e+58
          1356.72780	         9.79556e+57
          1357.53410	         8.17514e+57
          1358.34040	         8.94900e+57
          1359.14670	         9.13562e+57
          1359.95300	         1.02692e+58
          1360.75930	         1.12493e+58
          1361.56560	         1.04622e+58
          1362.37190	         1.21809e+58
          1363.17820	         1.17814e+58
          1363.98450	         1.08910e+58
          1364.79080	         1.30819e+58
          1365.59710	         1.30902e+58
          1366.40340	         1.08049e+58
          1367.20970	         9.42034e+57
          1368.01600	         9.49600e+57
          1368.82230	         8.76988e+57
          1369.62860	         1.07025e+58
          1370.43490	         1.04702e+58
          1371.24120	         9.11845e+57
          1372.04750	         8.13523e+57
          1372.85380	         9.79679e+57
          1373.66010	         1.15639e+58
          1374.46640	         1.09468e+58
          1375.27270	         1.08569e+58
          1376.07900	         9.49931e+57
          1376.88530	         8.40647e+57
          1377.69160	         8.28419e+57
          1378.49790	         7.51972e+57
          1379.30420	         8.31509e+57
          1380.11050	         8.82028e+57
          1380.91680	         7.35568e+57
          1381.72310	         7.45454e+57
          1382.52940	         8.57566e+57
          1383.33570	         7.55096e+57
          1384.14200	         9.58407e+57
          1384.94830	         1.14865e+58
          1385.75460	         1.04169e+58
          1386.56090	         1.09030e+58
          1387.36720	         1.14504e+58
          1388.17350	         1.26352e+58
          1388.97980	         1.21044e+58
          1389.78610	         8.89173e+57
          1390.59240	         6.70014e+57
          1391.39870	         5.91884e+57
          1392.20500	         8.24683e+57
          1393.01130	         8.60042e+57
          1393.81760	         8.01756e+57
          1394.62390	         8.32650e+57
          1395.43020	         7.44826e+57
          1396.23650	         6.15215e+57
          1397.04280	         6.28689e+57
          1397.84910	         9.12469e+57
          1398.65540	         9.21081e+57
          1399.46170	         8.82609e+57
          1400.26800	         8.84628e+57
          1401.07430	         7.15556e+57
          1401.88060	         7.17133e+57
          1402.68690	         9.69059e+57
          1403.49320	         9.28993e+57
          1404.29950	         8.67912e+57
          1405.10580	         9.79583e+57
          1405.91210	         1.03928e+58
          1406.71840	         9.12142e+57
          1407.52470	         1.04769e+58
          1408.33100	         1.05025e+58
          1409.13730	         1.16752e+58
          1409.94360	         1.16203e+58
          1410.74990	         1.04934e+58
          1411.55620	         9.78874e+57
          1412.36250	         9.82249e+57
          1413.16880	         9.59608e+57
          1413.97510	         7.57701e+57
          1414.78140	         7.10700e+57
          1415.58770	         9.71092e+57
          1416.39400	         1.12938e+58
          1417.20030	         1.10401e+58
          1418.00660	         9.06633e+57
          1418.81290	         8.83594e+57
          1419.61920	         9.39932e+57
          1420.42550	         1.12328e+58
          1421.23180	         1.37307e+58
          1422.03810	         1.18303e+58
          1422.84440	         1.04098e+58
          1423.65070	         1.12043e+58
          1424.45700	         1.09006e+58
          1425.26330	         1.03785e+58
          1426.06960	         1.02568e+58
          1426.87590	         1.00536e+58
          1427.68220	         9.57403e+57
          1428.48850	         1.01043e+58
          1429.29480	         9.52409e+57
          1430.10110	         9.26194e+57
          1430.90740	         8.30153e+57
          1431.71370	         1.00388e+58
          1432.52000	         1.04174e+58
          1433.32630	         8.40562e+57
          1434.13260	         6.72004e+57
          1434.93890	         6.84185e+57
          1435.74520	         8.88401e+57
          1436.55150	         1.01656e+58
          1437.35780	         8.62721e+57
          1438.16410	         9.17766e+57
          1438.97040	         8.15090e+57
          1439.77670	         7.68425e+57
          1440.58300	         8.07445e+57
          1441.38930	         8.79819e+57
          1442.19560	         1.00125e+58
          1443.00190	         9.67752e+57
          1443.80820	         1.00247e+58
          1444.61450	         8.99063e+57
          1445.42080	         8.25332e+57
          1446.22710	         1.10023e+58
          1447.03340	         1.09906e+58
          1447.83970	         1.06175e+58
          1448.64600	         1.10239e+58
          1449.45230	         9.71870e+57
          1450.25860	         9.61991e+57
          1451.06490	         9.23541e+57
          1451.87120	         7.66334e+57
          1452.67750	         7.42716e+57
          1453.48380	         8.11872e+57
          1454.29010	         7.41689e+57
          1455.09640	         7.24999e+57
          1455.90270	         8.55912e+57
          1456.70900	         8.43535e+57
          1457.51530	         7.79913e+57
          1458.32160	         1.05313e+58
          1459.12790	         1.26743e+58
          1459.93420	         1.20962e+58
          1460.74050	         8.68065e+57
          1461.54680	         7.05217e+57
          1462.35310	         8.02975e+57
          1463.15940	         1.02148e+58
          1463.96570	         1.18853e+58
          1464.77200	         1.21719e+58
          1465.57830	         1.09270e+58
          1466.38460	         9.55091e+57
          1467.19090	         8.81723e+57
          1467.99720	         8.43554e+57
          1468.80350	         8.60334e+57
          1469.60980	         9.21998e+57
          1470.41610	         1.00288e+58
          1471.22240	         9.17837e+57
          1472.02870	         9.45542e+57
          1472.83500	         1.00178e+58
          1473.64130	         1.01479e+58
          1474.44760	         9.71817e+57
          1475.25390	         9.20751e+57
          1476.06020	         8.36721e+57
          1476.86650	         8.18365e+57
          1477.67280	         8.27044e+57
          1478.47910	         6.45282e+57
          1479.28540	         6.87659e+57
          1480.09170	         8.83849e+57
          1480.89800	         9.50824e+57
          1481.70430	         8.70632e+57
          1482.51060	         8.33082e+57
          1483.31690	         8.44404e+57
          1484.12320	         7.28051e+57
          1484.92950	         8.20065e+57
          1485.73580	         9.48734e+57
          1486.54210	         9.87155e+57
          1487.34840	         8.72713e+57
          1488.15470	         7.85463e+57
          1488.96100	         8.47796e+57
          1489.76730	         8.86375e+57
