#sample_343_stacked_spectrum_rest_UV-bands_median_H-alpha_noDC.txt
#median Lum: 1.71232e+42
#Rest-frame wavelength (A) | Luminosity (erg/s/A)
#
          1110.00000	         0.00000e+00
          1110.80630	         6.10859e+57
          1111.61260	        -3.65453e+58
          1112.41890	         2.53829e+59
          1113.22520	         2.09409e+58
          1114.03150	        -6.07308e+58
          1114.83780	         1.31290e+59
          1115.64410	        -1.49466e+58
          1116.45040	        -1.50589e+59
          1117.25670	        -9.39497e+58
          1118.06300	         1.15278e+59
          1118.86930	        -1.39584e+58
          1119.67560	         3.51476e+58
          1120.48190	        -6.69965e+57
          1121.28820	        -8.84211e+58
          1122.09450	         4.79619e+58
          1122.90080	         4.83635e+58
          1123.70710	         6.69961e+58
          1124.51340	         1.61685e+58
          1125.31970	        -2.29404e+58
          1126.12600	        -6.03933e+58
          1126.93230	        -7.56824e+58
          1127.73860	        -4.32883e+58
          1128.54490	         3.65420e+58
          1129.35120	         3.15363e+58
          1130.15750	        -2.81199e+58
          1130.96380	        -1.06787e+58
          1131.77010	         5.65509e+58
          1132.57640	         2.92950e+58
          1133.38270	         2.94348e+58
          1134.18900	         1.08528e+58
          1134.99530	         2.35924e+58
          1135.80160	         3.82853e+58
          1136.60790	         1.18320e+58
          1137.41420	         1.89295e+58
          1138.22050	         5.95878e+58
          1139.02680	         2.65610e+58
          1139.83310	         1.73422e+58
          1140.63940	         1.76221e+58
          1141.44570	        -7.51313e+57
          1142.25200	        -8.40263e+57
          1143.05830	         1.94691e+58
          1143.86460	         4.66682e+58
          1144.67090	         1.31225e+58
          1145.47720	         1.85282e+58
          1146.28350	         2.90802e+58
          1147.08980	         1.83017e+58
          1147.89610	         2.81360e+58
          1148.70240	         3.41946e+58
          1149.50870	         1.49229e+58
          1150.31500	         2.42508e+58
          1151.12130	         7.84385e+57
          1151.92760	         1.95844e+57
          1152.73390	         1.48582e+57
          1153.54020	         2.01237e+57
          1154.34650	         1.77691e+58
          1155.15280	         1.57094e+58
          1155.95910	         1.35799e+58
          1156.76540	         2.83793e+57
          1157.57170	        -6.06490e+57
          1158.37800	        -5.96647e+57
          1159.18430	        -1.12796e+57
          1159.99060	         3.60043e+57
          1160.79690	        -1.52254e+57
          1161.60320	         6.72694e+57
          1162.40950	         6.95770e+57
          1163.21580	         4.79602e+57
          1164.02210	         2.67664e+57
          1164.82840	         1.35115e+58
          1165.63470	         1.60390e+58
          1166.44100	         2.90993e+58
          1167.24730	         2.88954e+58
          1168.05360	         1.29082e+58
          1168.85990	         1.14834e+58
          1169.66620	         8.37994e+57
          1170.47250	         1.78934e+58
          1171.27880	         1.92283e+58
          1172.08510	         1.79041e+58
          1172.89140	         1.52820e+58
          1173.69770	         2.14517e+57
          1174.50400	         5.80659e+57
          1175.31030	         9.59201e+57
          1176.11660	         1.52301e+58
          1176.92290	         1.10904e+58
          1177.72920	         1.06887e+58
          1178.53550	         3.89176e+57
          1179.34180	         1.71194e+57
          1180.14810	         7.35033e+57
          1180.95440	         5.40644e+57
          1181.76070	         1.55429e+57
          1182.56700	         5.27074e+57
          1183.37330	         7.18964e+57
          1184.17960	         1.11895e+58
          1184.98590	         8.46820e+57
          1185.79220	         7.53462e+57
          1186.59850	         1.30455e+58
          1187.40480	         1.00701e+58
          1188.21110	         1.62387e+58
          1189.01740	         1.34157e+58
          1189.82370	         8.44989e+57
          1190.63000	         1.09963e+58
          1191.43630	         1.23726e+58
          1192.24260	         7.72624e+57
          1193.04890	         1.16367e+58
          1193.85520	         1.55832e+58
          1194.66150	         1.06487e+58
          1195.46780	         8.07373e+57
          1196.27410	         1.64074e+58
          1197.08040	         1.13581e+58
          1197.88670	         1.33411e+58
          1198.69300	         1.64550e+58
          1199.49930	         1.69775e+58
          1200.30560	         9.80574e+57
          1201.11190	         1.03270e+58
          1201.91820	         1.19282e+58
          1202.72450	         8.46671e+57
          1203.53080	         1.77058e+58
          1204.33710	         1.21073e+58
          1205.14340	         4.70315e+57
          1205.94970	         4.09252e+57
          1206.75600	         6.84159e+57
          1207.56230	         5.74838e+57
          1208.36860	         7.36829e+57
          1209.17490	         3.91892e+57
          1209.98120	         7.64954e+57
          1210.78750	         8.97588e+57
          1211.59380	         8.15871e+57
          1212.40010	         1.58344e+58
          1213.20640	         2.00905e+58
          1214.01270	         2.09791e+58
          1214.81900	         2.63651e+58
          1215.62530	         4.53724e+58
          1216.43160	         9.24479e+58
          1217.23790	         1.54293e+59
          1218.04420	         1.14697e+59
          1218.85050	         8.63100e+58
          1219.65680	         5.96281e+58
          1220.46310	         3.74100e+58
          1221.26940	         2.76809e+58
          1222.07570	         1.57695e+58
          1222.88200	         1.03048e+58
          1223.68830	         9.09603e+57
          1224.49460	         6.89057e+57
          1225.30090	         8.30568e+57
          1226.10720	         8.73581e+57
          1226.91350	         5.78752e+57
          1227.71980	         4.04494e+57
          1228.52610	         9.73940e+57
          1229.33240	         8.44119e+57
          1230.13870	         7.38190e+57
          1230.94500	         7.39491e+57
          1231.75130	         6.42357e+57
          1232.55760	         7.81254e+57
          1233.36390	         8.87901e+57
          1234.17020	         7.32796e+57
          1234.97650	         8.72919e+57
          1235.78280	         8.14572e+57
          1236.58910	         7.09949e+57
          1237.39540	         8.62965e+57
          1238.20170	         1.06998e+58
          1239.00800	         1.23772e+58
          1239.81430	         1.53261e+58
          1240.62060	         1.12626e+58
          1241.42690	         9.29781e+57
          1242.23320	         1.22307e+58
          1243.03950	         9.20905e+57
          1243.84580	         8.01010e+57
          1244.65210	         8.96462e+57
          1245.45840	         9.06778e+57
          1246.26470	         1.16659e+58
          1247.07100	         9.63704e+57
          1247.87730	         5.98419e+57
          1248.68360	         4.48636e+57
          1249.48990	         8.30208e+57
          1250.29620	         1.17808e+58
          1251.10250	         1.15302e+58
          1251.90880	         9.52766e+57
          1252.71510	         7.39188e+57
          1253.52140	         7.79522e+57
          1254.32770	         1.08785e+58
          1255.13400	         1.34320e+58
          1255.94030	         1.30876e+58
          1256.74660	         1.19447e+58
          1257.55290	         1.23264e+58
          1258.35920	         1.09668e+58
          1259.16550	         8.50998e+57
          1259.97180	         5.86304e+57
          1260.77810	         8.75389e+57
          1261.58440	         1.01467e+58
          1262.39070	         9.20612e+57
          1263.19700	         8.50469e+57
          1264.00330	         1.09593e+58
          1264.80960	         1.26588e+58
          1265.61590	         9.90560e+57
          1266.42220	         1.01659e+58
          1267.22850	         1.07702e+58
          1268.03480	         1.40119e+58
          1268.84110	         1.56529e+58
          1269.64740	         1.42924e+58
          1270.45370	         1.49491e+58
          1271.26000	         1.41866e+58
          1272.06630	         1.26182e+58
          1272.87260	         1.20830e+58
          1273.67890	         1.42170e+58
          1274.48520	         1.37363e+58
          1275.29150	         1.17614e+58
          1276.09780	         1.24162e+58
          1276.90410	         1.71859e+58
          1277.71040	         1.37062e+58
          1278.51670	         1.17436e+58
          1279.32300	         1.46346e+58
          1280.12930	         1.41368e+58
          1280.93560	         1.25249e+58
          1281.74190	         1.28365e+58
          1282.54820	         1.47140e+58
          1283.35450	         1.17399e+58
          1284.16080	         1.06930e+58
          1284.96710	         1.34813e+58
          1285.77340	         1.09194e+58
          1286.57970	         1.09160e+58
          1287.38600	         1.58234e+58
          1288.19230	         1.97713e+58
          1288.99860	         1.68119e+58
          1289.80490	         1.25079e+58
          1290.61120	         1.55112e+58
          1291.41750	         1.45481e+58
          1292.22380	         1.14417e+58
          1293.03010	         1.19921e+58
          1293.83640	         1.20096e+58
          1294.64270	         8.83987e+57
          1295.44900	         6.18896e+57
          1296.25530	         7.38910e+57
          1297.06160	         9.42367e+57
          1297.86790	         9.80181e+57
          1298.67420	         8.82562e+57
          1299.48050	         9.56713e+57
          1300.28680	         1.19944e+58
          1301.09310	         1.01490e+58
          1301.89940	         5.99772e+57
          1302.70570	         7.51532e+57
          1303.51200	         8.10156e+57
          1304.31830	         1.07568e+58
          1305.12460	         1.26570e+58
          1305.93090	         1.40377e+58
          1306.73720	         1.51004e+58
          1307.54350	         1.52505e+58
          1308.34980	         1.30103e+58
          1309.15610	         1.26040e+58
          1309.96240	         1.41430e+58
          1310.76870	         1.30190e+58
          1311.57500	         1.20792e+58
          1312.38130	         1.25968e+58
          1313.18760	         1.33290e+58
          1313.99390	         1.45111e+58
          1314.80020	         1.40999e+58
          1315.60650	         1.41237e+58
          1316.41280	         1.35069e+58
          1317.21910	         1.24637e+58
          1318.02540	         1.18427e+58
          1318.83170	         1.29190e+58
          1319.63800	         1.33211e+58
          1320.44430	         1.09386e+58
          1321.25060	         1.10978e+58
          1322.05690	         1.16008e+58
          1322.86320	         1.16462e+58
          1323.66950	         1.15451e+58
          1324.47580	         9.98155e+57
          1325.28210	         1.05767e+58
          1326.08840	         1.16595e+58
          1326.89470	         1.26283e+58
          1327.70100	         1.01061e+58
          1328.50730	         8.31682e+57
          1329.31360	         9.99948e+57
          1330.11990	         1.12138e+58
          1330.92620	         9.08279e+57
          1331.73250	         1.08696e+58
          1332.53880	         1.00972e+58
          1333.34510	         8.79819e+57
          1334.15140	         1.01585e+58
          1334.95770	         1.09902e+58
          1335.76400	         1.17977e+58
          1336.57030	         1.18832e+58
          1337.37660	         1.05980e+58
          1338.18290	         1.08467e+58
          1338.98920	         1.23542e+58
          1339.79550	         1.23785e+58
          1340.60180	         1.19992e+58
          1341.40810	         1.45262e+58
          1342.21440	         1.29845e+58
          1343.02070	         1.12079e+58
          1343.82700	         1.16913e+58
          1344.63330	         1.17177e+58
          1345.43960	         1.31226e+58
          1346.24590	         1.24135e+58
          1347.05220	         1.18294e+58
          1347.85850	         1.12925e+58
          1348.66480	         1.20616e+58
          1349.47110	         1.29434e+58
          1350.27740	         1.27901e+58
          1351.08370	         1.24613e+58
          1351.89000	         1.20250e+58
          1352.69630	         1.17925e+58
          1353.50260	         1.20466e+58
          1354.30890	         1.12596e+58
          1355.11520	         1.10387e+58
          1355.92150	         1.15129e+58
          1356.72780	         1.14075e+58
          1357.53410	         1.11644e+58
          1358.34040	         1.27078e+58
          1359.14670	         1.22236e+58
          1359.95300	         1.13075e+58
          1360.75930	         1.20991e+58
          1361.56560	         1.12890e+58
          1362.37190	         1.07512e+58
          1363.17820	         1.01199e+58
          1363.98450	         1.15680e+58
          1364.79080	         1.26411e+58
          1365.59710	         1.34126e+58
          1366.40340	         1.36287e+58
          1367.20970	         1.10463e+58
          1368.01600	         8.53881e+57
          1368.82230	         9.22202e+57
          1369.62860	         1.07362e+58
          1370.43490	         9.61855e+57
          1371.24120	         9.92681e+57
          1372.04750	         9.48732e+57
          1372.85380	         1.18102e+58
          1373.66010	         1.24090e+58
          1374.46640	         1.16620e+58
          1375.27270	         1.22218e+58
          1376.07900	         9.87333e+57
          1376.88530	         8.73677e+57
          1377.69160	         8.32200e+57
          1378.49790	         6.28297e+57
          1379.30420	         6.35480e+57
          1380.11050	         9.21082e+57
          1380.91680	         9.75416e+57
          1381.72310	         8.11132e+57
          1382.52940	         9.04586e+57
          1383.33570	         8.34795e+57
          1384.14200	         8.77256e+57
          1384.94830	         9.55163e+57
          1385.75460	         9.73470e+57
          1386.56090	         1.28063e+58
          1387.36720	         1.29822e+58
          1388.17350	         1.42494e+58
          1388.97980	         1.09488e+58
          1389.78610	         6.85117e+57
          1390.59240	         7.79609e+57
          1391.39870	         8.02371e+57
          1392.20500	         9.87958e+57
          1393.01130	         6.81915e+57
          1393.81760	         5.99902e+57
          1394.62390	         6.94111e+57
          1395.43020	         7.39291e+57
          1396.23650	         6.98424e+57
          1397.04280	         7.62332e+57
          1397.84910	         8.57522e+57
          1398.65540	         8.47659e+57
          1399.46170	         1.00881e+58
          1400.26800	         8.66150e+57
          1401.07430	         7.15031e+57
          1401.88060	         7.61345e+57
          1402.68690	         8.83889e+57
          1403.49320	         1.05758e+58
          1404.29950	         1.05028e+58
          1405.10580	         1.13362e+58
          1405.91210	         1.03280e+58
          1406.71840	         1.03421e+58
          1407.52470	         1.06493e+58
          1408.33100	         1.10004e+58
          1409.13730	         1.17526e+58
          1409.94360	         1.00477e+58
          1410.74990	         1.05400e+58
          1411.55620	         1.01481e+58
          1412.36250	         9.67939e+57
          1413.16880	         9.24935e+57
          1413.97510	         8.24769e+57
          1414.78140	         8.80450e+57
          1415.58770	         9.45851e+57
          1416.39400	         9.21052e+57
          1417.20030	         9.70066e+57
          1418.00660	         9.78406e+57
          1418.81290	         1.06069e+58
          1419.61920	         1.14157e+58
          1420.42550	         1.26541e+58
          1421.23180	         1.42973e+58
          1422.03810	         1.30072e+58
          1422.84440	         1.10256e+58
          1423.65070	         1.27957e+58
          1424.45700	         1.29774e+58
          1425.26330	         8.98153e+57
          1426.06960	         8.34764e+57
          1426.87590	         1.06137e+58
          1427.68220	         9.58626e+57
          1428.48850	         1.03760e+58
          1429.29480	         1.09063e+58
          1430.10110	         1.11413e+58
          1430.90740	         9.74297e+57
          1431.71370	         9.04468e+57
          1432.52000	         8.62043e+57
          1433.32630	         7.38168e+57
          1434.13260	         6.78059e+57
          1434.93890	         8.39689e+57
          1435.74520	         9.52707e+57
          1436.55150	         9.43067e+57
          1437.35780	         8.63590e+57
          1438.16410	         9.39569e+57
          1438.97040	         1.01180e+58
          1439.77670	         9.99565e+57
          1440.58300	         9.20479e+57
          1441.38930	         9.34386e+57
          1442.19560	         1.05346e+58
          1443.00190	         1.08476e+58
          1443.80820	         1.12685e+58
          1444.61450	         9.26010e+57
          1445.42080	         7.73464e+57
          1446.22710	         1.05736e+58
          1447.03340	         1.08789e+58
          1447.83970	         1.21771e+58
          1448.64600	         1.13289e+58
          1449.45230	         9.55311e+57
          1450.25860	         9.73822e+57
          1451.06490	         9.28453e+57
          1451.87120	         8.94363e+57
          1452.67750	         8.47658e+57
          1453.48380	         1.02678e+58
          1454.29010	         9.39817e+57
          1455.09640	         8.28103e+57
          1455.90270	         8.88323e+57
          1456.70900	         9.87709e+57
          1457.51530	         1.08702e+58
          1458.32160	         1.32684e+58
          1459.12790	         1.17986e+58
          1459.93420	         9.21220e+57
          1460.74050	         7.75113e+57
          1461.54680	         9.37405e+57
          1462.35310	         9.16886e+57
          1463.15940	         9.18018e+57
          1463.96570	         1.03886e+58
          1464.77200	         1.13305e+58
          1465.57830	         1.15630e+58
          1466.38460	         9.95524e+57
          1467.19090	         8.71800e+57
          1467.99720	         8.86383e+57
          1468.80350	         9.97594e+57
          1469.60980	         1.07718e+58
          1470.41610	         1.17745e+58
          1471.22240	         1.03770e+58
          1472.02870	         1.00756e+58
          1472.83500	         9.72199e+57
          1473.64130	         9.12906e+57
          1474.44760	         1.01936e+58
          1475.25390	         1.02117e+58
          1476.06020	         8.89863e+57
          1476.86650	         9.32105e+57
          1477.67280	         7.82818e+57
          1478.47910	         6.71828e+57
          1479.28540	         8.06161e+57
          1480.09170	         9.24508e+57
          1480.89800	         9.46454e+57
          1481.70430	         8.85155e+57
          1482.51060	         8.42630e+57
          1483.31690	         8.06582e+57
          1484.12320	         7.97474e+57
          1484.92950	         9.00262e+57
          1485.73580	         1.03652e+58
          1486.54210	         9.67809e+57
          1487.34840	         9.40459e+57
          1488.15470	         8.69053e+57
          1488.96100	         7.95997e+57
          1489.76730	         9.46983e+57
