#sample_495_stacked_spectrum_rest_UV-bands_median_H-alpha_noDC.txt
#median Lum: 1.71435e+42
#Rest-frame wavelength (A) | Luminosity (erg/s/A)
#
          1110.00000	         0.00000e+00
          1110.80630	        -5.67845e+58
          1111.61260	         7.53075e+58
          1112.41890	         1.89485e+59
          1113.22520	         1.18279e+59
          1114.03150	        -6.05616e+58
          1114.83780	         1.55435e+59
          1115.64410	         8.58771e+58
          1116.45040	         1.45718e+59
          1117.25670	         1.72024e+59
          1118.06300	         8.76925e+58
          1118.86930	        -2.53548e+58
          1119.67560	         1.06064e+59
          1120.48190	        -1.33578e+59
          1121.28820	        -1.07300e+59
          1122.09450	        -9.08011e+58
          1122.90080	         4.55658e+57
          1123.70710	         8.10765e+58
          1124.51340	         1.24885e+59
          1125.31970	        -4.90046e+58
          1126.12600	         3.07217e+58
          1126.93230	        -2.65290e+58
          1127.73860	        -4.70007e+58
          1128.54490	         2.74134e+58
          1129.35120	         1.98268e+58
          1130.15750	        -3.51493e+58
          1130.96380	        -5.26453e+58
          1131.77010	         5.61730e+58
          1132.57640	         6.97607e+58
          1133.38270	         3.04081e+58
          1134.18900	         3.49261e+58
          1134.99530	         3.23260e+58
          1135.80160	         2.19618e+58
          1136.60790	         9.66835e+57
          1137.41420	        -1.37224e+58
          1138.22050	         2.39814e+58
          1139.02680	         9.58000e+57
          1139.83310	        -2.42602e+57
          1140.63940	         1.93695e+58
          1141.44570	         7.40073e+57
          1142.25200	         1.34353e+58
          1143.05830	         1.14846e+58
          1143.86460	         1.17981e+58
          1144.67090	         3.39365e+58
          1145.47720	         1.38414e+58
          1146.28350	         9.02454e+57
          1147.08980	         7.28676e+57
          1147.89610	         1.54511e+58
          1148.70240	         2.20210e+58
          1149.50870	         2.07364e+58
          1150.31500	         9.11536e+57
          1151.12130	         5.57500e+57
          1151.92760	         2.77741e+57
          1152.73390	        -9.86391e+57
          1153.54020	         5.80007e+56
          1154.34650	         2.40496e+58
          1155.15280	         1.69919e+58
          1155.95910	         1.58123e+58
          1156.76540	         8.84451e+57
          1157.57170	        -8.87274e+57
          1158.37800	        -6.03278e+57
          1159.18430	        -2.73262e+57
          1159.99060	         3.87948e+57
          1160.79690	         5.00411e+54
          1161.60320	         5.87016e+57
          1162.40950	         2.03333e+58
          1163.21580	         1.69801e+58
          1164.02210	         6.76465e+57
          1164.82840	         1.92609e+58
          1165.63470	         2.48734e+58
          1166.44100	         2.14727e+58
          1167.24730	         1.72354e+58
          1168.05360	         9.66183e+57
          1168.85990	         7.61330e+57
          1169.66620	         6.27432e+57
          1170.47250	         1.06033e+58
          1171.27880	         7.01108e+57
          1172.08510	         1.02965e+58
          1172.89140	         5.55532e+57
          1173.69770	         5.91740e+57
          1174.50400	         1.62711e+58
          1175.31030	         2.11151e+58
          1176.11660	         2.50776e+58
          1176.92290	         1.83191e+58
          1177.72920	         1.15913e+58
          1178.53550	         6.83407e+57
          1179.34180	         4.28469e+57
          1180.14810	         6.92446e+57
          1180.95440	         4.99019e+57
          1181.76070	         4.22280e+57
          1182.56700	         7.17089e+57
          1183.37330	         7.96772e+57
          1184.17960	         1.23357e+58
          1184.98590	         1.40508e+58
          1185.79220	         7.27918e+57
          1186.59850	         1.09318e+58
          1187.40480	         1.15131e+58
          1188.21110	         1.41999e+58
          1189.01740	         7.61686e+57
          1189.82370	         9.17836e+57
          1190.63000	         1.35656e+58
          1191.43630	         1.36930e+58
          1192.24260	         7.50912e+57
          1193.04890	         1.63554e+58
          1193.85520	         1.52893e+58
          1194.66150	         5.62994e+56
          1195.46780	         7.72364e+57
          1196.27410	         1.34304e+58
          1197.08040	         7.33919e+57
          1197.88670	         1.50359e+58
          1198.69300	         1.86053e+58
          1199.49930	         1.70551e+58
          1200.30560	         1.47286e+58
          1201.11190	         1.35696e+58
          1201.91820	         1.54400e+58
          1202.72450	         7.85373e+57
          1203.53080	         1.58861e+58
          1204.33710	         9.98520e+57
          1205.14340	         3.23336e+57
          1205.94970	         6.44612e+57
          1206.75600	         6.61549e+57
          1207.56230	         6.99880e+57
          1208.36860	         9.49332e+57
          1209.17490	         5.03297e+57
          1209.98120	         4.15277e+57
          1210.78750	         1.25904e+58
          1211.59380	         1.40656e+58
          1212.40010	         1.22502e+58
          1213.20640	         1.97214e+58
          1214.01270	         2.02451e+58
          1214.81900	         2.55522e+58
          1215.62530	         4.95795e+58
          1216.43160	         9.35978e+58
          1217.23790	         1.49387e+59
          1218.04420	         1.13669e+59
          1218.85050	         9.01403e+58
          1219.65680	         6.23246e+58
          1220.46310	         3.71342e+58
          1221.26940	         2.52437e+58
          1222.07570	         1.02986e+58
          1222.88200	         9.25069e+57
          1223.68830	         9.78661e+57
          1224.49460	         6.57227e+57
          1225.30090	         5.83181e+57
          1226.10720	         8.49737e+57
          1226.91350	         5.94085e+57
          1227.71980	         8.14512e+57
          1228.52610	         1.04391e+58
          1229.33240	         9.29691e+57
          1230.13870	         1.00115e+58
          1230.94500	         9.97095e+57
          1231.75130	         6.16830e+57
          1232.55760	         8.09592e+57
          1233.36390	         9.77694e+57
          1234.17020	         8.56963e+57
          1234.97650	         7.18640e+57
          1235.78280	         7.11301e+57
          1236.58910	         8.18990e+57
          1237.39540	         8.77780e+57
          1238.20170	         1.07784e+58
          1239.00800	         1.43569e+58
          1239.81430	         1.50925e+58
          1240.62060	         1.05238e+58
          1241.42690	         1.26705e+58
          1242.23320	         1.29892e+58
          1243.03950	         9.12629e+57
          1243.84580	         1.02596e+58
          1244.65210	         1.20767e+58
          1245.45840	         1.08428e+58
          1246.26470	         8.03659e+57
          1247.07100	         6.22450e+57
          1247.87730	         7.65294e+57
          1248.68360	         3.11526e+57
          1249.48990	         3.71418e+57
          1250.29620	         8.48956e+57
          1251.10250	         7.75308e+57
          1251.90880	         6.25967e+57
          1252.71510	         5.43126e+57
          1253.52140	         7.30593e+57
          1254.32770	         1.01116e+58
          1255.13400	         1.28699e+58
          1255.94030	         1.12439e+58
          1256.74660	         1.04389e+58
          1257.55290	         1.23278e+58
          1258.35920	         9.93628e+57
          1259.16550	         7.12095e+57
          1259.97180	         6.11568e+57
          1260.77810	         9.95266e+57
          1261.58440	         1.23972e+58
          1262.39070	         8.78589e+57
          1263.19700	         8.46245e+57
          1264.00330	         9.73237e+57
          1264.80960	         9.74124e+57
          1265.61590	         1.07254e+58
          1266.42220	         1.04737e+58
          1267.22850	         1.00604e+58
          1268.03480	         1.46161e+58
          1268.84110	         1.54893e+58
          1269.64740	         1.19873e+58
          1270.45370	         1.24464e+58
          1271.26000	         1.08637e+58
          1272.06630	         1.08422e+58
          1272.87260	         1.10454e+58
          1273.67890	         1.11920e+58
          1274.48520	         1.36285e+58
          1275.29150	         1.41155e+58
          1276.09780	         1.07526e+58
          1276.90410	         1.32616e+58
          1277.71040	         1.35376e+58
          1278.51670	         1.19076e+58
          1279.32300	         1.23857e+58
          1280.12930	         1.17458e+58
          1280.93560	         1.26139e+58
          1281.74190	         1.42822e+58
          1282.54820	         1.49337e+58
          1283.35450	         1.23446e+58
          1284.16080	         1.20530e+58
          1284.96710	         1.12512e+58
          1285.77340	         9.13151e+57
          1286.57970	         1.18837e+58
          1287.38600	         1.54184e+58
          1288.19230	         1.60852e+58
          1288.99860	         1.39291e+58
          1289.80490	         1.13462e+58
          1290.61120	         1.37061e+58
          1291.41750	         1.40440e+58
          1292.22380	         1.25717e+58
          1293.03010	         1.21969e+58
          1293.83640	         1.33737e+58
          1294.64270	         1.04095e+58
          1295.44900	         6.58026e+57
          1296.25530	         7.31324e+57
          1297.06160	         9.40403e+57
          1297.86790	         1.17795e+58
          1298.67420	         1.22074e+58
          1299.48050	         1.15974e+58
          1300.28680	         9.31805e+57
          1301.09310	         6.33105e+57
          1301.89940	         4.44479e+57
          1302.70570	         6.44721e+57
          1303.51200	         7.87802e+57
          1304.31830	         1.06655e+58
          1305.12460	         1.12754e+58
          1305.93090	         1.16283e+58
          1306.73720	         1.26333e+58
          1307.54350	         1.46992e+58
          1308.34980	         1.50517e+58
          1309.15610	         1.51134e+58
          1309.96240	         1.61362e+58
          1310.76870	         1.65870e+58
          1311.57500	         1.46485e+58
          1312.38130	         1.39893e+58
          1313.18760	         1.48894e+58
          1313.99390	         1.54577e+58
          1314.80020	         1.58616e+58
          1315.60650	         1.50538e+58
          1316.41280	         1.42683e+58
          1317.21910	         1.32622e+58
          1318.02540	         1.24079e+58
          1318.83170	         1.05765e+58
          1319.63800	         1.21071e+58
          1320.44430	         1.15667e+58
          1321.25060	         1.20998e+58
          1322.05690	         1.31529e+58
          1322.86320	         1.44832e+58
          1323.66950	         1.32845e+58
          1324.47580	         8.52507e+57
          1325.28210	         8.61234e+57
          1326.08840	         1.08100e+58
          1326.89470	         1.27267e+58
          1327.70100	         1.07173e+58
          1328.50730	         6.20015e+57
          1329.31360	         8.66791e+57
          1330.11990	         1.03247e+58
          1330.92620	         1.01061e+58
          1331.73250	         1.24743e+58
          1332.53880	         1.05273e+58
          1333.34510	         9.13313e+57
          1334.15140	         9.76925e+57
          1334.95770	         1.09527e+58
          1335.76400	         1.30090e+58
          1336.57030	         1.19597e+58
          1337.37660	         9.40156e+57
          1338.18290	         9.80384e+57
          1338.98920	         1.10798e+58
          1339.79550	         1.11208e+58
          1340.60180	         1.28693e+58
          1341.40810	         1.51713e+58
          1342.21440	         1.12912e+58
          1343.02070	         1.08968e+58
          1343.82700	         1.31191e+58
          1344.63330	         1.36421e+58
          1345.43960	         1.46572e+58
          1346.24590	         1.24459e+58
          1347.05220	         1.14879e+58
          1347.85850	         1.26829e+58
          1348.66480	         1.19287e+58
          1349.47110	         1.17385e+58
          1350.27740	         1.14835e+58
          1351.08370	         1.04816e+58
          1351.89000	         1.14726e+58
          1352.69630	         1.33214e+58
          1353.50260	         1.21185e+58
          1354.30890	         1.13445e+58
          1355.11520	         1.13698e+58
          1355.92150	         1.23995e+58
          1356.72780	         1.09938e+58
          1357.53410	         1.13052e+58
          1358.34040	         1.29659e+58
          1359.14670	         1.26406e+58
          1359.95300	         1.20750e+58
          1360.75930	         1.19422e+58
          1361.56560	         1.05397e+58
          1362.37190	         1.14790e+58
          1363.17820	         1.13327e+58
          1363.98450	         1.15614e+58
          1364.79080	         1.26452e+58
          1365.59710	         1.23836e+58
          1366.40340	         1.10899e+58
          1367.20970	         1.02337e+58
          1368.01600	         1.06569e+58
          1368.82230	         9.39018e+57
          1369.62860	         1.03463e+58
          1370.43490	         9.49152e+57
          1371.24120	         9.33290e+57
          1372.04750	         8.79876e+57
          1372.85380	         9.86370e+57
          1373.66010	         1.03611e+58
          1374.46640	         1.03524e+58
          1375.27270	         1.15652e+58
          1376.07900	         1.01647e+58
          1376.88530	         9.19485e+57
          1377.69160	         9.82896e+57
          1378.49790	         7.74627e+57
          1379.30420	         6.48270e+57
          1380.11050	         7.90214e+57
          1380.91680	         8.49222e+57
          1381.72310	         8.03384e+57
          1382.52940	         8.29153e+57
          1383.33570	         9.95338e+57
          1384.14200	         1.17102e+58
          1384.94830	         1.09803e+58
          1385.75460	         1.11399e+58
          1386.56090	         1.13931e+58
          1387.36720	         1.05500e+58
          1388.17350	         1.28295e+58
          1388.97980	         1.25012e+58
          1389.78610	         8.33119e+57
          1390.59240	         6.50125e+57
          1391.39870	         6.87508e+57
          1392.20500	         8.14952e+57
          1393.01130	         7.80063e+57
          1393.81760	         6.82850e+57
          1394.62390	         7.62172e+57
          1395.43020	         7.71544e+57
          1396.23650	         6.57615e+57
          1397.04280	         7.43215e+57
          1397.84910	         9.53748e+57
          1398.65540	         7.73708e+57
          1399.46170	         7.32123e+57
          1400.26800	         7.56315e+57
          1401.07430	         7.77085e+57
          1401.88060	         8.49238e+57
          1402.68690	         8.98540e+57
          1403.49320	         8.71802e+57
          1404.29950	         8.62404e+57
          1405.10580	         1.00357e+58
          1405.91210	         1.10714e+58
          1406.71840	         1.12864e+58
          1407.52470	         1.12024e+58
          1408.33100	         1.10279e+58
          1409.13730	         1.14678e+58
          1409.94360	         1.11254e+58
          1410.74990	         1.03285e+58
          1411.55620	         9.68652e+57
          1412.36250	         9.55985e+57
          1413.16880	         9.43827e+57
          1413.97510	         8.54155e+57
          1414.78140	         9.08156e+57
          1415.58770	         1.07584e+58
          1416.39400	         1.01742e+58
          1417.20030	         1.00248e+58
          1418.00660	         9.25093e+57
          1418.81290	         9.34714e+57
          1419.61920	         9.04408e+57
          1420.42550	         1.15827e+58
          1421.23180	         1.26563e+58
          1422.03810	         1.17711e+58
          1422.84440	         1.12002e+58
          1423.65070	         1.36087e+58
          1424.45700	         1.26508e+58
          1425.26330	         9.27122e+57
          1426.06960	         9.81044e+57
          1426.87590	         1.03603e+58
          1427.68220	         8.83512e+57
          1428.48850	         9.92247e+57
          1429.29480	         1.06684e+58
          1430.10110	         9.81786e+57
          1430.90740	         8.75362e+57
          1431.71370	         8.31660e+57
          1432.52000	         8.58931e+57
          1433.32630	         7.87726e+57
          1434.13260	         7.56517e+57
          1434.93890	         7.60524e+57
          1435.74520	         8.52987e+57
          1436.55150	         8.73165e+57
          1437.35780	         9.29410e+57
          1438.16410	         9.66070e+57
          1438.97040	         9.37194e+57
          1439.77670	         8.78119e+57
          1440.58300	         9.09485e+57
          1441.38930	         1.03253e+58
          1442.19560	         1.05431e+58
          1443.00190	         1.02994e+58
          1443.80820	         1.10814e+58
          1444.61450	         9.56627e+57
          1445.42080	         8.57829e+57
          1446.22710	         9.68591e+57
          1447.03340	         1.00637e+58
          1447.83970	         9.79095e+57
          1448.64600	         1.05170e+58
          1449.45230	         1.04742e+58
          1450.25860	         9.89194e+57
          1451.06490	         8.37652e+57
          1451.87120	         7.62442e+57
          1452.67750	         7.14947e+57
          1453.48380	         7.97955e+57
          1454.29010	         7.24674e+57
          1455.09640	         6.26578e+57
          1455.90270	         8.09902e+57
          1456.70900	         7.83894e+57
          1457.51530	         8.92296e+57
          1458.32160	         1.20884e+58
          1459.12790	         1.23318e+58
          1459.93420	         1.01251e+58
          1460.74050	         8.60901e+57
          1461.54680	         7.49897e+57
          1462.35310	         7.80572e+57
          1463.15940	         9.52574e+57
          1463.96570	         1.13561e+58
          1464.77200	         1.17335e+58
          1465.57830	         1.07894e+58
          1466.38460	         9.75866e+57
          1467.19090	         8.86456e+57
          1467.99720	         8.68313e+57
          1468.80350	         9.15298e+57
          1469.60980	         1.01845e+58
          1470.41610	         1.12850e+58
          1471.22240	         1.01706e+58
          1472.02870	         9.87379e+57
          1472.83500	         1.02651e+58
          1473.64130	         1.03853e+58
          1474.44760	         9.73819e+57
          1475.25390	         9.56031e+57
          1476.06020	         8.58871e+57
          1476.86650	         8.49824e+57
          1477.67280	         8.78812e+57
          1478.47910	         7.99921e+57
          1479.28540	         7.51302e+57
          1480.09170	         8.19860e+57
          1480.89800	         8.10253e+57
          1481.70430	         8.01902e+57
          1482.51060	         7.84550e+57
          1483.31690	         7.39879e+57
          1484.12320	         8.39488e+57
          1484.92950	         8.33892e+57
          1485.73580	         8.73032e+57
          1486.54210	         9.54699e+57
          1487.34840	         8.94568e+57
          1488.15470	         8.67708e+57
          1488.96100	         1.00993e+58
          1489.76730	         1.01011e+58
