#sample_164_stacked_spectrum_rest_UV-bands_median_H-alpha_noDC.txt
#median Lum: 1.69031e+42
#Rest-frame wavelength (A) | Luminosity (erg/s/A)
#
          1110.00000	         0.00000e+00
          1110.80630	        -3.46640e+59
          1111.61260	        -2.71132e+59
          1112.41890	         3.58032e+58
          1113.22520	        -1.15765e+59
          1114.03150	        -1.85692e+59
          1114.83780	         8.10557e+58
          1115.64410	        -8.83879e+58
          1116.45040	         2.03809e+59
          1117.25670	         6.87934e+58
          1118.06300	         2.43917e+59
          1118.86930	        -2.44864e+58
          1119.67560	         4.88114e+58
          1120.48190	        -2.79126e+58
          1121.28820	        -2.41514e+58
          1122.09450	         5.28095e+58
          1122.90080	         1.07759e+59
          1123.70710	         1.08057e+59
          1124.51340	         6.71733e+58
          1125.31970	        -3.56300e+58
          1126.12600	        -4.48615e+58
          1126.93230	        -4.39995e+58
          1127.73860	        -5.99595e+58
          1128.54490	         5.50369e+58
          1129.35120	         3.85065e+58
          1130.15750	        -1.51124e+58
          1130.96380	        -2.64369e+58
          1131.77010	         5.31152e+58
          1132.57640	         4.63960e+58
          1133.38270	         3.85709e+58
          1134.18900	         6.08618e+56
          1134.99530	         5.87391e+57
          1135.80160	         7.68331e+57
          1136.60790	         3.73010e+57
          1137.41420	         1.15958e+58
          1138.22050	         3.49417e+58
          1139.02680	         1.70246e+58
          1139.83310	         2.38934e+58
          1140.63940	         1.77225e+58
          1141.44570	        -2.25138e+58
          1142.25200	        -1.83627e+58
          1143.05830	         1.59052e+58
          1143.86460	         2.56344e+58
          1144.67090	         3.38408e+58
          1145.47720	         1.28658e+58
          1146.28350	         1.73387e+58
          1147.08980	         1.44156e+58
          1147.89610	         2.42188e+58
          1148.70240	         2.29156e+58
          1149.50870	         1.68469e+58
          1150.31500	         1.27358e+58
          1151.12130	         1.46424e+57
          1151.92760	        -7.06550e+57
          1152.73390	        -1.23352e+58
          1153.54020	        -4.31833e+57
          1154.34650	         2.03454e+58
          1155.15280	         1.84967e+58
          1155.95910	         5.25749e+57
          1156.76540	        -1.59456e+57
          1157.57170	         8.51284e+57
          1158.37800	         9.11683e+57
          1159.18430	        -1.52513e+57
          1159.99060	         1.67240e+57
          1160.79690	         3.86825e+57
          1161.60320	         9.85626e+57
          1162.40950	         1.38619e+58
          1163.21580	         1.06583e+58
          1164.02210	         1.31273e+58
          1164.82840	         1.05645e+58
          1165.63470	         2.83448e+58
          1166.44100	         3.17984e+58
          1167.24730	         2.23461e+58
          1168.05360	         1.45706e+58
          1168.85990	        -3.81400e+56
          1169.66620	         1.86396e+57
          1170.47250	         1.22486e+58
          1171.27880	         9.78731e+57
          1172.08510	         1.56120e+58
          1172.89140	         1.25061e+58
          1173.69770	         9.75611e+57
          1174.50400	         1.08162e+58
          1175.31030	         9.36855e+57
          1176.11660	         1.70815e+58
          1176.92290	         1.29722e+58
          1177.72920	         1.07727e+58
          1178.53550	         8.56444e+57
          1179.34180	         4.76659e+57
          1180.14810	         8.53252e+57
          1180.95440	         1.18676e+58
          1181.76070	         5.65231e+57
          1182.56700	         6.62682e+57
          1183.37330	         5.85383e+57
          1184.17960	         1.21623e+58
          1184.98590	         1.40703e+58
          1185.79220	         8.26646e+57
          1186.59850	         1.46546e+58
          1187.40480	         1.00075e+58
          1188.21110	         1.68418e+58
          1189.01740	         1.21490e+58
          1189.82370	         1.61924e+58
          1190.63000	         1.53717e+58
          1191.43630	         1.45956e+58
          1192.24260	         9.20587e+57
          1193.04890	         1.20495e+58
          1193.85520	         1.22709e+58
          1194.66150	         2.09921e+57
          1195.46780	         5.56804e+57
          1196.27410	         1.65442e+58
          1197.08040	         9.78975e+57
          1197.88670	         1.20904e+58
          1198.69300	         1.47599e+58
          1199.49930	         1.48220e+58
          1200.30560	         1.18812e+58
          1201.11190	         1.08646e+58
          1201.91820	         6.06291e+57
          1202.72450	         4.93738e+57
          1203.53080	         1.19483e+58
          1204.33710	         7.85601e+57
          1205.14340	         5.47217e+57
          1205.94970	         5.86028e+57
          1206.75600	         6.45303e+57
          1207.56230	         7.54078e+57
          1208.36860	         1.09883e+58
          1209.17490	         3.99192e+57
          1209.98120	         5.66219e+57
          1210.78750	         4.61425e+57
          1211.59380	         8.05022e+57
          1212.40010	         1.91811e+58
          1213.20640	         2.01274e+58
          1214.01270	         2.19087e+58
          1214.81900	         2.62495e+58
          1215.62530	         4.45649e+58
          1216.43160	         8.95928e+58
          1217.23790	         1.50802e+59
          1218.04420	         1.14743e+59
          1218.85050	         8.57709e+58
          1219.65680	         5.70317e+58
          1220.46310	         3.40458e+58
          1221.26940	         2.15534e+58
          1222.07570	         1.18158e+58
          1222.88200	         7.07518e+57
          1223.68830	         8.50557e+57
          1224.49460	         5.68715e+57
          1225.30090	         8.34761e+57
          1226.10720	         5.48889e+57
          1226.91350	         4.78545e+57
          1227.71980	         7.95026e+57
          1228.52610	         1.01568e+58
          1229.33240	         1.15294e+58
          1230.13870	         1.57131e+58
          1230.94500	         1.01361e+58
          1231.75130	         8.35926e+57
          1232.55760	         9.98869e+57
          1233.36390	         8.14142e+57
          1234.17020	         7.30730e+57
          1234.97650	         6.27265e+57
          1235.78280	         7.31487e+57
          1236.58910	         9.23633e+57
          1237.39540	         1.09605e+58
          1238.20170	         1.04961e+58
          1239.00800	         1.16160e+58
          1239.81430	         1.46615e+58
          1240.62060	         1.13097e+58
          1241.42690	         8.17113e+57
          1242.23320	         1.17290e+58
          1243.03950	         7.82086e+57
          1243.84580	         6.53985e+57
          1244.65210	         9.86935e+57
          1245.45840	         9.10530e+57
          1246.26470	         6.44297e+57
          1247.07100	         6.96092e+57
          1247.87730	         8.46956e+57
          1248.68360	         4.49503e+57
          1249.48990	         5.57990e+57
          1250.29620	         9.92984e+57
          1251.10250	         8.56725e+57
          1251.90880	         5.46717e+57
          1252.71510	         5.77623e+57
          1253.52140	         6.25431e+57
          1254.32770	         8.39479e+57
          1255.13400	         1.12805e+58
          1255.94030	         1.16534e+58
          1256.74660	         1.13402e+58
          1257.55290	         1.18771e+58
          1258.35920	         9.14642e+57
          1259.16550	         6.13475e+57
          1259.97180	         5.12344e+57
          1260.77810	         8.31421e+57
          1261.58440	         1.15716e+58
          1262.39070	         9.41853e+57
          1263.19700	         9.35367e+57
          1264.00330	         9.91160e+57
          1264.80960	         1.12960e+58
          1265.61590	         1.39185e+58
          1266.42220	         1.24030e+58
          1267.22850	         1.00980e+58
          1268.03480	         1.35505e+58
          1268.84110	         1.41408e+58
          1269.64740	         1.24131e+58
          1270.45370	         1.36044e+58
          1271.26000	         1.21779e+58
          1272.06630	         1.23690e+58
          1272.87260	         1.19810e+58
          1273.67890	         1.11382e+58
          1274.48520	         1.34826e+58
          1275.29150	         1.25931e+58
          1276.09780	         9.79685e+57
          1276.90410	         1.34031e+58
          1277.71040	         1.36248e+58
          1278.51670	         1.14573e+58
          1279.32300	         1.32245e+58
          1280.12930	         1.40413e+58
          1280.93560	         1.16098e+58
          1281.74190	         1.21351e+58
          1282.54820	         1.24643e+58
          1283.35450	         1.00310e+58
          1284.16080	         1.16784e+58
          1284.96710	         1.31259e+58
          1285.77340	         1.09225e+58
          1286.57970	         1.16154e+58
          1287.38600	         1.60085e+58
          1288.19230	         1.91070e+58
          1288.99860	         1.52621e+58
          1289.80490	         1.21770e+58
          1290.61120	         1.36949e+58
          1291.41750	         1.33197e+58
          1292.22380	         1.17298e+58
          1293.03010	         1.13950e+58
          1293.83640	         1.24504e+58
          1294.64270	         1.05206e+58
          1295.44900	         6.85318e+57
          1296.25530	         7.34399e+57
          1297.06160	         1.00509e+58
          1297.86790	         9.87084e+57
          1298.67420	         8.12335e+57
          1299.48050	         9.23907e+57
          1300.28680	         1.08947e+58
          1301.09310	         8.75976e+57
          1301.89940	         3.84232e+57
          1302.70570	         5.89608e+57
          1303.51200	         8.28697e+57
          1304.31830	         9.62427e+57
          1305.12460	         1.02320e+58
          1305.93090	         1.05304e+58
          1306.73720	         1.21726e+58
          1307.54350	         1.40613e+58
          1308.34980	         1.40450e+58
          1309.15610	         1.57085e+58
          1309.96240	         1.65782e+58
          1310.76870	         1.35732e+58
          1311.57500	         9.62892e+57
          1312.38130	         1.01652e+58
          1313.18760	         1.41571e+58
          1313.99390	         1.62470e+58
          1314.80020	         1.61351e+58
          1315.60650	         1.44850e+58
          1316.41280	         1.24004e+58
          1317.21910	         9.64915e+57
          1318.02540	         1.09254e+58
          1318.83170	         1.19381e+58
          1319.63800	         1.10062e+58
          1320.44430	         1.07618e+58
          1321.25060	         1.26035e+58
          1322.05690	         1.35526e+58
          1322.86320	         1.29931e+58
          1323.66950	         9.72254e+57
          1324.47580	         7.87862e+57
          1325.28210	         9.27213e+57
          1326.08840	         1.19268e+58
          1326.89470	         1.39102e+58
          1327.70100	         1.16131e+58
          1328.50730	         7.35923e+57
          1329.31360	         9.49564e+57
          1330.11990	         1.13892e+58
          1330.92620	         9.98604e+57
          1331.73250	         1.08155e+58
          1332.53880	         9.44826e+57
          1333.34510	         8.04309e+57
          1334.15140	         8.72317e+57
          1334.95770	         8.60325e+57
          1335.76400	         1.02588e+58
          1336.57030	         1.08050e+58
          1337.37660	         1.15415e+58
          1338.18290	         1.07901e+58
          1338.98920	         1.08464e+58
          1339.79550	         1.23710e+58
          1340.60180	         1.11100e+58
          1341.40810	         1.35065e+58
          1342.21440	         1.31283e+58
          1343.02070	         1.14217e+58
          1343.82700	         1.39012e+58
          1344.63330	         1.32904e+58
          1345.43960	         1.09933e+58
          1346.24590	         9.38789e+57
          1347.05220	         1.23981e+58
          1347.85850	         1.24985e+58
          1348.66480	         1.21253e+58
          1349.47110	         1.28024e+58
          1350.27740	         1.19181e+58
          1351.08370	         1.19109e+58
          1351.89000	         1.28776e+58
          1352.69630	         1.30634e+58
          1353.50260	         1.11967e+58
          1354.30890	         1.19481e+58
          1355.11520	         1.22740e+58
          1355.92150	         1.12408e+58
          1356.72780	         1.07725e+58
          1357.53410	         9.91863e+57
          1358.34040	         1.16248e+58
          1359.14670	         1.12586e+58
          1359.95300	         9.39753e+57
          1360.75930	         1.02814e+58
          1361.56560	         1.11067e+58
          1362.37190	         1.18501e+58
          1363.17820	         1.21625e+58
          1363.98450	         1.18797e+58
          1364.79080	         1.23804e+58
          1365.59710	         1.12341e+58
          1366.40340	         1.04447e+58
          1367.20970	         1.07851e+58
          1368.01600	         9.16579e+57
          1368.82230	         8.55450e+57
          1369.62860	         1.08052e+58
          1370.43490	         9.19295e+57
          1371.24120	         9.27559e+57
          1372.04750	         1.03598e+58
          1372.85380	         1.13512e+58
          1373.66010	         1.10049e+58
          1374.46640	         1.10025e+58
          1375.27270	         1.08117e+58
          1376.07900	         9.88783e+57
          1376.88530	         9.30416e+57
          1377.69160	         9.12596e+57
          1378.49790	         7.45174e+57
          1379.30420	         6.13027e+57
          1380.11050	         8.66062e+57
          1380.91680	         9.97337e+57
          1381.72310	         9.22526e+57
          1382.52940	         9.08549e+57
          1383.33570	         9.15299e+57
          1384.14200	         9.36470e+57
          1384.94830	         9.44099e+57
          1385.75460	         9.93576e+57
          1386.56090	         1.05896e+58
          1387.36720	         1.02405e+58
          1388.17350	         1.32027e+58
          1388.97980	         1.12267e+58
          1389.78610	         8.74996e+57
          1390.59240	         9.59710e+57
          1391.39870	         9.15605e+57
          1392.20500	         9.10314e+57
          1393.01130	         8.44864e+57
          1393.81760	         6.96094e+57
          1394.62390	         6.92043e+57
          1395.43020	         7.49821e+57
          1396.23650	         7.35605e+57
          1397.04280	         5.93209e+57
          1397.84910	         7.92572e+57
          1398.65540	         8.73332e+57
          1399.46170	         9.45474e+57
          1400.26800	         8.46417e+57
          1401.07430	         6.80373e+57
          1401.88060	         7.94839e+57
          1402.68690	         9.84201e+57
          1403.49320	         9.54486e+57
          1404.29950	         8.53398e+57
          1405.10580	         9.30515e+57
          1405.91210	         1.07343e+58
          1406.71840	         1.04324e+58
          1407.52470	         1.03029e+58
          1408.33100	         1.13548e+58
          1409.13730	         1.28518e+58
          1409.94360	         1.21854e+58
          1410.74990	         1.12446e+58
          1411.55620	         1.06062e+58
          1412.36250	         9.79238e+57
          1413.16880	         9.36822e+57
          1413.97510	         8.12469e+57
          1414.78140	         9.04642e+57
          1415.58770	         1.08331e+58
          1416.39400	         1.11480e+58
          1417.20030	         1.07119e+58
          1418.00660	         9.72002e+57
          1418.81290	         1.08945e+58
          1419.61920	         1.15841e+58
          1420.42550	         1.27764e+58
          1421.23180	         1.37452e+58
          1422.03810	         1.18382e+58
          1422.84440	         1.17448e+58
          1423.65070	         1.21209e+58
          1424.45700	         1.09441e+58
          1425.26330	         8.95792e+57
          1426.06960	         9.02886e+57
          1426.87590	         1.04034e+58
          1427.68220	         1.06993e+58
          1428.48850	         1.15561e+58
          1429.29480	         1.16072e+58
          1430.10110	         1.00743e+58
          1430.90740	         7.94219e+57
          1431.71370	         7.77256e+57
          1432.52000	         8.19434e+57
          1433.32630	         8.28655e+57
          1434.13260	         8.25747e+57
          1434.93890	         7.84832e+57
          1435.74520	         9.33694e+57
          1436.55150	         9.55475e+57
          1437.35780	         8.47607e+57
          1438.16410	         8.28043e+57
          1438.97040	         8.35567e+57
          1439.77670	         8.10940e+57
          1440.58300	         8.83566e+57
          1441.38930	         9.70864e+57
          1442.19560	         8.88980e+57
          1443.00190	         9.66353e+57
          1443.80820	         1.11734e+58
          1444.61450	         9.18808e+57
          1445.42080	         8.35235e+57
          1446.22710	         1.04184e+58
          1447.03340	         9.74597e+57
          1447.83970	         9.88259e+57
          1448.64600	         1.01751e+58
          1449.45230	         1.07564e+58
          1450.25860	         1.07413e+58
          1451.06490	         8.79483e+57
          1451.87120	         7.91008e+57
          1452.67750	         6.99013e+57
          1453.48380	         7.93982e+57
          1454.29010	         7.83850e+57
          1455.09640	         8.00683e+57
          1455.90270	         9.84961e+57
          1456.70900	         9.64679e+57
          1457.51530	         9.93694e+57
          1458.32160	         1.17370e+58
          1459.12790	         1.18376e+58
          1459.93420	         1.03026e+58
          1460.74050	         8.34815e+57
          1461.54680	         7.93004e+57
          1462.35310	         8.53104e+57
          1463.15940	         9.83229e+57
          1463.96570	         1.18542e+58
          1464.77200	         1.14176e+58
          1465.57830	         9.76161e+57
          1466.38460	         8.86608e+57
          1467.19090	         7.87038e+57
          1467.99720	         8.66666e+57
          1468.80350	         9.12901e+57
          1469.60980	         9.91587e+57
          1470.41610	         1.02967e+58
          1471.22240	         8.97791e+57
          1472.02870	         9.69717e+57
          1472.83500	         9.81939e+57
          1473.64130	         9.34939e+57
          1474.44760	         9.85951e+57
          1475.25390	         1.00992e+58
          1476.06020	         9.39534e+57
          1476.86650	         8.17651e+57
          1477.67280	         7.13516e+57
          1478.47910	         6.33753e+57
          1479.28540	         5.16418e+57
          1480.09170	         7.71955e+57
          1480.89800	         8.92651e+57
          1481.70430	         8.61413e+57
          1482.51060	         9.27055e+57
          1483.31690	         8.08054e+57
          1484.12320	         8.09619e+57
          1484.92950	         8.51375e+57
          1485.73580	         8.19355e+57
          1486.54210	         8.83873e+57
          1487.34840	         9.16050e+57
          1488.15470	         9.13363e+57
          1488.96100	         8.85703e+57
          1489.76730	         8.02302e+57
