#sample_32_stacked_spectrum_rest_UV-bands_median_H-alpha_noDC.txt
#median Lum: 1.67965e+42
#Rest-frame wavelength (A) | Luminosity (erg/s/A)
#
          1110.00000	         0.00000e+00
          1110.80630	         3.18972e+59
          1111.61260	        -1.06150e+59
          1112.41890	         6.28228e+58
          1113.22520	         4.97803e+58
          1114.03150	        -4.71862e+58
          1114.83780	         2.32501e+59
          1115.64410	         1.37763e+59
          1116.45040	         1.46971e+59
          1117.25670	         1.06099e+59
          1118.06300	         2.14202e+59
          1118.86930	         3.82248e+58
          1119.67560	         1.07841e+59
          1120.48190	        -8.75956e+58
          1121.28820	        -1.66351e+59
          1122.09450	         1.87048e+58
          1122.90080	         4.78497e+55
          1123.70710	         8.37819e+58
          1124.51340	         6.54750e+58
          1125.31970	         6.79642e+58
          1126.12600	         4.59276e+58
          1126.93230	        -3.73551e+58
          1127.73860	        -4.02738e+58
          1128.54490	        -1.49438e+58
          1129.35120	        -4.30851e+57
          1130.15750	         2.11996e+58
          1130.96380	         3.03529e+57
          1131.77010	         4.23743e+58
          1132.57640	         4.78306e+58
          1133.38270	         3.65018e+58
          1134.18900	         1.68234e+58
          1134.99530	         3.58218e+57
          1135.80160	         2.11196e+58
          1136.60790	         1.93016e+58
          1137.41420	        -1.85751e+58
          1138.22050	         1.24826e+58
          1139.02680	         3.26287e+58
          1139.83310	         2.03509e+58
          1140.63940	         1.93576e+58
          1141.44570	        -1.73914e+58
          1142.25200	        -1.34875e+58
          1143.05830	         1.46847e+58
          1143.86460	         2.69375e+58
          1144.67090	         1.62029e+58
          1145.47720	         1.24806e+58
          1146.28350	         3.43609e+57
          1147.08980	         1.70677e+58
          1147.89610	         1.92134e+58
          1148.70240	         2.00692e+58
          1149.50870	         2.56153e+58
          1150.31500	         7.47262e+57
          1151.12130	         9.50472e+57
          1151.92760	         1.51970e+57
          1152.73390	        -3.47694e+57
          1153.54020	        -6.64536e+56
          1154.34650	         9.27520e+57
          1155.15280	         1.08242e+58
          1155.95910	         9.36685e+57
          1156.76540	         1.31924e+58
          1157.57170	        -4.57965e+57
          1158.37800	        -2.43756e+57
          1159.18430	        -6.18232e+57
          1159.99060	         9.38863e+56
          1160.79690	         3.24357e+57
          1161.60320	         1.55594e+58
          1162.40950	         2.25678e+58
          1163.21580	         2.03034e+58
          1164.02210	         1.72006e+58
          1164.82840	         1.24167e+58
          1165.63470	         2.68419e+58
          1166.44100	         3.32995e+58
          1167.24730	         1.98638e+58
          1168.05360	         3.95820e+57
          1168.85990	         2.97187e+57
          1169.66620	         2.91402e+57
          1170.47250	         1.07564e+58
          1171.27880	         8.19136e+57
          1172.08510	         1.13192e+58
          1172.89140	         1.16599e+58
          1173.69770	         5.43450e+57
          1174.50400	         1.14803e+58
          1175.31030	         1.99506e+58
          1176.11660	         2.06040e+58
          1176.92290	         1.06693e+58
          1177.72920	         1.32664e+58
          1178.53550	         7.97141e+57
          1179.34180	         5.68838e+57
          1180.14810	         4.06943e+57
          1180.95440	         9.35240e+57
          1181.76070	         1.26206e+58
          1182.56700	         9.67263e+57
          1183.37330	         4.93016e+57
          1184.17960	         1.07830e+58
          1184.98590	         1.00580e+58
          1185.79220	         8.64719e+57
          1186.59850	         6.67358e+57
          1187.40480	         1.16537e+58
          1188.21110	         1.25031e+58
          1189.01740	         5.72853e+57
          1189.82370	         7.37472e+57
          1190.63000	         1.19965e+58
          1191.43630	         1.30009e+58
          1192.24260	         9.89557e+57
          1193.04890	         9.20577e+57
          1193.85520	         1.58475e+58
          1194.66150	         7.58498e+57
          1195.46780	         9.97637e+57
          1196.27410	         9.39530e+57
          1197.08040	         6.31445e+57
          1197.88670	         1.38981e+58
          1198.69300	         1.78762e+58
          1199.49930	         1.75819e+58
          1200.30560	         1.40191e+58
          1201.11190	         1.09985e+58
          1201.91820	         6.61834e+57
          1202.72450	         7.94898e+57
          1203.53080	         1.14881e+58
          1204.33710	         6.59846e+57
          1205.14340	         7.25356e+57
          1205.94970	         7.68961e+57
          1206.75600	         9.10677e+57
          1207.56230	         4.61277e+57
          1208.36860	         8.30685e+57
          1209.17490	         5.40973e+57
          1209.98120	         5.25809e+57
          1210.78750	         7.61427e+57
          1211.59380	         1.25658e+58
          1212.40010	         1.90001e+58
          1213.20640	         1.77298e+58
          1214.01270	         2.04855e+58
          1214.81900	         2.76609e+58
          1215.62530	         4.80802e+58
          1216.43160	         8.96054e+58
          1217.23790	         1.47089e+59
          1218.04420	         1.16190e+59
          1218.85050	         9.00950e+58
          1219.65680	         5.38625e+58
          1220.46310	         3.37694e+58
          1221.26940	         2.58555e+58
          1222.07570	         1.56933e+58
          1222.88200	         1.33109e+58
          1223.68830	         1.07220e+58
          1224.49460	         7.21079e+57
          1225.30090	         5.91800e+57
          1226.10720	         6.57032e+57
          1226.91350	         1.01210e+58
          1227.71980	         9.39669e+57
          1228.52610	         1.30873e+58
          1229.33240	         7.95393e+57
          1230.13870	         8.27865e+57
          1230.94500	         6.61674e+57
          1231.75130	         5.29004e+57
          1232.55760	         8.86239e+57
          1233.36390	         9.36134e+57
          1234.17020	         8.98122e+57
          1234.97650	         7.35762e+57
          1235.78280	         7.40396e+57
          1236.58910	         7.94519e+57
          1237.39540	         1.04479e+58
          1238.20170	         1.00908e+58
          1239.00800	         1.23386e+58
          1239.81430	         1.45930e+58
          1240.62060	         1.19023e+58
          1241.42690	         9.80227e+57
          1242.23320	         9.51971e+57
          1243.03950	         9.16936e+57
          1243.84580	         7.67971e+57
          1244.65210	         1.00021e+58
          1245.45840	         1.01255e+58
          1246.26470	         7.63067e+57
          1247.07100	         7.57183e+57
          1247.87730	         9.47636e+57
          1248.68360	         2.99387e+57
          1249.48990	         6.80444e+57
          1250.29620	         8.30679e+57
          1251.10250	         7.42414e+57
          1251.90880	         4.74807e+57
          1252.71510	         8.37873e+57
          1253.52140	         9.68478e+57
          1254.32770	         1.01188e+58
          1255.13400	         1.28853e+58
          1255.94030	         1.15974e+58
          1256.74660	         1.15526e+58
          1257.55290	         1.09902e+58
          1258.35920	         9.87317e+57
          1259.16550	         8.77598e+57
          1259.97180	         5.68100e+57
          1260.77810	         9.78295e+57
          1261.58440	         1.31716e+58
          1262.39070	         1.04156e+58
          1263.19700	         8.47373e+57
          1264.00330	         8.91971e+57
          1264.80960	         9.19406e+57
          1265.61590	         1.17729e+58
          1266.42220	         1.31562e+58
          1267.22850	         1.23523e+58
          1268.03480	         1.54661e+58
          1268.84110	         1.68674e+58
          1269.64740	         1.37023e+58
          1270.45370	         1.32561e+58
          1271.26000	         1.10111e+58
          1272.06630	         1.12882e+58
          1272.87260	         1.27770e+58
          1273.67890	         1.42417e+58
          1274.48520	         1.50592e+58
          1275.29150	         1.48710e+58
          1276.09780	         1.24397e+58
          1276.90410	         1.36669e+58
          1277.71040	         1.14379e+58
          1278.51670	         1.18358e+58
          1279.32300	         1.36182e+58
          1280.12930	         1.07805e+58
          1280.93560	         8.98004e+57
          1281.74190	         9.43841e+57
          1282.54820	         9.26103e+57
          1283.35450	         9.11185e+57
          1284.16080	         1.39318e+58
          1284.96710	         1.54250e+58
          1285.77340	         1.34940e+58
          1286.57970	         1.34950e+58
          1287.38600	         1.65997e+58
          1288.19230	         1.89566e+58
          1288.99860	         1.60097e+58
          1289.80490	         1.16526e+58
          1290.61120	         1.25854e+58
          1291.41750	         1.43039e+58
          1292.22380	         1.33905e+58
          1293.03010	         1.14577e+58
          1293.83640	         1.16226e+58
          1294.64270	         9.71489e+57
          1295.44900	         7.30727e+57
          1296.25530	         7.47712e+57
          1297.06160	         1.01679e+58
          1297.86790	         1.16707e+58
          1298.67420	         9.29702e+57
          1299.48050	         1.16234e+58
          1300.28680	         1.13499e+58
          1301.09310	         5.59319e+57
          1301.89940	         3.78694e+57
          1302.70570	         5.62339e+57
          1303.51200	         8.59002e+57
          1304.31830	         1.01161e+58
          1305.12460	         1.03275e+58
          1305.93090	         1.03344e+58
          1306.73720	         1.21064e+58
          1307.54350	         1.49452e+58
          1308.34980	         1.48322e+58
          1309.15610	         1.50989e+58
          1309.96240	         1.54614e+58
          1310.76870	         1.25181e+58
          1311.57500	         1.07462e+58
          1312.38130	         8.97844e+57
          1313.18760	         1.13099e+58
          1313.99390	         1.52209e+58
          1314.80020	         1.46015e+58
          1315.60650	         1.42877e+58
          1316.41280	         1.35455e+58
          1317.21910	         1.31573e+58
          1318.02540	         1.35325e+58
          1318.83170	         1.31696e+58
          1319.63800	         1.33762e+58
          1320.44430	         1.19640e+58
          1321.25060	         1.11000e+58
          1322.05690	         1.22383e+58
          1322.86320	         1.18493e+58
          1323.66950	         1.10374e+58
          1324.47580	         9.55171e+57
          1325.28210	         8.87474e+57
          1326.08840	         1.01787e+58
          1326.89470	         1.09717e+58
          1327.70100	         9.27838e+57
          1328.50730	         8.11712e+57
          1329.31360	         8.25858e+57
          1330.11990	         8.99414e+57
          1330.92620	         9.65788e+57
          1331.73250	         1.04361e+58
          1332.53880	         9.01638e+57
          1333.34510	         8.85716e+57
          1334.15140	         9.41963e+57
          1334.95770	         8.55940e+57
          1335.76400	         1.02560e+58
          1336.57030	         1.22570e+58
          1337.37660	         1.18474e+58
          1338.18290	         1.10144e+58
          1338.98920	         1.17612e+58
          1339.79550	         1.17384e+58
          1340.60180	         1.11142e+58
          1341.40810	         1.22041e+58
          1342.21440	         1.21388e+58
          1343.02070	         1.34776e+58
          1343.82700	         1.40570e+58
          1344.63330	         1.34253e+58
          1345.43960	         1.32607e+58
          1346.24590	         1.14012e+58
          1347.05220	         1.11671e+58
          1347.85850	         1.17217e+58
          1348.66480	         1.19151e+58
          1349.47110	         1.26589e+58
          1350.27740	         1.28946e+58
          1351.08370	         1.20251e+58
          1351.89000	         1.09808e+58
          1352.69630	         1.04033e+58
          1353.50260	         1.04480e+58
          1354.30890	         1.23566e+58
          1355.11520	         1.10739e+58
          1355.92150	         9.48341e+57
          1356.72780	         1.01050e+58
          1357.53410	         1.13291e+58
          1358.34040	         1.20328e+58
          1359.14670	         1.12607e+58
          1359.95300	         1.18958e+58
          1360.75930	         1.09667e+58
          1361.56560	         1.02829e+58
          1362.37190	         9.88962e+57
          1363.17820	         9.71484e+57
          1363.98450	         1.05077e+58
          1364.79080	         1.31338e+58
          1365.59710	         1.38635e+58
          1366.40340	         1.23185e+58
          1367.20970	         1.18037e+58
          1368.01600	         1.01565e+58
          1368.82230	         1.16172e+58
          1369.62860	         1.14126e+58
          1370.43490	         9.56674e+57
          1371.24120	         9.71927e+57
          1372.04750	         7.96935e+57
          1372.85380	         9.25950e+57
          1373.66010	         1.14467e+58
          1374.46640	         1.11077e+58
          1375.27270	         1.11642e+58
          1376.07900	         9.61924e+57
          1376.88530	         9.58221e+57
          1377.69160	         8.93288e+57
          1378.49790	         7.27772e+57
          1379.30420	         7.12336e+57
          1380.11050	         8.31852e+57
          1380.91680	         9.26149e+57
          1381.72310	         8.74379e+57
          1382.52940	         9.21845e+57
          1383.33570	         1.00519e+58
          1384.14200	         1.03105e+58
          1384.94830	         1.04479e+58
          1385.75460	         1.13694e+58
          1386.56090	         1.23403e+58
          1387.36720	         1.21557e+58
          1388.17350	         1.27145e+58
          1388.97980	         1.13456e+58
          1389.78610	         9.78318e+57
          1390.59240	         9.05109e+57
          1391.39870	         7.56378e+57
          1392.20500	         7.66668e+57
          1393.01130	         6.65250e+57
          1393.81760	         6.72676e+57
          1394.62390	         7.48883e+57
          1395.43020	         6.67406e+57
          1396.23650	         6.55575e+57
          1397.04280	         7.36633e+57
          1397.84910	         8.27137e+57
          1398.65540	         9.38984e+57
          1399.46170	         1.05683e+58
          1400.26800	         8.86611e+57
          1401.07430	         7.06633e+57
          1401.88060	         7.44125e+57
          1402.68690	         9.60542e+57
          1403.49320	         9.95575e+57
          1404.29950	         9.03082e+57
          1405.10580	         9.72757e+57
          1405.91210	         1.04676e+58
          1406.71840	         1.10719e+58
          1407.52470	         1.11044e+58
          1408.33100	         1.12320e+58
          1409.13730	         1.14394e+58
          1409.94360	         1.08106e+58
          1410.74990	         1.11314e+58
          1411.55620	         9.98292e+57
          1412.36250	         8.11039e+57
          1413.16880	         7.47822e+57
          1413.97510	         7.22894e+57
          1414.78140	         8.17278e+57
          1415.58770	         9.80959e+57
          1416.39400	         1.14280e+58
          1417.20030	         1.16050e+58
          1418.00660	         8.16837e+57
          1418.81290	         9.69953e+57
          1419.61920	         1.12327e+58
          1420.42550	         1.28927e+58
          1421.23180	         1.43590e+58
          1422.03810	         1.23917e+58
          1422.84440	         1.12831e+58
          1423.65070	         1.29982e+58
          1424.45700	         1.17907e+58
          1425.26330	         8.96772e+57
          1426.06960	         8.74340e+57
          1426.87590	         1.00460e+58
          1427.68220	         1.04808e+58
          1428.48850	         1.08669e+58
          1429.29480	         1.05621e+58
          1430.10110	         1.05022e+58
          1430.90740	         1.02566e+58
          1431.71370	         9.76655e+57
          1432.52000	         9.89648e+57
          1433.32630	         8.84903e+57
          1434.13260	         8.57384e+57
          1434.93890	         9.05071e+57
          1435.74520	         9.34720e+57
          1436.55150	         9.63054e+57
          1437.35780	         8.87382e+57
          1438.16410	         9.32099e+57
          1438.97040	         9.56446e+57
          1439.77670	         9.14045e+57
          1440.58300	         9.05478e+57
          1441.38930	         9.13302e+57
          1442.19560	         9.09786e+57
          1443.00190	         9.14306e+57
          1443.80820	         1.08411e+58
          1444.61450	         9.26316e+57
          1445.42080	         8.32591e+57
          1446.22710	         1.06823e+58
          1447.03340	         1.07305e+58
          1447.83970	         1.10378e+58
          1448.64600	         1.02228e+58
          1449.45230	         9.97708e+57
          1450.25860	         1.05206e+58
          1451.06490	         8.33825e+57
          1451.87120	         7.09148e+57
          1452.67750	         7.56296e+57
          1453.48380	         8.99208e+57
          1454.29010	         7.77474e+57
          1455.09640	         7.44534e+57
          1455.90270	         9.26246e+57
          1456.70900	         9.12716e+57
          1457.51530	         1.02384e+58
          1458.32160	         1.24819e+58
          1459.12790	         1.17370e+58
          1459.93420	         1.03380e+58
          1460.74050	         7.92877e+57
          1461.54680	         8.45591e+57
          1462.35310	         9.96269e+57
          1463.15940	         1.08417e+58
          1463.96570	         1.19440e+58
          1464.77200	         1.28963e+58
          1465.57830	         1.05859e+58
          1466.38460	         9.77699e+57
          1467.19090	         9.24510e+57
          1467.99720	         9.00372e+57
          1468.80350	         8.90696e+57
          1469.60980	         9.60773e+57
          1470.41610	         1.09957e+58
          1471.22240	         9.83652e+57
          1472.02870	         9.42817e+57
          1472.83500	         9.54403e+57
          1473.64130	         9.06042e+57
          1474.44760	         8.63555e+57
          1475.25390	         9.35200e+57
          1476.06020	         9.47959e+57
          1476.86650	         9.13630e+57
          1477.67280	         7.92697e+57
          1478.47910	         6.85394e+57
          1479.28540	         8.26166e+57
          1480.09170	         8.72613e+57
          1480.89800	         8.09244e+57
          1481.70430	         7.66158e+57
          1482.51060	         7.99550e+57
          1483.31690	         7.95326e+57
          1484.12320	         7.18411e+57
          1484.92950	         7.44967e+57
          1485.73580	         8.00962e+57
          1486.54210	         8.27447e+57
          1487.34840	         8.43544e+57
          1488.15470	         8.27132e+57
          1488.96100	         8.65528e+57
          1489.76730	         9.43591e+57
