#sample_266_stacked_spectrum_rest_UV-bands_median_H-alpha_noDC.txt
#median Lum: 1.72280e+42
#Rest-frame wavelength (A) | Luminosity (erg/s/A)
#
          1110.00000	         0.00000e+00
          1110.80630	         1.56366e+59
          1111.61260	         1.46724e+58
          1112.41890	        -2.82923e+59
          1113.22520	        -9.54806e+57
          1114.03150	        -8.17822e+58
          1114.83780	         1.52531e+59
          1115.64410	         2.37308e+59
          1116.45040	         2.42142e+59
          1117.25670	        -2.10417e+58
          1118.06300	         4.14349e+58
          1118.86930	         3.90261e+58
          1119.67560	         8.56553e+58
          1120.48190	         8.21418e+58
          1121.28820	        -3.65290e+58
          1122.09450	         6.96517e+58
          1122.90080	         3.77600e+58
          1123.70710	         8.75253e+58
          1124.51340	         2.05090e+58
          1125.31970	        -3.35133e+58
          1126.12600	        -3.55341e+58
          1126.93230	        -2.57724e+58
          1127.73860	        -4.04422e+58
          1128.54490	         7.77788e+57
          1129.35120	         1.62425e+58
          1130.15750	        -3.39022e+58
          1130.96380	         3.93038e+57
          1131.77010	         7.65423e+58
          1132.57640	         3.18814e+58
          1133.38270	         1.89685e+58
          1134.18900	         2.79307e+58
          1134.99530	         2.18325e+58
          1135.80160	         3.98021e+58
          1136.60790	         2.78598e+58
          1137.41420	         8.22841e+57
          1138.22050	         3.33300e+58
          1139.02680	         2.30938e+58
          1139.83310	         1.58821e+57
          1140.63940	         1.37968e+58
          1141.44570	        -1.03181e+58
          1142.25200	         2.01447e+58
          1143.05830	         2.07514e+58
          1143.86460	         2.31152e+58
          1144.67090	         2.13105e+58
          1145.47720	         5.24804e+57
          1146.28350	         1.84101e+58
          1147.08980	         1.96747e+58
          1147.89610	         1.89619e+58
          1148.70240	         3.17721e+58
          1149.50870	         2.54488e+58
          1150.31500	         1.42441e+58
          1151.12130	         1.40588e+58
          1151.92760	         6.08033e+57
          1152.73390	         9.96574e+56
          1153.54020	        -2.17034e+57
          1154.34650	         1.85812e+58
          1155.15280	         3.26975e+58
          1155.95910	         5.11913e+57
          1156.76540	         4.10575e+57
          1157.57170	        -8.02532e+56
          1158.37800	         1.02994e+57
          1159.18430	        -4.20917e+57
          1159.99060	         5.38382e+57
          1160.79690	         3.85354e+57
          1161.60320	         9.72576e+57
          1162.40950	         8.94713e+57
          1163.21580	         8.08462e+57
          1164.02210	         1.89562e+58
          1164.82840	         1.33719e+58
          1165.63470	         2.66475e+58
          1166.44100	         2.20203e+58
          1167.24730	         1.98493e+58
          1168.05360	         6.51503e+57
          1168.85990	         4.67740e+57
          1169.66620	         8.40438e+57
          1170.47250	         1.48327e+58
          1171.27880	         1.38233e+58
          1172.08510	         1.16149e+58
          1172.89140	         5.85393e+57
          1173.69770	         1.33917e+56
          1174.50400	         6.06291e+57
          1175.31030	         1.50974e+58
          1176.11660	         1.95275e+58
          1176.92290	         1.25215e+58
          1177.72920	         1.15231e+58
          1178.53550	         6.52674e+57
          1179.34180	         2.44840e+57
          1180.14810	         7.60140e+57
          1180.95440	         1.21290e+58
          1181.76070	         8.93742e+57
          1182.56700	         3.78539e+57
          1183.37330	         1.84572e+57
          1184.17960	         1.07464e+58
          1184.98590	         1.23574e+58
          1185.79220	         1.22872e+58
          1186.59850	         1.45939e+58
          1187.40480	         1.14027e+58
          1188.21110	         1.25541e+58
          1189.01740	         1.03309e+58
          1189.82370	         1.03928e+58
          1190.63000	         1.26313e+58
          1191.43630	         1.54927e+58
          1192.24260	         1.59509e+58
          1193.04890	         1.64451e+58
          1193.85520	         1.56768e+58
          1194.66150	         7.21734e+57
          1195.46780	         9.87539e+57
          1196.27410	         1.14176e+58
          1197.08040	         7.82684e+57
          1197.88670	         1.48169e+58
          1198.69300	         1.37666e+58
          1199.49930	         1.41484e+58
          1200.30560	         8.26704e+57
          1201.11190	         8.35363e+57
          1201.91820	         1.01437e+58
          1202.72450	         1.13605e+58
          1203.53080	         1.44103e+58
          1204.33710	         5.85628e+57
          1205.14340	         5.70927e+57
          1205.94970	         4.04434e+57
          1206.75600	         6.66400e+57
          1207.56230	         4.54301e+57
          1208.36860	         4.88969e+57
          1209.17490	         4.58894e+57
          1209.98120	         9.85737e+57
          1210.78750	         7.12383e+57
          1211.59380	         1.38440e+58
          1212.40010	         2.10426e+58
          1213.20640	         2.08612e+58
          1214.01270	         1.99490e+58
          1214.81900	         2.89243e+58
          1215.62530	         5.04277e+58
          1216.43160	         9.34166e+58
          1217.23790	         1.50524e+59
          1218.04420	         1.18175e+59
          1218.85050	         8.59976e+58
          1219.65680	         5.78580e+58
          1220.46310	         3.26881e+58
          1221.26940	         2.32016e+58
          1222.07570	         1.71392e+58
          1222.88200	         1.51246e+58
          1223.68830	         8.36255e+57
          1224.49460	         7.98980e+57
          1225.30090	         7.95163e+57
          1226.10720	         6.15223e+57
          1226.91350	         6.15985e+57
          1227.71980	         8.94354e+57
          1228.52610	         1.27412e+58
          1229.33240	         1.20945e+58
          1230.13870	         9.12689e+57
          1230.94500	         9.05260e+57
          1231.75130	         7.56647e+57
          1232.55760	         7.41196e+57
          1233.36390	         7.55034e+57
          1234.17020	         9.21059e+57
          1234.97650	         6.71229e+57
          1235.78280	         6.45412e+57
          1236.58910	         8.57985e+57
          1237.39540	         1.14192e+58
          1238.20170	         1.15549e+58
          1239.00800	         1.38251e+58
          1239.81430	         1.46604e+58
          1240.62060	         1.09407e+58
          1241.42690	         1.14226e+58
          1242.23320	         1.09657e+58
          1243.03950	         7.66370e+57
          1243.84580	         8.17303e+57
          1244.65210	         9.07420e+57
          1245.45840	         8.79200e+57
          1246.26470	         7.71743e+57
          1247.07100	         7.85514e+57
          1247.87730	         9.72917e+57
          1248.68360	         6.25310e+57
          1249.48990	         5.00687e+57
          1250.29620	         8.52665e+57
          1251.10250	         7.43787e+57
          1251.90880	         6.68328e+57
          1252.71510	         7.67574e+57
          1253.52140	         8.33828e+57
          1254.32770	         9.29844e+57
          1255.13400	         1.46860e+58
          1255.94030	         1.35184e+58
          1256.74660	         8.57538e+57
          1257.55290	         1.06492e+58
          1258.35920	         8.06279e+57
          1259.16550	         5.49273e+57
          1259.97180	         5.53094e+57
          1260.77810	         8.03911e+57
          1261.58440	         1.03532e+58
          1262.39070	         7.49893e+57
          1263.19700	         7.12963e+57
          1264.00330	         8.44533e+57
          1264.80960	         9.59698e+57
          1265.61590	         1.25372e+58
          1266.42220	         1.29269e+58
          1267.22850	         1.11272e+58
          1268.03480	         1.40126e+58
          1268.84110	         1.61469e+58
          1269.64740	         1.33235e+58
          1270.45370	         1.37289e+58
          1271.26000	         1.22443e+58
          1272.06630	         1.06182e+58
          1272.87260	         1.20088e+58
          1273.67890	         1.26508e+58
          1274.48520	         1.26753e+58
          1275.29150	         1.26885e+58
          1276.09780	         1.28865e+58
          1276.90410	         1.58966e+58
          1277.71040	         1.36467e+58
          1278.51670	         1.21166e+58
          1279.32300	         1.53216e+58
          1280.12930	         1.35181e+58
          1280.93560	         1.20496e+58
          1281.74190	         1.36823e+58
          1282.54820	         1.56133e+58
          1283.35450	         1.22088e+58
          1284.16080	         9.97071e+57
          1284.96710	         1.34241e+58
          1285.77340	         1.22497e+58
          1286.57970	         1.16150e+58
          1287.38600	         1.76003e+58
          1288.19230	         2.25717e+58
          1288.99860	         1.69437e+58
          1289.80490	         1.15958e+58
          1290.61120	         1.42426e+58
          1291.41750	         1.55371e+58
          1292.22380	         1.56890e+58
          1293.03010	         1.27900e+58
          1293.83640	         1.21782e+58
          1294.64270	         9.76064e+57
          1295.44900	         7.57675e+57
          1296.25530	         7.42876e+57
          1297.06160	         1.04985e+58
          1297.86790	         1.31161e+58
          1298.67420	         1.11717e+58
          1299.48050	         1.08289e+58
          1300.28680	         9.80830e+57
          1301.09310	         7.71756e+57
          1301.89940	         4.39307e+57
          1302.70570	         7.17462e+57
          1303.51200	         1.00324e+58
          1304.31830	         1.14975e+58
          1305.12460	         1.10237e+58
          1305.93090	         1.07531e+58
          1306.73720	         1.47583e+58
          1307.54350	         1.64522e+58
          1308.34980	         1.56511e+58
          1309.15610	         1.65238e+58
          1309.96240	         1.77015e+58
          1310.76870	         1.40370e+58
          1311.57500	         1.05118e+58
          1312.38130	         1.15497e+58
          1313.18760	         1.64203e+58
          1313.99390	         1.84063e+58
          1314.80020	         1.64215e+58
          1315.60650	         1.51767e+58
          1316.41280	         1.22788e+58
          1317.21910	         1.26832e+58
          1318.02540	         1.14727e+58
          1318.83170	         1.06603e+58
          1319.63800	         1.09038e+58
          1320.44430	         1.13009e+58
          1321.25060	         1.20640e+58
          1322.05690	         1.31600e+58
          1322.86320	         1.28066e+58
          1323.66950	         1.12491e+58
          1324.47580	         9.01254e+57
          1325.28210	         1.01913e+58
          1326.08840	         1.27907e+58
          1326.89470	         1.17369e+58
          1327.70100	         9.75992e+57
          1328.50730	         7.27338e+57
          1329.31360	         9.47847e+57
          1330.11990	         1.14495e+58
          1330.92620	         1.07250e+58
          1331.73250	         1.14709e+58
          1332.53880	         8.87654e+57
          1333.34510	         7.99137e+57
          1334.15140	         8.95591e+57
          1334.95770	         1.01636e+58
          1335.76400	         1.08481e+58
          1336.57030	         1.20476e+58
          1337.37660	         1.16360e+58
          1338.18290	         1.07901e+58
          1338.98920	         1.22840e+58
          1339.79550	         1.29926e+58
          1340.60180	         1.20084e+58
          1341.40810	         1.11743e+58
          1342.21440	         1.19040e+58
          1343.02070	         1.34228e+58
          1343.82700	         1.44335e+58
          1344.63330	         1.44685e+58
          1345.43960	         1.30908e+58
          1346.24590	         1.04308e+58
          1347.05220	         1.20626e+58
          1347.85850	         1.09746e+58
          1348.66480	         1.33564e+58
          1349.47110	         1.41120e+58
          1350.27740	         1.23985e+58
          1351.08370	         1.12814e+58
          1351.89000	         1.02814e+58
          1352.69630	         9.95044e+57
          1353.50260	         9.96481e+57
          1354.30890	         1.08841e+58
          1355.11520	         1.26477e+58
          1355.92150	         1.11551e+58
          1356.72780	         1.05726e+58
          1357.53410	         1.03503e+58
          1358.34040	         1.05349e+58
          1359.14670	         1.05287e+58
          1359.95300	         1.18291e+58
          1360.75930	         1.20040e+58
          1361.56560	         1.12351e+58
          1362.37190	         1.17589e+58
          1363.17820	         1.13329e+58
          1363.98450	         1.14422e+58
          1364.79080	         1.35691e+58
          1365.59710	         1.28034e+58
          1366.40340	         1.17753e+58
          1367.20970	         1.13466e+58
          1368.01600	         1.03665e+58
          1368.82230	         9.41440e+57
          1369.62860	         1.04754e+58
          1370.43490	         1.13321e+58
          1371.24120	         1.05322e+58
          1372.04750	         9.33482e+57
          1372.85380	         1.10103e+58
          1373.66010	         1.19560e+58
          1374.46640	         1.15004e+58
          1375.27270	         1.13891e+58
          1376.07900	         1.03627e+58
          1376.88530	         9.35537e+57
          1377.69160	         8.64203e+57
          1378.49790	         6.63236e+57
          1379.30420	         7.47615e+57
          1380.11050	         1.02742e+58
          1380.91680	         9.16412e+57
          1381.72310	         8.03205e+57
          1382.52940	         8.54087e+57
          1383.33570	         7.28957e+57
          1384.14200	         8.11939e+57
          1384.94830	         1.04539e+58
          1385.75460	         1.25241e+58
          1386.56090	         1.13078e+58
          1387.36720	         1.09425e+58
          1388.17350	         1.27999e+58
          1388.97980	         1.20898e+58
          1389.78610	         9.64787e+57
          1390.59240	         7.12389e+57
          1391.39870	         7.21367e+57
          1392.20500	         8.09654e+57
          1393.01130	         7.85061e+57
          1393.81760	         7.49151e+57
          1394.62390	         7.27446e+57
          1395.43020	         6.92279e+57
          1396.23650	         8.46223e+57
          1397.04280	         7.74937e+57
          1397.84910	         8.76628e+57
          1398.65540	         9.59281e+57
          1399.46170	         1.05228e+58
          1400.26800	         9.08906e+57
          1401.07430	         6.79952e+57
          1401.88060	         7.47814e+57
          1402.68690	         9.39621e+57
          1403.49320	         9.80212e+57
          1404.29950	         9.78932e+57
          1405.10580	         1.15489e+58
          1405.91210	         1.12771e+58
          1406.71840	         1.02334e+58
          1407.52470	         9.85754e+57
          1408.33100	         1.03283e+58
          1409.13730	         1.19604e+58
          1409.94360	         1.27106e+58
          1410.74990	         1.24505e+58
          1411.55620	         1.09655e+58
          1412.36250	         9.68982e+57
          1413.16880	         9.32648e+57
          1413.97510	         9.41201e+57
          1414.78140	         9.73972e+57
          1415.58770	         1.09936e+58
          1416.39400	         1.11998e+58
          1417.20030	         1.10403e+58
          1418.00660	         9.89732e+57
          1418.81290	         1.05959e+58
          1419.61920	         1.19198e+58
          1420.42550	         1.36878e+58
          1421.23180	         1.23815e+58
          1422.03810	         1.16791e+58
          1422.84440	         1.13234e+58
          1423.65070	         1.20367e+58
          1424.45700	         1.12562e+58
          1425.26330	         9.85255e+57
          1426.06960	         9.65824e+57
          1426.87590	         1.07492e+58
          1427.68220	         1.02947e+58
          1428.48850	         1.22767e+58
          1429.29480	         1.34590e+58
          1430.10110	         1.15047e+58
          1430.90740	         9.03986e+57
          1431.71370	         9.10847e+57
          1432.52000	         8.56773e+57
          1433.32630	         6.70566e+57
          1434.13260	         6.73378e+57
          1434.93890	         7.76112e+57
          1435.74520	         9.35476e+57
          1436.55150	         1.09191e+58
          1437.35780	         1.03799e+58
          1438.16410	         9.50809e+57
          1438.97040	         9.14154e+57
          1439.77670	         9.09722e+57
          1440.58300	         9.19427e+57
          1441.38930	         9.23840e+57
          1442.19560	         9.07668e+57
          1443.00190	         1.01360e+58
          1443.80820	         1.09690e+58
          1444.61450	         9.45611e+57
          1445.42080	         8.57263e+57
          1446.22710	         1.00419e+58
          1447.03340	         9.64421e+57
          1447.83970	         1.12403e+58
          1448.64600	         1.16999e+58
          1449.45230	         1.03087e+58
          1450.25860	         1.02172e+58
          1451.06490	         9.18934e+57
          1451.87120	         7.79485e+57
          1452.67750	         7.50634e+57
          1453.48380	         7.61330e+57
          1454.29010	         7.81962e+57
          1455.09640	         8.20956e+57
          1455.90270	         8.84060e+57
          1456.70900	         8.73217e+57
          1457.51530	         9.31280e+57
          1458.32160	         1.19216e+58
          1459.12790	         1.20404e+58
          1459.93420	         9.82110e+57
          1460.74050	         7.48216e+57
          1461.54680	         7.67650e+57
          1462.35310	         9.12124e+57
          1463.15940	         1.14387e+58
          1463.96570	         1.21157e+58
          1464.77200	         1.17397e+58
          1465.57830	         1.10435e+58
          1466.38460	         9.38595e+57
          1467.19090	         8.46318e+57
          1467.99720	         9.39790e+57
          1468.80350	         1.03213e+58
          1469.60980	         1.03846e+58
          1470.41610	         9.71093e+57
          1471.22240	         8.98393e+57
          1472.02870	         1.01617e+58
          1472.83500	         9.20594e+57
          1473.64130	         9.50458e+57
          1474.44760	         1.00282e+58
          1475.25390	         8.86333e+57
          1476.06020	         8.48180e+57
          1476.86650	         8.46085e+57
          1477.67280	         8.05841e+57
          1478.47910	         6.69444e+57
          1479.28540	         6.80031e+57
          1480.09170	         8.53447e+57
          1480.89800	         9.48561e+57
          1481.70430	         1.09988e+58
          1482.51060	         1.03072e+58
          1483.31690	         8.51258e+57
          1484.12320	         9.16769e+57
          1484.92950	         8.44732e+57
          1485.73580	         7.83680e+57
          1486.54210	         9.39954e+57
          1487.34840	         8.74842e+57
          1488.15470	         8.59072e+57
          1488.96100	         9.14060e+57
          1489.76730	         9.72977e+57
