#sample_193_stacked_spectrum_rest_UV-bands_median_H-alpha_noDC.txt
#median Lum: 1.70846e+42
#Rest-frame wavelength (A) | Luminosity (erg/s/A)
#
          1110.00000	         0.00000e+00
          1110.80630	         4.16207e+59
          1111.61260	         1.15749e+59
          1112.41890	         2.79581e+59
          1113.22520	         8.67513e+58
          1114.03150	        -3.29156e+59
          1114.83780	         6.58826e+58
          1115.64410	         7.09720e+58
          1116.45040	        -8.29281e+56
          1117.25670	         5.72893e+58
          1118.06300	         7.50339e+58
          1118.86930	        -3.59976e+58
          1119.67560	         1.36606e+59
          1120.48190	         5.63148e+58
          1121.28820	        -1.73194e+59
          1122.09450	         4.29842e+58
          1122.90080	         1.03842e+58
          1123.70710	         6.51393e+58
          1124.51340	         3.62646e+58
          1125.31970	        -3.59274e+58
          1126.12600	         4.78400e+57
          1126.93230	        -6.17983e+58
          1127.73860	        -6.58293e+58
          1128.54490	        -4.19414e+58
          1129.35120	        -9.71485e+57
          1130.15750	        -3.23857e+58
          1130.96380	         1.04246e+58
          1131.77010	         4.44434e+58
          1132.57640	         3.07400e+58
          1133.38270	         2.95180e+58
          1134.18900	         1.35732e+58
          1134.99530	         6.69649e+57
          1135.80160	         8.84964e+57
          1136.60790	         2.60680e+58
          1137.41420	         7.83010e+57
          1138.22050	         9.84753e+57
          1139.02680	         2.91503e+58
          1139.83310	         2.17055e+58
          1140.63940	         1.93417e+58
          1141.44570	        -1.06227e+58
          1142.25200	        -6.93914e+57
          1143.05830	         1.16421e+58
          1143.86460	         1.13688e+58
          1144.67090	         2.80976e+58
          1145.47720	         1.34580e+58
          1146.28350	         1.50558e+58
          1147.08980	         1.73170e+58
          1147.89610	         8.14739e+57
          1148.70240	         1.57171e+58
          1149.50870	         1.79747e+58
          1150.31500	         1.46780e+58
          1151.12130	         1.51476e+58
          1151.92760	         7.79170e+57
          1152.73390	         1.31558e+58
          1153.54020	         3.86768e+57
          1154.34650	         2.27826e+58
          1155.15280	         2.30120e+58
          1155.95910	         1.10334e+58
          1156.76540	         2.96301e+57
          1157.57170	         6.39071e+56
          1158.37800	        -4.63461e+57
          1159.18430	         2.52061e+57
          1159.99060	         5.71860e+57
          1160.79690	         5.87748e+57
          1161.60320	         1.13438e+58
          1162.40950	         1.65153e+58
          1163.21580	         1.85069e+58
          1164.02210	         1.63329e+58
          1164.82840	         1.36884e+58
          1165.63470	         2.41619e+58
          1166.44100	         2.55916e+58
          1167.24730	         1.11220e+58
          1168.05360	         6.93458e+57
          1168.85990	         1.07134e+58
          1169.66620	         1.75667e+58
          1170.47250	         1.61876e+58
          1171.27880	         1.61685e+58
          1172.08510	         1.92968e+58
          1172.89140	         1.18349e+58
          1173.69770	         5.31018e+56
          1174.50400	         1.94798e+57
          1175.31030	         1.26765e+58
          1176.11660	         1.74819e+58
          1176.92290	         1.50213e+58
          1177.72920	         1.05168e+58
          1178.53550	         7.62642e+57
          1179.34180	         4.66506e+57
          1180.14810	         3.59655e+57
          1180.95440	         9.69256e+57
          1181.76070	         2.72098e+57
          1182.56700	         9.21363e+56
          1183.37330	         7.90405e+57
          1184.17960	         1.34490e+58
          1184.98590	         1.17008e+58
          1185.79220	         6.69458e+57
          1186.59850	         1.10221e+58
          1187.40480	         1.54120e+58
          1188.21110	         2.63805e+58
          1189.01740	         1.42505e+58
          1189.82370	         5.53571e+57
          1190.63000	         5.67196e+57
          1191.43630	         1.26544e+58
          1192.24260	         1.31054e+58
          1193.04890	         9.45549e+57
          1193.85520	         1.45582e+58
          1194.66150	         7.94322e+57
          1195.46780	         9.67985e+57
          1196.27410	         9.77016e+57
          1197.08040	         7.14832e+57
          1197.88670	         1.05648e+58
          1198.69300	         1.41801e+58
          1199.49930	         1.48545e+58
          1200.30560	         1.36340e+58
          1201.11190	         1.43083e+58
          1201.91820	         8.87495e+57
          1202.72450	         6.88846e+57
          1203.53080	         1.45041e+58
          1204.33710	         7.24916e+57
          1205.14340	         8.53722e+57
          1205.94970	         7.24520e+57
          1206.75600	         7.12723e+57
          1207.56230	         4.47131e+57
          1208.36860	         4.78385e+57
          1209.17490	         6.74498e+57
          1209.98120	         7.05235e+57
          1210.78750	         9.93450e+57
          1211.59380	         1.28483e+58
          1212.40010	         1.92240e+58
          1213.20640	         1.94441e+58
          1214.01270	         2.00930e+58
          1214.81900	         2.63632e+58
          1215.62530	         4.51432e+58
          1216.43160	         8.99907e+58
          1217.23790	         1.50832e+59
          1218.04420	         1.16403e+59
          1218.85050	         8.98948e+58
          1219.65680	         6.08237e+58
          1220.46310	         3.27100e+58
          1221.26940	         2.64248e+58
          1222.07570	         1.74501e+58
          1222.88200	         9.74878e+57
          1223.68830	         9.84039e+57
          1224.49460	         8.41170e+57
          1225.30090	         7.49106e+57
          1226.10720	         9.04296e+57
          1226.91350	         8.53871e+57
          1227.71980	         9.00090e+57
          1228.52610	         8.38028e+57
          1229.33240	         6.69211e+57
          1230.13870	         8.44212e+57
          1230.94500	         9.39880e+57
          1231.75130	         2.96653e+57
          1232.55760	         6.97281e+57
          1233.36390	         8.50676e+57
          1234.17020	         8.74228e+57
          1234.97650	         8.99721e+57
          1235.78280	         9.24894e+57
          1236.58910	         7.51196e+57
          1237.39540	         7.07776e+57
          1238.20170	         8.42906e+57
          1239.00800	         1.21995e+58
          1239.81430	         1.36634e+58
          1240.62060	         1.01752e+58
          1241.42690	         9.69427e+57
          1242.23320	         1.26215e+58
          1243.03950	         9.89882e+57
          1243.84580	         9.21503e+57
          1244.65210	         1.03072e+58
          1245.45840	         7.83048e+57
          1246.26470	         8.68593e+57
          1247.07100	         7.87765e+57
          1247.87730	         5.83958e+57
          1248.68360	         4.69591e+57
          1249.48990	         5.88633e+57
          1250.29620	         1.05443e+58
          1251.10250	         1.11287e+58
          1251.90880	         7.26508e+57
          1252.71510	         6.41938e+57
          1253.52140	         5.99010e+57
          1254.32770	         8.34965e+57
          1255.13400	         1.20946e+58
          1255.94030	         1.25985e+58
          1256.74660	         9.21316e+57
          1257.55290	         1.01369e+58
          1258.35920	         7.46224e+57
          1259.16550	         5.32776e+57
          1259.97180	         4.56935e+57
          1260.77810	         6.84572e+57
          1261.58440	         1.01120e+58
          1262.39070	         6.29898e+57
          1263.19700	         7.59794e+57
          1264.00330	         9.85299e+57
          1264.80960	         9.38122e+57
          1265.61590	         1.08290e+58
          1266.42220	         1.22207e+58
          1267.22850	         1.23776e+58
          1268.03480	         1.30255e+58
          1268.84110	         1.35556e+58
          1269.64740	         1.28709e+58
          1270.45370	         1.34766e+58
          1271.26000	         1.28728e+58
          1272.06630	         1.28375e+58
          1272.87260	         1.22187e+58
          1273.67890	         1.13422e+58
          1274.48520	         1.42591e+58
          1275.29150	         1.57479e+58
          1276.09780	         1.35401e+58
          1276.90410	         1.50984e+58
          1277.71040	         1.38489e+58
          1278.51670	         1.18626e+58
          1279.32300	         1.50788e+58
          1280.12930	         1.39644e+58
          1280.93560	         1.02734e+58
          1281.74190	         1.10226e+58
          1282.54820	         1.32635e+58
          1283.35450	         1.31160e+58
          1284.16080	         1.08638e+58
          1284.96710	         1.08110e+58
          1285.77340	         1.11490e+58
          1286.57970	         1.14502e+58
          1287.38600	         1.38317e+58
          1288.19230	         1.70932e+58
          1288.99860	         1.26584e+58
          1289.80490	         9.32215e+57
          1290.61120	         1.29679e+58
          1291.41750	         1.56609e+58
          1292.22380	         1.32119e+58
          1293.03010	         1.13192e+58
          1293.83640	         1.17561e+58
          1294.64270	         1.05929e+58
          1295.44900	         7.07073e+57
          1296.25530	         5.78299e+57
          1297.06160	         8.95609e+57
          1297.86790	         1.04301e+58
          1298.67420	         8.97094e+57
          1299.48050	         1.08217e+58
          1300.28680	         1.19801e+58
          1301.09310	         8.81124e+57
          1301.89940	         5.94878e+57
          1302.70570	         7.26738e+57
          1303.51200	         7.21320e+57
          1304.31830	         1.06581e+58
          1305.12460	         1.13207e+58
          1305.93090	         1.22988e+58
          1306.73720	         1.27197e+58
          1307.54350	         1.26642e+58
          1308.34980	         1.30533e+58
          1309.15610	         1.70322e+58
          1309.96240	         1.76376e+58
          1310.76870	         1.30389e+58
          1311.57500	         1.10910e+58
          1312.38130	         1.11927e+58
          1313.18760	         1.29980e+58
          1313.99390	         1.46771e+58
          1314.80020	         1.48659e+58
          1315.60650	         1.44460e+58
          1316.41280	         1.27965e+58
          1317.21910	         1.06333e+58
          1318.02540	         1.26172e+58
          1318.83170	         1.23126e+58
          1319.63800	         1.04706e+58
          1320.44430	         1.10438e+58
          1321.25060	         1.25973e+58
          1322.05690	         1.20641e+58
          1322.86320	         1.37633e+58
          1323.66950	         1.26219e+58
          1324.47580	         9.32609e+57
          1325.28210	         1.00304e+58
          1326.08840	         1.03728e+58
          1326.89470	         1.21646e+58
          1327.70100	         1.05799e+58
          1328.50730	         9.13920e+57
          1329.31360	         9.61611e+57
          1330.11990	         1.03319e+58
          1330.92620	         9.68173e+57
          1331.73250	         1.02061e+58
          1332.53880	         1.07722e+58
          1333.34510	         1.00158e+58
          1334.15140	         8.03976e+57
          1334.95770	         8.60129e+57
          1335.76400	         1.08696e+58
          1336.57030	         1.10903e+58
          1337.37660	         1.08782e+58
          1338.18290	         1.13068e+58
          1338.98920	         1.23350e+58
          1339.79550	         1.11379e+58
          1340.60180	         1.17499e+58
          1341.40810	         1.34778e+58
          1342.21440	         1.21180e+58
          1343.02070	         1.34744e+58
          1343.82700	         1.28340e+58
          1344.63330	         9.48995e+57
          1345.43960	         1.08706e+58
          1346.24590	         1.08731e+58
          1347.05220	         1.11887e+58
          1347.85850	         1.15624e+58
          1348.66480	         1.31145e+58
          1349.47110	         1.32754e+58
          1350.27740	         1.26569e+58
          1351.08370	         1.30123e+58
          1351.89000	         1.16668e+58
          1352.69630	         1.18954e+58
          1353.50260	         1.22380e+58
          1354.30890	         1.12695e+58
          1355.11520	         1.23459e+58
          1355.92150	         1.30934e+58
          1356.72780	         1.13664e+58
          1357.53410	         8.95717e+57
          1358.34040	         9.79186e+57
          1359.14670	         9.53220e+57
          1359.95300	         1.04956e+58
          1360.75930	         1.31083e+58
          1361.56560	         1.18879e+58
          1362.37190	         1.07692e+58
          1363.17820	         1.10725e+58
          1363.98450	         1.22326e+58
          1364.79080	         1.20997e+58
          1365.59710	         1.19851e+58
          1366.40340	         1.21095e+58
          1367.20970	         1.20030e+58
          1368.01600	         1.04543e+58
          1368.82230	         1.06240e+58
          1369.62860	         1.22057e+58
          1370.43490	         9.95737e+57
          1371.24120	         9.28732e+57
          1372.04750	         8.53961e+57
          1372.85380	         1.04777e+58
          1373.66010	         1.03521e+58
          1374.46640	         9.61368e+57
          1375.27270	         1.17256e+58
          1376.07900	         1.01229e+58
          1376.88530	         9.18549e+57
          1377.69160	         8.56677e+57
          1378.49790	         6.79000e+57
          1379.30420	         7.32784e+57
          1380.11050	         9.40923e+57
          1380.91680	         9.37244e+57
          1381.72310	         8.77649e+57
          1382.52940	         8.91294e+57
          1383.33570	         8.87681e+57
          1384.14200	         1.01955e+58
          1384.94830	         9.59072e+57
          1385.75460	         8.10645e+57
          1386.56090	         1.05730e+58
          1387.36720	         1.14378e+58
          1388.17350	         1.19209e+58
          1388.97980	         1.19216e+58
          1389.78610	         9.07378e+57
          1390.59240	         7.22745e+57
          1391.39870	         6.61364e+57
          1392.20500	         7.46722e+57
          1393.01130	         6.34191e+57
          1393.81760	         7.08160e+57
          1394.62390	         7.55202e+57
          1395.43020	         6.02022e+57
          1396.23650	         5.63453e+57
          1397.04280	         6.38001e+57
          1397.84910	         9.00082e+57
          1398.65540	         9.07035e+57
          1399.46170	         9.46928e+57
          1400.26800	         9.02039e+57
          1401.07430	         8.58362e+57
          1401.88060	         8.50180e+57
          1402.68690	         9.29387e+57
          1403.49320	         1.01459e+58
          1404.29950	         9.72069e+57
          1405.10580	         1.03750e+58
          1405.91210	         1.04615e+58
          1406.71840	         1.07700e+58
          1407.52470	         1.06927e+58
          1408.33100	         1.03006e+58
          1409.13730	         1.10307e+58
          1409.94360	         1.24110e+58
          1410.74990	         1.18895e+58
          1411.55620	         9.50783e+57
          1412.36250	         9.03287e+57
          1413.16880	         9.73761e+57
          1413.97510	         8.30189e+57
          1414.78140	         7.17425e+57
          1415.58770	         8.22550e+57
          1416.39400	         1.09981e+58
          1417.20030	         1.16523e+58
          1418.00660	         1.00719e+58
          1418.81290	         9.49976e+57
          1419.61920	         1.10782e+58
          1420.42550	         1.18792e+58
          1421.23180	         1.30722e+58
          1422.03810	         1.32149e+58
          1422.84440	         1.16605e+58
          1423.65070	         1.21582e+58
          1424.45700	         1.17587e+58
          1425.26330	         9.39956e+57
          1426.06960	         9.31372e+57
          1426.87590	         1.07516e+58
          1427.68220	         1.05736e+58
          1428.48850	         1.07214e+58
          1429.29480	         1.14646e+58
          1430.10110	         1.05055e+58
          1430.90740	         9.32799e+57
          1431.71370	         9.00454e+57
          1432.52000	         8.47506e+57
          1433.32630	         7.92256e+57
          1434.13260	         7.31594e+57
          1434.93890	         8.16787e+57
          1435.74520	         9.60642e+57
          1436.55150	         1.01404e+58
          1437.35780	         9.16740e+57
          1438.16410	         8.86846e+57
          1438.97040	         8.64480e+57
          1439.77670	         8.67234e+57
          1440.58300	         8.45917e+57
          1441.38930	         9.09928e+57
          1442.19560	         9.31549e+57
          1443.00190	         9.56824e+57
          1443.80820	         1.16227e+58
          1444.61450	         1.02693e+58
          1445.42080	         8.24695e+57
          1446.22710	         9.42603e+57
          1447.03340	         1.04562e+58
          1447.83970	         1.12247e+58
          1448.64600	         1.10457e+58
          1449.45230	         1.08833e+58
          1450.25860	         1.05908e+58
          1451.06490	         8.67070e+57
          1451.87120	         6.91709e+57
          1452.67750	         7.48832e+57
          1453.48380	         8.91399e+57
          1454.29010	         8.30020e+57
          1455.09640	         8.68956e+57
          1455.90270	         1.02876e+58
          1456.70900	         9.60359e+57
          1457.51530	         9.29885e+57
          1458.32160	         1.16509e+58
          1459.12790	         1.13227e+58
          1459.93420	         9.10825e+57
          1460.74050	         7.68619e+57
          1461.54680	         8.20363e+57
          1462.35310	         6.97115e+57
          1463.15940	         7.45270e+57
          1463.96570	         1.03403e+58
          1464.77200	         1.16401e+58
          1465.57830	         1.09881e+58
          1466.38460	         9.33470e+57
          1467.19090	         8.02727e+57
          1467.99720	         8.24683e+57
          1468.80350	         8.48418e+57
          1469.60980	         9.27904e+57
          1470.41610	         1.10028e+58
          1471.22240	         9.70831e+57
          1472.02870	         9.78133e+57
          1472.83500	         9.61097e+57
          1473.64130	         9.18345e+57
          1474.44760	         8.80099e+57
          1475.25390	         8.60701e+57
          1476.06020	         8.78296e+57
          1476.86650	         7.86763e+57
          1477.67280	         7.37357e+57
          1478.47910	         6.38886e+57
          1479.28540	         6.86352e+57
          1480.09170	         8.69861e+57
          1480.89800	         8.76895e+57
          1481.70430	         8.81370e+57
          1482.51060	         8.86797e+57
          1483.31690	         7.81260e+57
          1484.12320	         7.78914e+57
          1484.92950	         8.59406e+57
          1485.73580	         9.37930e+57
          1486.54210	         9.19097e+57
          1487.34840	         8.65571e+57
          1488.15470	         8.50054e+57
          1488.96100	         8.88731e+57
          1489.76730	         9.38709e+57
