#sample_353_stacked_spectrum_rest_UV-bands_median_H-alpha_noDC.txt
#median Lum: 1.68699e+42
#Rest-frame wavelength (A) | Luminosity (erg/s/A)
#
          1110.00000	         0.00000e+00
          1110.80630	        -2.60713e+59
          1111.61260	         1.25422e+59
          1112.41890	         2.75347e+59
          1113.22520	         7.95488e+58
          1114.03150	         5.51636e+57
          1114.83780	         1.82195e+59
          1115.64410	         1.48203e+59
          1116.45040	         2.42840e+59
          1117.25670	        -5.42181e+58
          1118.06300	         4.78814e+58
          1118.86930	        -1.68117e+58
          1119.67560	         6.38145e+58
          1120.48190	         2.57697e+58
          1121.28820	        -1.08632e+59
          1122.09450	        -5.30052e+58
          1122.90080	         2.76996e+58
          1123.70710	         6.40560e+58
          1124.51340	         5.59624e+58
          1125.31970	         1.87484e+58
          1126.12600	        -4.86909e+58
          1126.93230	        -4.26319e+58
          1127.73860	        -6.12675e+58
          1128.54490	         4.54436e+57
          1129.35120	         1.70434e+58
          1130.15750	         1.18335e+57
          1130.96380	        -3.89109e+58
          1131.77010	         7.07854e+58
          1132.57640	         8.72346e+58
          1133.38270	         3.53880e+58
          1134.18900	         2.82181e+58
          1134.99530	         3.28335e+58
          1135.80160	         2.33784e+58
          1136.60790	         9.44225e+57
          1137.41420	        -4.55184e+57
          1138.22050	         3.34318e+58
          1139.02680	         3.09176e+58
          1139.83310	         3.58151e+58
          1140.63940	         3.65978e+58
          1141.44570	        -4.20834e+55
          1142.25200	         4.39816e+57
          1143.05830	         1.56264e+58
          1143.86460	         1.74138e+58
          1144.67090	         1.21208e+58
          1145.47720	         2.07289e+58
          1146.28350	         1.54445e+58
          1147.08980	         1.91944e+58
          1147.89610	         2.24333e+58
          1148.70240	         3.75271e+58
          1149.50870	         3.50584e+58
          1150.31500	         6.23788e+57
          1151.12130	         8.00131e+57
          1151.92760	         5.20621e+56
          1152.73390	         9.90245e+56
          1153.54020	         2.66683e+56
          1154.34650	         2.14237e+58
          1155.15280	         2.25140e+58
          1155.95910	         1.00305e+58
          1156.76540	         3.63086e+57
          1157.57170	        -1.83635e+57
          1158.37800	         5.43033e+57
          1159.18430	         1.28770e+57
          1159.99060	         5.05257e+57
          1160.79690	         3.83406e+57
          1161.60320	         1.22808e+58
          1162.40950	         1.77232e+58
          1163.21580	         1.51976e+58
          1164.02210	         1.40328e+58
          1164.82840	         1.70303e+58
          1165.63470	         1.44784e+58
          1166.44100	         2.70684e+58
          1167.24730	         1.86199e+58
          1168.05360	         7.28044e+57
          1168.85990	         8.18302e+57
          1169.66620	         6.17238e+57
          1170.47250	         7.44412e+57
          1171.27880	         1.48268e+58
          1172.08510	         2.36967e+58
          1172.89140	         1.84606e+58
          1173.69770	         7.59221e+57
          1174.50400	         1.05430e+58
          1175.31030	         1.16380e+58
          1176.11660	         1.76076e+58
          1176.92290	         1.51989e+58
          1177.72920	         1.39114e+58
          1178.53550	         9.61829e+57
          1179.34180	         6.75355e+57
          1180.14810	         6.03990e+57
          1180.95440	         5.60888e+57
          1181.76070	         7.90547e+57
          1182.56700	         9.72352e+57
          1183.37330	         5.89491e+57
          1184.17960	         1.05722e+58
          1184.98590	         1.14381e+58
          1185.79220	         1.03817e+58
          1186.59850	         1.70419e+58
          1187.40480	         1.35012e+58
          1188.21110	         1.04824e+58
          1189.01740	         5.53502e+57
          1189.82370	         2.06201e+57
          1190.63000	         9.51868e+57
          1191.43630	         1.29675e+58
          1192.24260	         9.84941e+57
          1193.04890	         1.27168e+58
          1193.85520	         1.29849e+58
          1194.66150	         8.74019e+57
          1195.46780	         1.23838e+58
          1196.27410	         1.27371e+58
          1197.08040	         6.62113e+57
          1197.88670	         1.11807e+58
          1198.69300	         1.20212e+58
          1199.49930	         1.42949e+58
          1200.30560	         1.61641e+58
          1201.11190	         1.39845e+58
          1201.91820	         1.26888e+58
          1202.72450	         9.86215e+57
          1203.53080	         1.37660e+58
          1204.33710	         8.63720e+57
          1205.14340	         5.00529e+57
          1205.94970	         8.39326e+57
          1206.75600	         5.80653e+57
          1207.56230	         6.73953e+57
          1208.36860	         1.24148e+58
          1209.17490	         6.25038e+57
          1209.98120	         4.28645e+57
          1210.78750	         7.18520e+57
          1211.59380	         1.34899e+58
          1212.40010	         2.19530e+58
          1213.20640	         2.53109e+58
          1214.01270	         2.28005e+58
          1214.81900	         2.49648e+58
          1215.62530	         4.29141e+58
          1216.43160	         8.83719e+58
          1217.23790	         1.49859e+59
          1218.04420	         1.13488e+59
          1218.85050	         8.82698e+58
          1219.65680	         6.01289e+58
          1220.46310	         3.33789e+58
          1221.26940	         2.04637e+58
          1222.07570	         1.66051e+58
          1222.88200	         1.37730e+58
          1223.68830	         1.36401e+58
          1224.49460	         7.14670e+57
          1225.30090	         2.67336e+57
          1226.10720	         5.70048e+57
          1226.91350	         7.23215e+57
          1227.71980	         8.94713e+57
          1228.52610	         1.32504e+58
          1229.33240	         9.29789e+57
          1230.13870	         8.79214e+57
          1230.94500	         9.59480e+57
          1231.75130	         6.86607e+57
          1232.55760	         9.82734e+57
          1233.36390	         9.58225e+57
          1234.17020	         8.41286e+57
          1234.97650	         9.29166e+57
          1235.78280	         9.02412e+57
          1236.58910	         8.97007e+57
          1237.39540	         1.19705e+58
          1238.20170	         1.28548e+58
          1239.00800	         1.33791e+58
          1239.81430	         1.39430e+58
          1240.62060	         1.23213e+58
          1241.42690	         1.15064e+58
          1242.23320	         9.91685e+57
          1243.03950	         6.72054e+57
          1243.84580	         8.72769e+57
          1244.65210	         1.16276e+58
          1245.45840	         1.16784e+58
          1246.26470	         9.15709e+57
          1247.07100	         6.94268e+57
          1247.87730	         6.21509e+57
          1248.68360	         6.27778e+57
          1249.48990	         9.50356e+57
          1250.29620	         1.03485e+58
          1251.10250	         8.14916e+57
          1251.90880	         3.41232e+57
          1252.71510	         4.02195e+57
          1253.52140	         8.72194e+57
          1254.32770	         1.05306e+58
          1255.13400	         1.17386e+58
          1255.94030	         1.17767e+58
          1256.74660	         1.12204e+58
          1257.55290	         1.12920e+58
          1258.35920	         9.02294e+57
          1259.16550	         6.10118e+57
          1259.97180	         4.65168e+57
          1260.77810	         7.41002e+57
          1261.58440	         1.08492e+58
          1262.39070	         8.68529e+57
          1263.19700	         8.16175e+57
          1264.00330	         9.31353e+57
          1264.80960	         1.12179e+58
          1265.61590	         1.31474e+58
          1266.42220	         1.31391e+58
          1267.22850	         1.38257e+58
          1268.03480	         1.58121e+58
          1268.84110	         1.50975e+58
          1269.64740	         1.29773e+58
          1270.45370	         1.26231e+58
          1271.26000	         1.30048e+58
          1272.06630	         1.50045e+58
          1272.87260	         1.37499e+58
          1273.67890	         1.20603e+58
          1274.48520	         1.19795e+58
          1275.29150	         1.24558e+58
          1276.09780	         1.10316e+58
          1276.90410	         1.44817e+58
          1277.71040	         1.48185e+58
          1278.51670	         1.22535e+58
          1279.32300	         1.41615e+58
          1280.12930	         1.37512e+58
          1280.93560	         1.03002e+58
          1281.74190	         8.35091e+57
          1282.54820	         1.00188e+58
          1283.35450	         9.60944e+57
          1284.16080	         1.18994e+58
          1284.96710	         1.19609e+58
          1285.77340	         1.07285e+58
          1286.57970	         1.14373e+58
          1287.38600	         1.57413e+58
          1288.19230	         1.87538e+58
          1288.99860	         1.43455e+58
          1289.80490	         1.11723e+58
          1290.61120	         1.22909e+58
          1291.41750	         1.30144e+58
          1292.22380	         1.24456e+58
          1293.03010	         9.91820e+57
          1293.83640	         1.17275e+58
          1294.64270	         1.17109e+58
          1295.44900	         7.25715e+57
          1296.25530	         8.13297e+57
          1297.06160	         9.95621e+57
          1297.86790	         1.14289e+58
          1298.67420	         1.05169e+58
          1299.48050	         8.31610e+57
          1300.28680	         9.15874e+57
          1301.09310	         8.63499e+57
          1301.89940	         5.37353e+57
          1302.70570	         6.42034e+57
          1303.51200	         7.67798e+57
          1304.31830	         1.04653e+58
          1305.12460	         1.06633e+58
          1305.93090	         1.06485e+58
          1306.73720	         1.33244e+58
          1307.54350	         1.56094e+58
          1308.34980	         1.52692e+58
          1309.15610	         1.54020e+58
          1309.96240	         1.49986e+58
          1310.76870	         1.25212e+58
          1311.57500	         1.19861e+58
          1312.38130	         1.26700e+58
          1313.18760	         1.51793e+58
          1313.99390	         1.80075e+58
          1314.80020	         1.57107e+58
          1315.60650	         1.36544e+58
          1316.41280	         1.15309e+58
          1317.21910	         1.02928e+58
          1318.02540	         1.15570e+58
          1318.83170	         1.23678e+58
          1319.63800	         1.10233e+58
          1320.44430	         1.31032e+58
          1321.25060	         1.43431e+58
          1322.05690	         1.33340e+58
          1322.86320	         1.34280e+58
          1323.66950	         1.21074e+58
          1324.47580	         9.87502e+57
          1325.28210	         9.33087e+57
          1326.08840	         1.13551e+58
          1326.89470	         1.27411e+58
          1327.70100	         1.03626e+58
          1328.50730	         7.83593e+57
          1329.31360	         8.10261e+57
          1330.11990	         7.84138e+57
          1330.92620	         7.21296e+57
          1331.73250	         9.37356e+57
          1332.53880	         9.63884e+57
          1333.34510	         9.32265e+57
          1334.15140	         8.79861e+57
          1334.95770	         9.58331e+57
          1335.76400	         1.15644e+58
          1336.57030	         1.16741e+58
          1337.37660	         1.15373e+58
          1338.18290	         1.16770e+58
          1338.98920	         1.18275e+58
          1339.79550	         1.00975e+58
          1340.60180	         1.22421e+58
          1341.40810	         1.50012e+58
          1342.21440	         1.23867e+58
          1343.02070	         1.18155e+58
          1343.82700	         1.28292e+58
          1344.63330	         1.24153e+58
          1345.43960	         1.30363e+58
          1346.24590	         1.27169e+58
          1347.05220	         1.22823e+58
          1347.85850	         1.16298e+58
          1348.66480	         1.17638e+58
          1349.47110	         1.23605e+58
          1350.27740	         1.07057e+58
          1351.08370	         1.05789e+58
          1351.89000	         1.04465e+58
          1352.69630	         1.03255e+58
          1353.50260	         1.11108e+58
          1354.30890	         1.16785e+58
          1355.11520	         1.20356e+58
          1355.92150	         1.09251e+58
          1356.72780	         1.00800e+58
          1357.53410	         9.56540e+57
          1358.34040	         1.04393e+58
          1359.14670	         1.04777e+58
          1359.95300	         1.13028e+58
          1360.75930	         1.17192e+58
          1361.56560	         1.05825e+58
          1362.37190	         1.19136e+58
          1363.17820	         1.16125e+58
          1363.98450	         1.17293e+58
          1364.79080	         1.20233e+58
          1365.59710	         1.41769e+58
          1366.40340	         1.37729e+58
          1367.20970	         1.01817e+58
          1368.01600	         1.06506e+58
          1368.82230	         1.13891e+58
          1369.62860	         1.16122e+58
          1370.43490	         8.86602e+57
          1371.24120	         9.93022e+57
          1372.04750	         9.76545e+57
          1372.85380	         1.15877e+58
          1373.66010	         1.16688e+58
          1374.46640	         1.13736e+58
          1375.27270	         1.05803e+58
          1376.07900	         7.91444e+57
          1376.88530	         8.72434e+57
          1377.69160	         9.69239e+57
          1378.49790	         7.65212e+57
          1379.30420	         7.89372e+57
          1380.11050	         8.79734e+57
          1380.91680	         8.47599e+57
          1381.72310	         9.86851e+57
          1382.52940	         9.36215e+57
          1383.33570	         7.68164e+57
          1384.14200	         9.82799e+57
          1384.94830	         1.16591e+58
          1385.75460	         1.18091e+58
          1386.56090	         1.07059e+58
          1387.36720	         1.13239e+58
          1388.17350	         1.31334e+58
          1388.97980	         1.05614e+58
          1389.78610	         7.56075e+57
          1390.59240	         7.21792e+57
          1391.39870	         8.35015e+57
          1392.20500	         8.22147e+57
          1393.01130	         7.43176e+57
          1393.81760	         8.41939e+57
          1394.62390	         7.28801e+57
          1395.43020	         6.34668e+57
          1396.23650	         7.18419e+57
          1397.04280	         7.85194e+57
          1397.84910	         8.86492e+57
          1398.65540	         9.93454e+57
          1399.46170	         1.20857e+58
          1400.26800	         9.63531e+57
          1401.07430	         7.48910e+57
          1401.88060	         7.80537e+57
          1402.68690	         9.09450e+57
          1403.49320	         9.06428e+57
          1404.29950	         9.78735e+57
          1405.10580	         1.10914e+58
          1405.91210	         1.15238e+58
          1406.71840	         1.10151e+58
          1407.52470	         9.85560e+57
          1408.33100	         1.00352e+58
          1409.13730	         1.12495e+58
          1409.94360	         1.18880e+58
          1410.74990	         1.12663e+58
          1411.55620	         9.90042e+57
          1412.36250	         8.93674e+57
          1413.16880	         8.31393e+57
          1413.97510	         9.17955e+57
          1414.78140	         9.86600e+57
          1415.58770	         1.05744e+58
          1416.39400	         1.10534e+58
          1417.20030	         9.27722e+57
          1418.00660	         8.95063e+57
          1418.81290	         1.08934e+58
          1419.61920	         1.26652e+58
          1420.42550	         1.30008e+58
          1421.23180	         1.30681e+58
          1422.03810	         1.21729e+58
          1422.84440	         1.13082e+58
          1423.65070	         1.32415e+58
          1424.45700	         1.13848e+58
          1425.26330	         7.95480e+57
          1426.06960	         8.24666e+57
          1426.87590	         1.03892e+58
          1427.68220	         9.78067e+57
          1428.48850	         1.06630e+58
          1429.29480	         1.11283e+58
          1430.10110	         1.04324e+58
          1430.90740	         8.52833e+57
          1431.71370	         8.25660e+57
          1432.52000	         8.47045e+57
          1433.32630	         7.44975e+57
          1434.13260	         7.35291e+57
          1434.93890	         8.46110e+57
          1435.74520	         9.07139e+57
          1436.55150	         9.24352e+57
          1437.35780	         9.26918e+57
          1438.16410	         9.83164e+57
          1438.97040	         9.80201e+57
          1439.77670	         9.00365e+57
          1440.58300	         8.73774e+57
          1441.38930	         8.52659e+57
          1442.19560	         8.85129e+57
          1443.00190	         9.97746e+57
          1443.80820	         1.15688e+58
          1444.61450	         1.07689e+58
          1445.42080	         8.37581e+57
          1446.22710	         1.02540e+58
          1447.03340	         9.75467e+57
          1447.83970	         1.04749e+58
          1448.64600	         1.05423e+58
          1449.45230	         9.66749e+57
          1450.25860	         1.03643e+58
          1451.06490	         8.74206e+57
          1451.87120	         6.88445e+57
          1452.67750	         7.29545e+57
          1453.48380	         8.76980e+57
          1454.29010	         8.28580e+57
          1455.09640	         7.38627e+57
          1455.90270	         7.48103e+57
          1456.70900	         7.41307e+57
          1457.51530	         9.47023e+57
          1458.32160	         1.28588e+58
          1459.12790	         1.27728e+58
          1459.93420	         9.25727e+57
          1460.74050	         7.87294e+57
          1461.54680	         8.30170e+57
          1462.35310	         9.13300e+57
          1463.15940	         1.00721e+58
          1463.96570	         1.15371e+58
          1464.77200	         1.19115e+58
          1465.57830	         1.09310e+58
          1466.38460	         1.00721e+58
          1467.19090	         9.15092e+57
          1467.99720	         9.51015e+57
          1468.80350	         9.34928e+57
          1469.60980	         1.02321e+58
          1470.41610	         1.13635e+58
          1471.22240	         9.96000e+57
          1472.02870	         1.06275e+58
          1472.83500	         1.05500e+58
          1473.64130	         1.03681e+58
          1474.44760	         1.00469e+58
          1475.25390	         9.83330e+57
          1476.06020	         9.41113e+57
          1476.86650	         8.06223e+57
          1477.67280	         7.54453e+57
          1478.47910	         7.50989e+57
          1479.28540	         7.03322e+57
          1480.09170	         9.18075e+57
          1480.89800	         9.31319e+57
          1481.70430	         9.16212e+57
          1482.51060	         8.74953e+57
          1483.31690	         7.43996e+57
          1484.12320	         6.57403e+57
          1484.92950	         7.83712e+57
          1485.73580	         9.21394e+57
          1486.54210	         1.00256e+58
          1487.34840	         9.21813e+57
          1488.15470	         8.17427e+57
          1488.96100	         7.98465e+57
          1489.76730	         8.69901e+57
