#sample_114_stacked_spectrum_rest_UV-bands_median_H-alpha_noDC.txt
#median Lum: 1.69571e+42
#Rest-frame wavelength (A) | Luminosity (erg/s/A)
#
          1110.00000	         0.00000e+00
          1110.80630	         2.58931e+59
          1111.61260	         1.73125e+58
          1112.41890	         1.07335e+59
          1113.22520	        -1.07494e+59
          1114.03150	        -2.82006e+59
          1114.83780	        -2.42476e+57
          1115.64410	         6.60628e+58
          1116.45040	        -9.94681e+58
          1117.25670	        -1.73751e+59
          1118.06300	         2.04398e+59
          1118.86930	         1.06473e+59
          1119.67560	         1.50945e+59
          1120.48190	         4.48799e+57
          1121.28820	        -4.54846e+58
          1122.09450	         5.60013e+58
          1122.90080	        -1.54695e+58
          1123.70710	        -7.44915e+57
          1124.51340	         8.19102e+58
          1125.31970	         2.58708e+58
          1126.12600	         1.88190e+58
          1126.93230	        -3.20798e+58
          1127.73860	        -8.28954e+58
          1128.54490	        -3.91613e+58
          1129.35120	        -2.83372e+58
          1130.15750	        -4.21664e+58
          1130.96380	        -1.85129e+58
          1131.77010	         7.40835e+58
          1132.57640	         3.72306e+58
          1133.38270	         3.01672e+58
          1134.18900	         2.66182e+58
          1134.99530	         3.59019e+57
          1135.80160	         3.92870e+58
          1136.60790	         2.11683e+58
          1137.41420	        -2.98345e+57
          1138.22050	         3.52953e+58
          1139.02680	         5.02779e+58
          1139.83310	         3.47537e+58
          1140.63940	         2.18803e+58
          1141.44570	        -2.04973e+58
          1142.25200	        -3.87713e+57
          1143.05830	         1.64979e+58
          1143.86460	         3.46424e+58
          1144.67090	         2.94992e+58
          1145.47720	         1.54611e+58
          1146.28350	         8.09918e+57
          1147.08980	         1.17870e+58
          1147.89610	         1.34844e+58
          1148.70240	         2.37322e+58
          1149.50870	         3.13673e+58
          1150.31500	         1.88479e+58
          1151.12130	         1.30460e+58
          1151.92760	         7.77483e+57
          1152.73390	         9.77869e+57
          1153.54020	         8.63926e+57
          1154.34650	         1.54947e+58
          1155.15280	         1.69956e+58
          1155.95910	         1.49090e+58
          1156.76540	         1.37078e+58
          1157.57170	         1.32443e+58
          1158.37800	         3.96884e+57
          1159.18430	         2.85252e+57
          1159.99060	         1.45477e+58
          1160.79690	         7.80574e+57
          1161.60320	         7.75766e+57
          1162.40950	         1.90291e+58
          1163.21580	         1.81384e+58
          1164.02210	         1.99508e+58
          1164.82840	         1.14893e+58
          1165.63470	         2.12669e+58
          1166.44100	         3.25674e+58
          1167.24730	         2.65475e+58
          1168.05360	         1.09040e+58
          1168.85990	         1.14334e+58
          1169.66620	         1.11802e+58
          1170.47250	         1.13799e+58
          1171.27880	         9.42036e+57
          1172.08510	         1.09526e+58
          1172.89140	         8.21923e+57
          1173.69770	         6.06050e+57
          1174.50400	         1.18569e+58
          1175.31030	         1.75573e+58
          1176.11660	         1.63528e+58
          1176.92290	         1.22685e+58
          1177.72920	         1.12793e+58
          1178.53550	         5.87234e+57
          1179.34180	         8.83936e+57
          1180.14810	         5.60082e+57
          1180.95440	         8.69597e+57
          1181.76070	         8.60892e+57
          1182.56700	         3.33482e+57
          1183.37330	         6.34988e+57
          1184.17960	         1.70828e+58
          1184.98590	         1.46695e+58
          1185.79220	         1.02155e+58
          1186.59850	         1.23916e+58
          1187.40480	         1.17125e+58
          1188.21110	         1.59936e+58
          1189.01740	         9.56119e+57
          1189.82370	         5.13098e+57
          1190.63000	         1.74055e+58
          1191.43630	         2.03303e+58
          1192.24260	         9.83045e+57
          1193.04890	         1.19500e+58
          1193.85520	         1.49121e+58
          1194.66150	         6.38640e+57
          1195.46780	         1.40346e+58
          1196.27410	         1.37623e+58
          1197.08040	         1.51538e+58
          1197.88670	         1.64810e+58
          1198.69300	         1.67173e+58
          1199.49930	         1.90871e+58
          1200.30560	         1.22368e+58
          1201.11190	         1.10202e+58
          1201.91820	         1.25229e+58
          1202.72450	         8.20788e+57
          1203.53080	         1.44348e+58
          1204.33710	         1.04908e+58
          1205.14340	         6.10812e+57
          1205.94970	         5.77810e+57
          1206.75600	         1.03198e+58
          1207.56230	         5.63177e+57
          1208.36860	         7.61806e+57
          1209.17490	         3.64932e+57
          1209.98120	         5.10399e+57
          1210.78750	         5.31289e+57
          1211.59380	         1.02271e+58
          1212.40010	         1.74123e+58
          1213.20640	         1.67218e+58
          1214.01270	         1.95562e+58
          1214.81900	         2.47355e+58
          1215.62530	         4.31540e+58
          1216.43160	         8.92056e+58
          1217.23790	         1.57550e+59
          1218.04420	         1.14139e+59
          1218.85050	         8.83403e+58
          1219.65680	         5.93702e+58
          1220.46310	         3.33761e+58
          1221.26940	         2.14121e+58
          1222.07570	         1.23179e+58
          1222.88200	         1.15318e+58
          1223.68830	         1.12926e+58
          1224.49460	         8.51682e+57
          1225.30090	         5.82819e+57
          1226.10720	         6.78729e+57
          1226.91350	         7.44804e+57
          1227.71980	         1.04836e+58
          1228.52610	         1.10195e+58
          1229.33240	         6.98310e+57
          1230.13870	         8.73050e+57
          1230.94500	         1.07667e+58
          1231.75130	         5.38691e+57
          1232.55760	         8.13947e+57
          1233.36390	         8.84949e+57
          1234.17020	         9.10203e+57
          1234.97650	         8.11606e+57
          1235.78280	         6.37415e+57
          1236.58910	         1.01563e+58
          1237.39540	         1.18801e+58
          1238.20170	         8.66756e+57
          1239.00800	         9.81558e+57
          1239.81430	         1.28985e+58
          1240.62060	         1.20772e+58
          1241.42690	         1.01118e+58
          1242.23320	         1.05802e+58
          1243.03950	         9.30923e+57
          1243.84580	         9.16680e+57
          1244.65210	         1.10356e+58
          1245.45840	         9.94923e+57
          1246.26470	         9.66807e+57
          1247.07100	         1.08660e+58
          1247.87730	         7.40496e+57
          1248.68360	         3.63141e+57
          1249.48990	         5.04080e+57
          1250.29620	         7.47740e+57
          1251.10250	         5.83467e+57
          1251.90880	         4.91754e+57
          1252.71510	         5.03566e+57
          1253.52140	         6.54494e+57
          1254.32770	         1.01953e+58
          1255.13400	         1.23817e+58
          1255.94030	         1.12657e+58
          1256.74660	         1.04688e+58
          1257.55290	         9.41434e+57
          1258.35920	         7.86360e+57
          1259.16550	         5.40666e+57
          1259.97180	         5.89604e+57
          1260.77810	         9.66861e+57
          1261.58440	         1.17218e+58
          1262.39070	         8.21828e+57
          1263.19700	         8.14818e+57
          1264.00330	         8.54914e+57
          1264.80960	         9.24689e+57
          1265.61590	         1.30849e+58
          1266.42220	         1.23228e+58
          1267.22850	         1.08759e+58
          1268.03480	         1.40100e+58
          1268.84110	         1.46098e+58
          1269.64740	         1.34760e+58
          1270.45370	         1.37321e+58
          1271.26000	         1.15371e+58
          1272.06630	         1.06790e+58
          1272.87260	         1.09519e+58
          1273.67890	         1.08251e+58
          1274.48520	         1.15537e+58
          1275.29150	         1.39821e+58
          1276.09780	         1.39778e+58
          1276.90410	         1.42298e+58
          1277.71040	         1.20286e+58
          1278.51670	         1.15044e+58
          1279.32300	         1.39447e+58
          1280.12930	         1.30728e+58
          1280.93560	         1.05179e+58
          1281.74190	         1.02670e+58
          1282.54820	         1.20802e+58
          1283.35450	         1.28568e+58
          1284.16080	         1.24219e+58
          1284.96710	         1.26828e+58
          1285.77340	         1.13037e+58
          1286.57970	         1.20251e+58
          1287.38600	         1.38825e+58
          1288.19230	         1.60097e+58
          1288.99860	         1.73128e+58
          1289.80490	         1.21842e+58
          1290.61120	         1.28895e+58
          1291.41750	         1.45421e+58
          1292.22380	         1.14244e+58
          1293.03010	         1.06514e+58
          1293.83640	         1.14191e+58
          1294.64270	         1.10013e+58
          1295.44900	         7.44286e+57
          1296.25530	         6.89408e+57
          1297.06160	         8.28092e+57
          1297.86790	         8.40953e+57
          1298.67420	         8.14048e+57
          1299.48050	         9.55833e+57
          1300.28680	         1.12069e+58
          1301.09310	         8.32226e+57
          1301.89940	         3.63478e+57
          1302.70570	         5.89632e+57
          1303.51200	         7.65459e+57
          1304.31830	         8.11049e+57
          1305.12460	         9.80253e+57
          1305.93090	         1.12886e+58
          1306.73720	         1.25741e+58
          1307.54350	         1.47219e+58
          1308.34980	         1.55760e+58
          1309.15610	         1.52169e+58
          1309.96240	         1.54439e+58
          1310.76870	         1.54366e+58
          1311.57500	         1.34576e+58
          1312.38130	         1.16123e+58
          1313.18760	         1.59137e+58
          1313.99390	         1.92567e+58
          1314.80020	         1.77327e+58
          1315.60650	         1.46421e+58
          1316.41280	         1.24759e+58
          1317.21910	         1.13610e+58
          1318.02540	         1.41248e+58
          1318.83170	         1.35943e+58
          1319.63800	         1.14725e+58
          1320.44430	         1.30399e+58
          1321.25060	         1.30353e+58
          1322.05690	         1.30720e+58
          1322.86320	         1.23645e+58
          1323.66950	         9.77088e+57
          1324.47580	         8.40201e+57
          1325.28210	         1.00037e+58
          1326.08840	         1.13577e+58
          1326.89470	         1.13502e+58
          1327.70100	         1.05928e+58
          1328.50730	         8.19720e+57
          1329.31360	         8.65752e+57
          1330.11990	         1.07284e+58
          1330.92620	         1.05262e+58
          1331.73250	         1.04725e+58
          1332.53880	         9.43422e+57
          1333.34510	         8.46902e+57
          1334.15140	         8.14806e+57
          1334.95770	         7.97769e+57
          1335.76400	         1.04834e+58
          1336.57030	         1.18891e+58
          1337.37660	         1.13288e+58
          1338.18290	         1.07740e+58
          1338.98920	         1.14717e+58
          1339.79550	         1.21546e+58
          1340.60180	         1.22482e+58
          1341.40810	         1.31860e+58
          1342.21440	         1.14108e+58
          1343.02070	         1.25550e+58
          1343.82700	         1.40689e+58
          1344.63330	         1.24830e+58
          1345.43960	         1.28776e+58
          1346.24590	         1.24007e+58
          1347.05220	         1.35066e+58
          1347.85850	         1.05867e+58
          1348.66480	         1.04855e+58
          1349.47110	         1.09962e+58
          1350.27740	         1.04414e+58
          1351.08370	         1.07827e+58
          1351.89000	         1.16153e+58
          1352.69630	         1.20133e+58
          1353.50260	         1.29785e+58
          1354.30890	         1.17075e+58
          1355.11520	         1.08173e+58
          1355.92150	         1.18194e+58
          1356.72780	         1.08912e+58
          1357.53410	         1.03763e+58
          1358.34040	         1.14990e+58
          1359.14670	         1.01896e+58
          1359.95300	         1.04621e+58
          1360.75930	         1.08611e+58
          1361.56560	         9.66434e+57
          1362.37190	         1.01340e+58
          1363.17820	         9.94909e+57
          1363.98450	         1.01611e+58
          1364.79080	         1.13318e+58
          1365.59710	         1.20277e+58
          1366.40340	         1.15264e+58
          1367.20970	         1.02351e+58
          1368.01600	         9.77695e+57
          1368.82230	         9.18315e+57
          1369.62860	         1.03906e+58
          1370.43490	         9.92178e+57
          1371.24120	         8.66913e+57
          1372.04750	         9.87447e+57
          1372.85380	         1.09822e+58
          1373.66010	         1.09936e+58
          1374.46640	         1.04954e+58
          1375.27270	         1.15330e+58
          1376.07900	         1.10347e+58
          1376.88530	         9.08140e+57
          1377.69160	         7.52815e+57
          1378.49790	         6.69362e+57
          1379.30420	         8.18889e+57
          1380.11050	         8.83028e+57
          1380.91680	         8.48283e+57
          1381.72310	         8.50164e+57
          1382.52940	         8.16368e+57
          1383.33570	         9.27675e+57
          1384.14200	         9.69903e+57
          1384.94830	         9.99186e+57
          1385.75460	         1.10196e+58
          1386.56090	         1.11579e+58
          1387.36720	         1.00211e+58
          1388.17350	         1.30994e+58
          1388.97980	         1.27719e+58
          1389.78610	         9.33102e+57
          1390.59240	         8.03972e+57
          1391.39870	         8.27777e+57
          1392.20500	         9.54922e+57
          1393.01130	         8.95599e+57
          1393.81760	         8.00420e+57
          1394.62390	         7.20347e+57
          1395.43020	         6.42127e+57
          1396.23650	         6.67625e+57
          1397.04280	         8.05986e+57
          1397.84910	         8.15482e+57
          1398.65540	         8.17230e+57
          1399.46170	         9.61049e+57
          1400.26800	         8.32469e+57
          1401.07430	         7.38673e+57
          1401.88060	         7.62265e+57
          1402.68690	         7.83364e+57
          1403.49320	         8.39548e+57
          1404.29950	         9.95584e+57
          1405.10580	         9.88799e+57
          1405.91210	         1.05180e+58
          1406.71840	         1.11992e+58
          1407.52470	         1.07976e+58
          1408.33100	         1.00303e+58
          1409.13730	         1.14163e+58
          1409.94360	         1.18723e+58
          1410.74990	         1.08512e+58
          1411.55620	         1.01148e+58
          1412.36250	         9.60873e+57
          1413.16880	         8.69265e+57
          1413.97510	         8.25013e+57
          1414.78140	         9.59092e+57
          1415.58770	         1.23627e+58
          1416.39400	         1.07645e+58
          1417.20030	         9.29213e+57
          1418.00660	         9.13232e+57
          1418.81290	         9.39364e+57
          1419.61920	         1.00737e+58
          1420.42550	         1.13452e+58
          1421.23180	         1.16143e+58
          1422.03810	         1.12094e+58
          1422.84440	         1.21707e+58
          1423.65070	         1.40648e+58
          1424.45700	         1.07912e+58
          1425.26330	         7.36677e+57
          1426.06960	         8.00294e+57
          1426.87590	         8.41089e+57
          1427.68220	         9.43114e+57
          1428.48850	         1.04425e+58
          1429.29480	         9.16779e+57
          1430.10110	         9.51199e+57
          1430.90740	         9.11881e+57
          1431.71370	         9.79888e+57
          1432.52000	         9.87202e+57
          1433.32630	         7.46767e+57
          1434.13260	         6.20679e+57
          1434.93890	         7.65595e+57
          1435.74520	         8.99583e+57
          1436.55150	         8.89560e+57
          1437.35780	         7.83730e+57
          1438.16410	         8.13200e+57
          1438.97040	         7.69717e+57
          1439.77670	         7.97794e+57
          1440.58300	         9.36533e+57
          1441.38930	         9.93925e+57
          1442.19560	         1.00013e+58
          1443.00190	         9.36981e+57
          1443.80820	         1.16573e+58
          1444.61450	         1.11148e+58
          1445.42080	         8.39726e+57
          1446.22710	         1.00632e+58
          1447.03340	         9.84290e+57
          1447.83970	         9.80278e+57
          1448.64600	         9.78116e+57
          1449.45230	         9.51381e+57
          1450.25860	         1.00070e+58
          1451.06490	         8.99877e+57
          1451.87120	         7.91806e+57
          1452.67750	         7.87172e+57
          1453.48380	         8.10132e+57
          1454.29010	         7.67089e+57
          1455.09640	         7.48802e+57
          1455.90270	         7.75871e+57
          1456.70900	         8.94651e+57
          1457.51530	         9.98857e+57
          1458.32160	         1.17245e+58
          1459.12790	         1.09028e+58
          1459.93420	         9.07860e+57
          1460.74050	         8.31609e+57
          1461.54680	         8.46961e+57
          1462.35310	         7.98306e+57
          1463.15940	         9.67076e+57
          1463.96570	         1.21911e+58
          1464.77200	         1.26893e+58
          1465.57830	         1.12626e+58
          1466.38460	         9.81187e+57
          1467.19090	         9.04564e+57
          1467.99720	         8.59465e+57
          1468.80350	         8.83807e+57
          1469.60980	         9.28764e+57
          1470.41610	         9.73677e+57
          1471.22240	         9.31259e+57
          1472.02870	         9.73568e+57
          1472.83500	         9.91864e+57
          1473.64130	         8.37247e+57
          1474.44760	         8.85973e+57
          1475.25390	         8.22697e+57
          1476.06020	         6.98424e+57
          1476.86650	         8.66542e+57
          1477.67280	         7.88249e+57
          1478.47910	         7.64975e+57
          1479.28540	         7.57831e+57
          1480.09170	         7.81177e+57
          1480.89800	         8.34613e+57
          1481.70430	         8.55737e+57
          1482.51060	         7.75704e+57
          1483.31690	         7.40204e+57
          1484.12320	         7.31481e+57
          1484.92950	         7.49021e+57
          1485.73580	         8.46143e+57
          1486.54210	         9.38720e+57
          1487.34840	         9.96495e+57
          1488.15470	         9.25342e+57
          1488.96100	         9.54307e+57
          1489.76730	         8.97311e+57
