#sample_18_stacked_spectrum_rest_UV-bands_median_H-alpha_noDC.txt
#median Lum: 1.69166e+42
#Rest-frame wavelength (A) | Luminosity (erg/s/A)
#
          1110.00000	         0.00000e+00
          1110.80630	         2.09617e+59
          1111.61260	        -6.01521e+58
          1112.41890	         8.10201e+56
          1113.22520	        -7.21754e+58
          1114.03150	        -1.63475e+59
          1114.83780	         9.21732e+58
          1115.64410	         1.77992e+58
          1116.45040	         3.96009e+58
          1117.25670	        -8.53271e+58
          1118.06300	        -5.38995e+58
          1118.86930	         6.90394e+58
          1119.67560	         1.12336e+59
          1120.48190	        -1.60887e+58
          1121.28820	        -1.16147e+59
          1122.09450	         2.46787e+58
          1122.90080	         6.16388e+58
          1123.70710	        -1.95785e+58
          1124.51340	         5.76072e+58
          1125.31970	         9.65842e+57
          1126.12600	         3.32389e+58
          1126.93230	        -5.99167e+58
          1127.73860	        -1.05429e+59
          1128.54490	        -4.74095e+58
          1129.35120	         2.15314e+58
          1130.15750	         4.17481e+58
          1130.96380	        -2.12850e+58
          1131.77010	         4.47847e+58
          1132.57640	         5.75075e+58
          1133.38270	         6.21766e+58
          1134.18900	         7.79600e+57
          1134.99530	         7.99022e+57
          1135.80160	         2.78237e+58
          1136.60790	         1.23803e+58
          1137.41420	        -1.23303e+58
          1138.22050	         7.20056e+57
          1139.02680	         2.53576e+58
          1139.83310	         2.39507e+58
          1140.63940	        -2.29935e+57
          1141.44570	        -2.47368e+58
          1142.25200	        -8.01996e+57
          1143.05830	         1.39360e+58
          1143.86460	         4.06877e+58
          1144.67090	         2.72445e+58
          1145.47720	         9.84565e+57
          1146.28350	         1.26601e+58
          1147.08980	         2.47040e+58
          1147.89610	         1.75703e+58
          1148.70240	         2.43978e+58
          1149.50870	         1.93426e+58
          1150.31500	         8.04481e+57
          1151.12130	         2.78511e+57
          1151.92760	         4.25684e+56
          1152.73390	        -2.42911e+57
          1153.54020	         7.17416e+56
          1154.34650	         2.18585e+58
          1155.15280	         2.49068e+58
          1155.95910	         1.06507e+58
          1156.76540	         6.81899e+57
          1157.57170	        -3.02885e+57
          1158.37800	         1.10155e+58
          1159.18430	         4.57867e+57
          1159.99060	         3.40746e+57
          1160.79690	         5.62323e+57
          1161.60320	         8.07944e+57
          1162.40950	         1.43873e+58
          1163.21580	         1.76662e+58
          1164.02210	         2.00147e+58
          1164.82840	         4.36421e+57
          1165.63470	         1.57646e+58
          1166.44100	         2.93769e+58
          1167.24730	         2.47995e+58
          1168.05360	         8.37780e+57
          1168.85990	         4.66099e+57
          1169.66620	         1.36250e+58
          1170.47250	         1.60703e+58
          1171.27880	         1.42839e+58
          1172.08510	         2.39422e+58
          1172.89140	         1.41564e+58
          1173.69770	         6.44858e+57
          1174.50400	         1.65262e+58
          1175.31030	         2.00743e+58
          1176.11660	         1.90449e+58
          1176.92290	         1.35910e+58
          1177.72920	         1.06361e+58
          1178.53550	         6.20636e+57
          1179.34180	         4.84287e+57
          1180.14810	         4.66568e+57
          1180.95440	         8.78844e+57
          1181.76070	         6.41861e+57
          1182.56700	         2.61287e+57
          1183.37330	         5.78190e+57
          1184.17960	         1.33679e+58
          1184.98590	         1.04777e+58
          1185.79220	         4.95136e+57
          1186.59850	         5.29728e+57
          1187.40480	         8.97006e+57
          1188.21110	         1.49342e+58
          1189.01740	         1.88317e+58
          1189.82370	         1.11363e+58
          1190.63000	         9.49005e+57
          1191.43630	         1.11415e+58
          1192.24260	         7.44003e+57
          1193.04890	         9.50426e+57
          1193.85520	         1.35772e+58
          1194.66150	         7.05532e+57
          1195.46780	         1.01210e+58
          1196.27410	         1.41746e+58
          1197.08040	         9.39894e+57
          1197.88670	         1.32001e+58
          1198.69300	         1.33379e+58
          1199.49930	         1.60549e+58
          1200.30560	         1.19432e+58
          1201.11190	         8.85455e+57
          1201.91820	         7.59289e+57
          1202.72450	         9.08379e+57
          1203.53080	         1.41721e+58
          1204.33710	         1.14748e+58
          1205.14340	         5.26692e+57
          1205.94970	         4.00843e+57
          1206.75600	         7.86710e+57
          1207.56230	         5.52276e+57
          1208.36860	         1.10151e+58
          1209.17490	         6.30960e+57
          1209.98120	         5.92003e+57
          1210.78750	         5.55686e+57
          1211.59380	         9.45176e+57
          1212.40010	         1.69312e+58
          1213.20640	         2.28381e+58
          1214.01270	         1.94454e+58
          1214.81900	         2.12139e+58
          1215.62530	         4.54395e+58
          1216.43160	         9.32447e+58
          1217.23790	         1.52326e+59
          1218.04420	         1.20358e+59
          1218.85050	         8.79696e+58
          1219.65680	         5.73296e+58
          1220.46310	         3.63079e+58
          1221.26940	         2.50917e+58
          1222.07570	         1.54111e+58
          1222.88200	         8.59580e+57
          1223.68830	         7.20019e+57
          1224.49460	         6.92290e+57
          1225.30090	         5.63574e+57
          1226.10720	         6.03289e+57
          1226.91350	         7.08806e+57
          1227.71980	         6.91956e+57
          1228.52610	         8.01006e+57
          1229.33240	         9.04080e+57
          1230.13870	         6.38436e+57
          1230.94500	         5.70990e+57
          1231.75130	         4.36495e+57
          1232.55760	         6.53717e+57
          1233.36390	         6.33132e+57
          1234.17020	         1.03400e+58
          1234.97650	         8.82970e+57
          1235.78280	         8.84710e+57
          1236.58910	         9.66936e+57
          1237.39540	         9.40998e+57
          1238.20170	         1.16509e+58
          1239.00800	         1.46812e+58
          1239.81430	         1.48629e+58
          1240.62060	         1.09274e+58
          1241.42690	         1.05365e+58
          1242.23320	         1.08682e+58
          1243.03950	         8.34446e+57
          1243.84580	         7.89709e+57
          1244.65210	         9.50108e+57
          1245.45840	         9.88005e+57
          1246.26470	         1.12531e+58
          1247.07100	         1.01349e+58
          1247.87730	         9.31833e+57
          1248.68360	         7.04209e+57
          1249.48990	         6.50058e+57
          1250.29620	         9.78000e+57
          1251.10250	         4.97799e+57
          1251.90880	         3.17609e+57
          1252.71510	         7.66310e+57
          1253.52140	         6.61745e+57
          1254.32770	         5.77558e+57
          1255.13400	         1.09293e+58
          1255.94030	         1.07697e+58
          1256.74660	         1.01965e+58
          1257.55290	         1.20380e+58
          1258.35920	         9.44108e+57
          1259.16550	         7.20551e+57
          1259.97180	         3.37907e+57
          1260.77810	         6.03351e+57
          1261.58440	         1.01085e+58
          1262.39070	         9.00386e+57
          1263.19700	         7.91244e+57
          1264.00330	         9.17159e+57
          1264.80960	         1.07713e+58
          1265.61590	         1.27785e+58
          1266.42220	         1.29431e+58
          1267.22850	         1.02013e+58
          1268.03480	         1.20998e+58
          1268.84110	         1.50474e+58
          1269.64740	         1.28574e+58
          1270.45370	         1.29567e+58
          1271.26000	         1.18290e+58
          1272.06630	         8.98513e+57
          1272.87260	         9.85898e+57
          1273.67890	         1.20734e+58
          1274.48520	         1.27323e+58
          1275.29150	         1.20854e+58
          1276.09780	         1.45178e+58
          1276.90410	         1.57350e+58
          1277.71040	         1.41263e+58
          1278.51670	         1.34472e+58
          1279.32300	         1.45888e+58
          1280.12930	         1.34505e+58
          1280.93560	         1.14776e+58
          1281.74190	         1.13583e+58
          1282.54820	         1.11219e+58
          1283.35450	         8.87911e+57
          1284.16080	         9.77252e+57
          1284.96710	         1.12702e+58
          1285.77340	         1.06794e+58
          1286.57970	         1.11490e+58
          1287.38600	         1.49186e+58
          1288.19230	         1.76203e+58
          1288.99860	         1.31702e+58
          1289.80490	         1.03735e+58
          1290.61120	         1.23065e+58
          1291.41750	         1.27226e+58
          1292.22380	         1.29324e+58
          1293.03010	         1.24362e+58
          1293.83640	         1.29018e+58
          1294.64270	         1.10764e+58
          1295.44900	         6.66842e+57
          1296.25530	         7.42485e+57
          1297.06160	         9.98091e+57
          1297.86790	         1.02766e+58
          1298.67420	         9.22714e+57
          1299.48050	         8.46611e+57
          1300.28680	         9.61941e+57
          1301.09310	         6.89480e+57
          1301.89940	         3.04243e+57
          1302.70570	         5.34449e+57
          1303.51200	         7.17427e+57
          1304.31830	         9.28251e+57
          1305.12460	         9.62800e+57
          1305.93090	         1.01191e+58
          1306.73720	         1.15811e+58
          1307.54350	         1.43531e+58
          1308.34980	         1.60635e+58
          1309.15610	         1.44838e+58
          1309.96240	         1.33025e+58
          1310.76870	         1.54095e+58
          1311.57500	         1.28108e+58
          1312.38130	         1.04177e+58
          1313.18760	         1.28653e+58
          1313.99390	         1.65961e+58
          1314.80020	         1.72833e+58
          1315.60650	         1.37471e+58
          1316.41280	         9.72422e+57
          1317.21910	         1.11912e+58
          1318.02540	         1.13951e+58
          1318.83170	         1.19123e+58
          1319.63800	         1.09532e+58
          1320.44430	         1.14399e+58
          1321.25060	         1.28378e+58
          1322.05690	         1.17953e+58
          1322.86320	         1.22561e+58
          1323.66950	         1.21281e+58
          1324.47580	         9.91841e+57
          1325.28210	         1.03438e+58
          1326.08840	         1.18920e+58
          1326.89470	         1.18671e+58
          1327.70100	         8.97396e+57
          1328.50730	         9.30103e+57
          1329.31360	         1.20151e+58
          1330.11990	         1.13064e+58
          1330.92620	         9.31729e+57
          1331.73250	         1.24044e+58
          1332.53880	         1.27744e+58
          1333.34510	         1.09464e+58
          1334.15140	         9.13734e+57
          1334.95770	         8.16277e+57
          1335.76400	         1.02128e+58
          1336.57030	         1.21573e+58
          1337.37660	         1.21647e+58
          1338.18290	         1.23417e+58
          1338.98920	         1.18376e+58
          1339.79550	         1.19786e+58
          1340.60180	         1.25618e+58
          1341.40810	         1.40031e+58
          1342.21440	         1.19792e+58
          1343.02070	         1.10550e+58
          1343.82700	         1.08827e+58
          1344.63330	         1.03099e+58
          1345.43960	         1.18041e+58
          1346.24590	         1.17512e+58
          1347.05220	         1.17882e+58
          1347.85850	         8.79240e+57
          1348.66480	         9.80423e+57
          1349.47110	         1.22969e+58
          1350.27740	         1.10008e+58
          1351.08370	         1.09485e+58
          1351.89000	         1.08993e+58
          1352.69630	         1.05387e+58
          1353.50260	         1.16846e+58
          1354.30890	         1.19092e+58
          1355.11520	         1.25177e+58
          1355.92150	         1.20210e+58
          1356.72780	         9.74457e+57
          1357.53410	         8.94582e+57
          1358.34040	         1.03038e+58
          1359.14670	         1.12394e+58
          1359.95300	         1.12573e+58
          1360.75930	         1.05220e+58
          1361.56560	         1.08644e+58
          1362.37190	         1.15472e+58
          1363.17820	         1.19947e+58
          1363.98450	         1.25831e+58
          1364.79080	         1.16879e+58
          1365.59710	         1.15168e+58
          1366.40340	         1.20995e+58
          1367.20970	         1.08029e+58
          1368.01600	         8.49635e+57
          1368.82230	         7.89600e+57
          1369.62860	         1.05503e+58
          1370.43490	         9.31765e+57
          1371.24120	         9.69142e+57
          1372.04750	         1.03233e+58
          1372.85380	         1.20184e+58
          1373.66010	         1.19420e+58
          1374.46640	         1.09091e+58
          1375.27270	         1.08095e+58
          1376.07900	         8.79743e+57
          1376.88530	         7.69006e+57
          1377.69160	         7.31659e+57
          1378.49790	         7.56125e+57
          1379.30420	         8.50550e+57
          1380.11050	         1.05220e+58
          1380.91680	         1.02315e+58
          1381.72310	         8.62700e+57
          1382.52940	         9.19090e+57
          1383.33570	         9.14936e+57
          1384.14200	         1.07170e+58
          1384.94830	         1.17082e+58
          1385.75460	         1.06778e+58
          1386.56090	         1.14097e+58
          1387.36720	         1.08352e+58
          1388.17350	         1.24363e+58
          1388.97980	         1.11111e+58
          1389.78610	         7.36699e+57
          1390.59240	         7.30399e+57
          1391.39870	         7.74578e+57
          1392.20500	         9.46664e+57
          1393.01130	         7.71524e+57
          1393.81760	         8.05841e+57
          1394.62390	         7.82329e+57
          1395.43020	         5.57555e+57
          1396.23650	         6.33593e+57
          1397.04280	         8.13846e+57
          1397.84910	         8.78651e+57
          1398.65540	         8.38981e+57
          1399.46170	         9.35644e+57
          1400.26800	         7.58243e+57
          1401.07430	         6.92647e+57
          1401.88060	         7.87401e+57
          1402.68690	         8.48976e+57
          1403.49320	         8.49685e+57
          1404.29950	         8.87991e+57
          1405.10580	         1.02278e+58
          1405.91210	         1.14727e+58
          1406.71840	         1.09573e+58
          1407.52470	         9.93316e+57
          1408.33100	         9.76942e+57
          1409.13730	         1.16148e+58
          1409.94360	         1.18342e+58
          1410.74990	         1.02609e+58
          1411.55620	         9.57222e+57
          1412.36250	         9.60666e+57
          1413.16880	         9.65442e+57
          1413.97510	         8.88865e+57
          1414.78140	         9.71604e+57
          1415.58770	         1.19465e+58
          1416.39400	         1.11772e+58
          1417.20030	         1.04225e+58
          1418.00660	         1.00926e+58
          1418.81290	         1.01677e+58
          1419.61920	         9.65655e+57
          1420.42550	         1.14707e+58
          1421.23180	         1.29724e+58
          1422.03810	         1.23825e+58
          1422.84440	         1.19244e+58
          1423.65070	         1.32437e+58
          1424.45700	         1.19577e+58
          1425.26330	         8.98489e+57
          1426.06960	         9.73938e+57
          1426.87590	         1.05035e+58
          1427.68220	         9.89094e+57
          1428.48850	         1.02879e+58
          1429.29480	         1.09298e+58
          1430.10110	         1.01633e+58
          1430.90740	         9.09377e+57
          1431.71370	         8.30519e+57
          1432.52000	         8.78539e+57
          1433.32630	         9.13759e+57
          1434.13260	         8.38264e+57
          1434.93890	         8.08076e+57
          1435.74520	         9.41469e+57
          1436.55150	         1.02606e+58
          1437.35780	         8.45245e+57
          1438.16410	         8.60579e+57
          1438.97040	         9.23816e+57
          1439.77670	         9.32759e+57
          1440.58300	         9.31587e+57
          1441.38930	         9.17494e+57
          1442.19560	         9.72713e+57
          1443.00190	         9.70178e+57
          1443.80820	         1.05232e+58
          1444.61450	         1.00277e+58
          1445.42080	         8.91442e+57
          1446.22710	         1.03664e+58
          1447.03340	         1.01909e+58
          1447.83970	         1.07066e+58
          1448.64600	         1.09105e+58
          1449.45230	         9.99845e+57
          1450.25860	         9.30933e+57
          1451.06490	         8.26198e+57
          1451.87120	         7.53778e+57
          1452.67750	         7.89518e+57
          1453.48380	         8.77033e+57
          1454.29010	         8.37827e+57
          1455.09640	         7.48633e+57
          1455.90270	         7.65811e+57
          1456.70900	         8.53586e+57
          1457.51530	         1.03424e+58
          1458.32160	         1.30834e+58
          1459.12790	         1.30735e+58
          1459.93420	         1.11949e+58
          1460.74050	         9.06622e+57
          1461.54680	         8.11945e+57
          1462.35310	         8.14618e+57
          1463.15940	         1.01216e+58
          1463.96570	         1.11368e+58
          1464.77200	         1.22145e+58
          1465.57830	         1.11583e+58
          1466.38460	         1.08120e+58
          1467.19090	         9.73130e+57
          1467.99720	         9.37498e+57
          1468.80350	         1.01318e+58
          1469.60980	         1.01023e+58
          1470.41610	         1.06009e+58
          1471.22240	         1.00893e+58
          1472.02870	         9.04228e+57
          1472.83500	         8.99820e+57
          1473.64130	         9.53359e+57
          1474.44760	         9.33961e+57
          1475.25390	         1.01941e+58
          1476.06020	         8.79725e+57
          1476.86650	         7.72561e+57
          1477.67280	         8.00753e+57
          1478.47910	         7.59038e+57
          1479.28540	         8.04325e+57
          1480.09170	         8.45403e+57
          1480.89800	         9.61189e+57
          1481.70430	         8.84804e+57
          1482.51060	         7.20851e+57
          1483.31690	         6.61122e+57
          1484.12320	         7.41132e+57
          1484.92950	         8.04955e+57
          1485.73580	         8.37087e+57
          1486.54210	         9.24593e+57
          1487.34840	         9.10213e+57
          1488.15470	         8.86443e+57
          1488.96100	         9.04034e+57
          1489.76730	         8.43562e+57
