#sample_161_stacked_spectrum_rest_UV-bands_median_H-alpha_noDC.txt
#median Lum: 1.68467e+42
#Rest-frame wavelength (A) | Luminosity (erg/s/A)
#
          1110.00000	         0.00000e+00
          1110.80630	         7.15315e+58
          1111.61260	         1.86837e+59
          1112.41890	         4.35145e+58
          1113.22520	        -1.26453e+59
          1114.03150	         6.92521e+57
          1114.83780	         1.01353e+59
          1115.64410	         1.30218e+59
          1116.45040	         1.21136e+59
          1117.25670	         6.12043e+58
          1118.06300	         1.59434e+59
          1118.86930	         5.87098e+58
          1119.67560	         7.27172e+58
          1120.48190	         6.55072e+58
          1121.28820	        -1.18255e+59
          1122.09450	         7.00422e+58
          1122.90080	         1.22167e+59
          1123.70710	         7.79831e+58
          1124.51340	         5.86179e+58
          1125.31970	         3.65495e+58
          1126.12600	         1.12824e+58
          1126.93230	        -3.57427e+58
          1127.73860	        -4.42013e+58
          1128.54490	        -1.53445e+58
          1129.35120	        -8.79303e+57
          1130.15750	        -1.48352e+58
          1130.96380	        -8.90446e+57
          1131.77010	         3.91457e+58
          1132.57640	         4.54598e+58
          1133.38270	         1.50292e+58
          1134.18900	         1.10688e+58
          1134.99530	         3.66564e+58
          1135.80160	         3.43696e+58
          1136.60790	         1.60809e+58
          1137.41420	         4.69928e+56
          1138.22050	         2.68727e+58
          1139.02680	         2.02492e+58
          1139.83310	         1.45580e+58
          1140.63940	         2.43214e+58
          1141.44570	        -2.27758e+58
          1142.25200	        -9.01985e+57
          1143.05830	         3.50739e+58
          1143.86460	         5.06406e+58
          1144.67090	         8.87100e+57
          1145.47720	         1.31358e+57
          1146.28350	         1.44585e+58
          1147.08980	         1.56340e+58
          1147.89610	         1.74648e+58
          1148.70240	         2.61232e+58
          1149.50870	         3.16550e+58
          1150.31500	         1.28196e+58
          1151.12130	         5.75997e+57
          1151.92760	         6.61687e+57
          1152.73390	         6.90828e+57
          1153.54020	         6.08862e+57
          1154.34650	         1.96372e+58
          1155.15280	         2.31109e+58
          1155.95910	         1.29625e+58
          1156.76540	         1.24959e+58
          1157.57170	         3.12726e+57
          1158.37800	        -4.15556e+57
          1159.18430	         6.57706e+57
          1159.99060	         6.53464e+57
          1160.79690	        -3.88216e+57
          1161.60320	         1.18048e+58
          1162.40950	         1.88251e+58
          1163.21580	         1.50340e+58
          1164.02210	         1.35861e+58
          1164.82840	         1.23240e+57
          1165.63470	         1.85246e+58
          1166.44100	         3.51406e+58
          1167.24730	         1.94161e+58
          1168.05360	         2.14843e+57
          1168.85990	         1.80873e+57
          1169.66620	         3.06850e+57
          1170.47250	         8.32241e+57
          1171.27880	         1.02934e+58
          1172.08510	         1.06961e+58
          1172.89140	         3.14026e+57
          1173.69770	         4.87975e+57
          1174.50400	         1.32461e+58
          1175.31030	         1.61356e+58
          1176.11660	         1.61864e+58
          1176.92290	         1.56835e+58
          1177.72920	         1.06117e+58
          1178.53550	         8.28512e+57
          1179.34180	         7.30083e+57
          1180.14810	         1.24574e+58
          1180.95440	         8.04115e+57
          1181.76070	         1.13515e+58
          1182.56700	         1.22912e+58
          1183.37330	         8.95770e+57
          1184.17960	         8.88224e+57
          1184.98590	         1.03732e+58
          1185.79220	         9.89818e+57
          1186.59850	         1.07233e+58
          1187.40480	         6.86675e+57
          1188.21110	         1.25182e+58
          1189.01740	         1.00199e+58
          1189.82370	         1.14469e+58
          1190.63000	         1.51880e+58
          1191.43630	         1.69789e+58
          1192.24260	         1.33638e+58
          1193.04890	         1.20534e+58
          1193.85520	         1.14599e+58
          1194.66150	         1.18382e+58
          1195.46780	         1.19233e+58
          1196.27410	         1.05378e+58
          1197.08040	         1.05074e+58
          1197.88670	         1.49109e+58
          1198.69300	         1.50871e+58
          1199.49930	         1.41033e+58
          1200.30560	         9.92066e+57
          1201.11190	         9.83946e+57
          1201.91820	         1.01065e+58
          1202.72450	         1.01424e+58
          1203.53080	         1.31893e+58
          1204.33710	         1.00806e+58
          1205.14340	         6.62040e+57
          1205.94970	         6.79241e+57
          1206.75600	         6.54894e+57
          1207.56230	         5.75629e+57
          1208.36860	         7.70478e+57
          1209.17490	         5.27489e+57
          1209.98120	         4.27486e+57
          1210.78750	         7.37637e+57
          1211.59380	         1.43339e+58
          1212.40010	         1.75598e+58
          1213.20640	         1.86446e+58
          1214.01270	         1.97552e+58
          1214.81900	         2.79455e+58
          1215.62530	         4.74698e+58
          1216.43160	         9.03712e+58
          1217.23790	         1.52456e+59
          1218.04420	         1.19279e+59
          1218.85050	         8.71405e+58
          1219.65680	         5.71347e+58
          1220.46310	         3.55563e+58
          1221.26940	         2.12802e+58
          1222.07570	         1.12728e+58
          1222.88200	         9.75238e+57
          1223.68830	         7.78289e+57
          1224.49460	         5.70275e+57
          1225.30090	         5.47997e+57
          1226.10720	         5.15006e+57
          1226.91350	         6.38364e+57
          1227.71980	         6.86445e+57
          1228.52610	         1.12462e+58
          1229.33240	         8.79768e+57
          1230.13870	         5.15679e+57
          1230.94500	         7.01293e+57
          1231.75130	         7.53083e+57
          1232.55760	         1.04740e+58
          1233.36390	         1.00765e+58
          1234.17020	         1.09237e+58
          1234.97650	         1.00375e+58
          1235.78280	         9.13687e+57
          1236.58910	         7.76549e+57
          1237.39540	         8.29680e+57
          1238.20170	         1.16099e+58
          1239.00800	         1.34819e+58
          1239.81430	         1.52682e+58
          1240.62060	         1.20471e+58
          1241.42690	         9.95214e+57
          1242.23320	         1.04468e+58
          1243.03950	         8.77196e+57
          1243.84580	         9.42336e+57
          1244.65210	         1.01192e+58
          1245.45840	         8.85782e+57
          1246.26470	         1.05703e+58
          1247.07100	         8.16908e+57
          1247.87730	         6.83712e+57
          1248.68360	         5.65420e+57
          1249.48990	         8.77605e+57
          1250.29620	         1.04770e+58
          1251.10250	         7.64224e+57
          1251.90880	         5.06472e+57
          1252.71510	         6.63191e+57
          1253.52140	         7.58618e+57
          1254.32770	         9.49486e+57
          1255.13400	         1.15964e+58
          1255.94030	         1.07229e+58
          1256.74660	         1.13444e+58
          1257.55290	         1.32455e+58
          1258.35920	         9.32057e+57
          1259.16550	         4.60648e+57
          1259.97180	         5.39787e+57
          1260.77810	         8.07929e+57
          1261.58440	         1.10102e+58
          1262.39070	         7.39406e+57
          1263.19700	         6.36388e+57
          1264.00330	         7.87629e+57
          1264.80960	         1.12035e+58
          1265.61590	         1.20267e+58
          1266.42220	         1.23838e+58
          1267.22850	         1.10111e+58
          1268.03480	         1.29003e+58
          1268.84110	         1.34342e+58
          1269.64740	         1.19076e+58
          1270.45370	         1.55166e+58
          1271.26000	         1.52442e+58
          1272.06630	         1.47190e+58
          1272.87260	         1.32690e+58
          1273.67890	         1.24260e+58
          1274.48520	         1.34417e+58
          1275.29150	         1.30433e+58
          1276.09780	         1.10995e+58
          1276.90410	         1.31714e+58
          1277.71040	         1.40054e+58
          1278.51670	         1.17562e+58
          1279.32300	         1.40393e+58
          1280.12930	         1.33275e+58
          1280.93560	         1.30140e+58
          1281.74190	         1.06943e+58
          1282.54820	         9.62280e+57
          1283.35450	         1.13467e+58
          1284.16080	         1.20493e+58
          1284.96710	         1.22439e+58
          1285.77340	         1.16917e+58
          1286.57970	         1.08763e+58
          1287.38600	         1.47887e+58
          1288.19230	         1.68300e+58
          1288.99860	         1.55015e+58
          1289.80490	         1.40416e+58
          1290.61120	         1.31077e+58
          1291.41750	         1.26378e+58
          1292.22380	         1.09340e+58
          1293.03010	         9.86328e+57
          1293.83640	         1.05747e+58
          1294.64270	         1.02169e+58
          1295.44900	         7.06785e+57
          1296.25530	         7.75018e+57
          1297.06160	         9.97740e+57
          1297.86790	         9.12529e+57
          1298.67420	         8.76793e+57
          1299.48050	         1.07300e+58
          1300.28680	         1.08014e+58
          1301.09310	         7.71917e+57
          1301.89940	         3.11249e+57
          1302.70570	         4.00770e+57
          1303.51200	         8.11980e+57
          1304.31830	         1.03731e+58
          1305.12460	         1.00089e+58
          1305.93090	         1.00301e+58
          1306.73720	         1.21984e+58
          1307.54350	         1.32861e+58
          1308.34980	         1.36657e+58
          1309.15610	         1.29125e+58
          1309.96240	         1.26132e+58
          1310.76870	         1.15218e+58
          1311.57500	         9.77984e+57
          1312.38130	         1.03383e+58
          1313.18760	         1.26461e+58
          1313.99390	         1.60676e+58
          1314.80020	         1.61321e+58
          1315.60650	         1.42653e+58
          1316.41280	         1.15085e+58
          1317.21910	         1.10963e+58
          1318.02540	         1.32767e+58
          1318.83170	         1.31885e+58
          1319.63800	         1.18175e+58
          1320.44430	         1.18609e+58
          1321.25060	         1.32345e+58
          1322.05690	         1.43992e+58
          1322.86320	         1.16955e+58
          1323.66950	         1.02748e+58
          1324.47580	         9.41676e+57
          1325.28210	         1.07876e+58
          1326.08840	         1.23681e+58
          1326.89470	         1.26212e+58
          1327.70100	         1.04874e+58
          1328.50730	         9.50568e+57
          1329.31360	         1.07216e+58
          1330.11990	         1.02776e+58
          1330.92620	         9.55937e+57
          1331.73250	         1.05396e+58
          1332.53880	         9.05355e+57
          1333.34510	         9.09779e+57
          1334.15140	         9.00759e+57
          1334.95770	         8.74713e+57
          1335.76400	         1.03232e+58
          1336.57030	         1.11835e+58
          1337.37660	         1.07681e+58
          1338.18290	         1.15483e+58
          1338.98920	         1.27889e+58
          1339.79550	         1.19762e+58
          1340.60180	         1.21208e+58
          1341.40810	         1.29764e+58
          1342.21440	         1.33780e+58
          1343.02070	         1.38201e+58
          1343.82700	         1.37501e+58
          1344.63330	         1.27298e+58
          1345.43960	         1.15744e+58
          1346.24590	         1.01035e+58
          1347.05220	         1.14958e+58
          1347.85850	         1.03494e+58
          1348.66480	         1.17331e+58
          1349.47110	         1.25474e+58
          1350.27740	         1.16919e+58
          1351.08370	         1.19250e+58
          1351.89000	         1.23876e+58
          1352.69630	         1.29299e+58
          1353.50260	         1.21461e+58
          1354.30890	         1.20762e+58
          1355.11520	         1.17722e+58
          1355.92150	         1.15002e+58
          1356.72780	         1.05694e+58
          1357.53410	         1.02705e+58
          1358.34040	         1.10177e+58
          1359.14670	         1.03932e+58
          1359.95300	         9.74759e+57
          1360.75930	         9.68913e+57
          1361.56560	         1.05486e+58
          1362.37190	         1.17758e+58
          1363.17820	         1.18094e+58
          1363.98450	         1.23953e+58
          1364.79080	         1.27039e+58
          1365.59710	         1.36988e+58
          1366.40340	         1.26868e+58
          1367.20970	         9.83850e+57
          1368.01600	         1.01134e+58
          1368.82230	         1.15731e+58
          1369.62860	         1.16107e+58
          1370.43490	         9.31670e+57
          1371.24120	         8.95899e+57
          1372.04750	         8.64835e+57
          1372.85380	         1.11893e+58
          1373.66010	         1.19042e+58
          1374.46640	         1.09764e+58
          1375.27270	         1.11057e+58
          1376.07900	         9.60174e+57
          1376.88530	         9.50743e+57
          1377.69160	         8.57338e+57
          1378.49790	         7.01510e+57
          1379.30420	         7.12796e+57
          1380.11050	         9.29990e+57
          1380.91680	         8.17500e+57
          1381.72310	         7.68761e+57
          1382.52940	         8.96291e+57
          1383.33570	         8.50477e+57
          1384.14200	         9.70326e+57
          1384.94830	         1.04671e+58
          1385.75460	         1.09516e+58
          1386.56090	         1.42233e+58
          1387.36720	         1.32607e+58
          1388.17350	         1.41137e+58
          1388.97980	         1.18683e+58
          1389.78610	         9.08223e+57
          1390.59240	         6.59655e+57
          1391.39870	         5.72894e+57
          1392.20500	         7.58012e+57
          1393.01130	         9.00991e+57
          1393.81760	         8.13428e+57
          1394.62390	         7.29813e+57
          1395.43020	         6.96562e+57
          1396.23650	         7.01310e+57
          1397.04280	         6.39254e+57
          1397.84910	         6.38065e+57
          1398.65540	         8.23106e+57
          1399.46170	         9.47556e+57
          1400.26800	         9.18872e+57
          1401.07430	         7.81736e+57
          1401.88060	         7.87436e+57
          1402.68690	         9.36394e+57
          1403.49320	         9.28367e+57
          1404.29950	         7.94462e+57
          1405.10580	         9.73177e+57
          1405.91210	         1.10766e+58
          1406.71840	         1.10088e+58
          1407.52470	         9.77714e+57
          1408.33100	         9.58199e+57
          1409.13730	         1.07729e+58
          1409.94360	         1.07162e+58
          1410.74990	         1.14600e+58
          1411.55620	         1.00712e+58
          1412.36250	         9.40482e+57
          1413.16880	         8.48934e+57
          1413.97510	         7.93835e+57
          1414.78140	         9.46605e+57
          1415.58770	         1.16788e+58
          1416.39400	         1.12823e+58
          1417.20030	         1.05527e+58
          1418.00660	         1.06349e+58
          1418.81290	         1.03555e+58
          1419.61920	         1.02084e+58
          1420.42550	         1.12241e+58
          1421.23180	         1.35181e+58
          1422.03810	         1.21754e+58
          1422.84440	         1.18295e+58
          1423.65070	         1.32994e+58
          1424.45700	         1.15878e+58
          1425.26330	         8.80016e+57
          1426.06960	         9.73883e+57
          1426.87590	         1.06639e+58
          1427.68220	         1.04224e+58
          1428.48850	         1.11525e+58
          1429.29480	         1.02834e+58
          1430.10110	         8.71127e+57
          1430.90740	         7.52027e+57
          1431.71370	         8.63193e+57
          1432.52000	         8.39622e+57
          1433.32630	         7.63046e+57
          1434.13260	         8.04505e+57
          1434.93890	         8.32491e+57
          1435.74520	         8.37497e+57
          1436.55150	         9.89535e+57
          1437.35780	         8.87672e+57
          1438.16410	         8.67035e+57
          1438.97040	         8.69512e+57
          1439.77670	         8.27384e+57
          1440.58300	         8.25329e+57
          1441.38930	         8.85981e+57
          1442.19560	         9.91472e+57
          1443.00190	         9.06733e+57
          1443.80820	         9.12151e+57
          1444.61450	         9.65171e+57
          1445.42080	         9.31358e+57
          1446.22710	         1.08869e+58
          1447.03340	         1.07218e+58
          1447.83970	         1.01805e+58
          1448.64600	         1.01284e+58
          1449.45230	         9.14292e+57
          1450.25860	         9.20894e+57
          1451.06490	         8.32146e+57
          1451.87120	         8.08901e+57
          1452.67750	         7.40653e+57
          1453.48380	         7.86891e+57
          1454.29010	         7.82626e+57
          1455.09640	         7.90972e+57
          1455.90270	         8.95618e+57
          1456.70900	         9.41411e+57
          1457.51530	         1.05731e+58
          1458.32160	         1.23410e+58
          1459.12790	         1.24710e+58
          1459.93420	         9.87173e+57
          1460.74050	         8.21456e+57
          1461.54680	         7.85579e+57
          1462.35310	         7.54817e+57
          1463.15940	         9.10138e+57
          1463.96570	         1.11811e+58
          1464.77200	         1.19897e+58
          1465.57830	         1.01576e+58
          1466.38460	         9.37811e+57
          1467.19090	         8.58059e+57
          1467.99720	         9.13872e+57
          1468.80350	         1.00132e+58
          1469.60980	         1.04564e+58
          1470.41610	         1.06825e+58
          1471.22240	         9.74475e+57
          1472.02870	         9.01327e+57
          1472.83500	         9.85247e+57
          1473.64130	         1.05938e+58
          1474.44760	         1.02698e+58
          1475.25390	         8.80992e+57
          1476.06020	         8.48478e+57
          1476.86650	         9.03166e+57
          1477.67280	         8.26874e+57
          1478.47910	         6.84344e+57
          1479.28540	         6.56442e+57
          1480.09170	         8.39479e+57
          1480.89800	         9.70058e+57
          1481.70430	         9.49708e+57
          1482.51060	         8.87179e+57
          1483.31690	         8.46448e+57
          1484.12320	         8.83493e+57
          1484.92950	         8.31342e+57
          1485.73580	         7.95328e+57
          1486.54210	         9.88834e+57
          1487.34840	         1.02009e+58
          1488.15470	         9.67022e+57
          1488.96100	         9.66547e+57
          1489.76730	         9.75754e+57
