#sample_177_stacked_spectrum_rest_UV-bands_median_H-alpha_noDC.txt
#median Lum: 1.70097e+42
#Rest-frame wavelength (A) | Luminosity (erg/s/A)
#
          1110.00000	         0.00000e+00
          1110.80630	         5.72819e+59
          1111.61260	         1.69926e+59
          1112.41890	        -6.78402e+58
          1113.22520	        -1.46534e+58
          1114.03150	        -9.82649e+58
          1114.83780	         4.36998e+58
          1115.64410	         4.48694e+58
          1116.45040	         1.56131e+59
          1117.25670	         4.57400e+58
          1118.06300	         1.81585e+59
          1118.86930	         9.47462e+58
          1119.67560	         1.23504e+59
          1120.48190	         2.34566e+58
          1121.28820	        -5.30861e+58
          1122.09450	         4.24894e+58
          1122.90080	         3.54670e+58
          1123.70710	         7.54902e+58
          1124.51340	         1.08671e+59
          1125.31970	        -1.84217e+58
          1126.12600	        -1.95267e+58
          1126.93230	        -1.62798e+58
          1127.73860	        -4.06379e+58
          1128.54490	         1.83214e+58
          1129.35120	         1.87801e+58
          1130.15750	         4.85522e+57
          1130.96380	        -3.29631e+58
          1131.77010	         5.97623e+58
          1132.57640	         1.83928e+58
          1133.38270	         4.58891e+58
          1134.18900	         2.90270e+58
          1134.99530	         2.21532e+58
          1135.80160	         3.18798e+58
          1136.60790	         2.27297e+58
          1137.41420	        -8.94194e+57
          1138.22050	         2.99117e+58
          1139.02680	         3.32269e+58
          1139.83310	         2.54679e+58
          1140.63940	         2.24032e+58
          1141.44570	        -1.02429e+58
          1142.25200	         1.33355e+58
          1143.05830	         1.88679e+58
          1143.86460	         1.88568e+58
          1144.67090	         1.31038e+58
          1145.47720	         1.17400e+58
          1146.28350	         6.41946e+56
          1147.08980	         1.20559e+58
          1147.89610	         3.96969e+57
          1148.70240	         9.92073e+57
          1149.50870	         1.28883e+58
          1150.31500	         9.27117e+57
          1151.12130	         8.88781e+57
          1151.92760	         1.15030e+58
          1152.73390	         9.39857e+57
          1153.54020	         1.03695e+58
          1154.34650	         1.71343e+58
          1155.15280	         2.04303e+58
          1155.95910	         1.18959e+58
          1156.76540	        -1.20830e+57
          1157.57170	        -7.95697e+57
          1158.37800	        -3.29907e+57
          1159.18430	         1.73469e+56
          1159.99060	         3.99010e+57
          1160.79690	         6.56626e+57
          1161.60320	         5.24474e+57
          1162.40950	         1.18609e+58
          1163.21580	         1.88528e+58
          1164.02210	         1.07863e+58
          1164.82840	         1.30704e+58
          1165.63470	         1.57604e+58
          1166.44100	         3.21411e+58
          1167.24730	         2.21341e+58
          1168.05360	         2.60024e+57
          1168.85990	         3.26855e+57
          1169.66620	         1.86628e+57
          1170.47250	         1.46267e+58
          1171.27880	         1.14864e+58
          1172.08510	         1.03061e+58
          1172.89140	         1.06808e+58
          1173.69770	         8.16422e+57
          1174.50400	         9.65381e+57
          1175.31030	         1.20338e+58
          1176.11660	         1.66411e+58
          1176.92290	         1.52756e+58
          1177.72920	         1.29453e+58
          1178.53550	         1.01456e+58
          1179.34180	         8.16979e+56
          1180.14810	         5.68229e+57
          1180.95440	         1.09087e+58
          1181.76070	         8.81244e+57
          1182.56700	         7.25145e+57
          1183.37330	         4.44355e+57
          1184.17960	         1.14114e+58
          1184.98590	         1.04961e+58
          1185.79220	         1.00287e+58
          1186.59850	         1.42197e+58
          1187.40480	         1.19603e+58
          1188.21110	         1.26382e+58
          1189.01740	         7.53215e+57
          1189.82370	         3.37169e+57
          1190.63000	         1.14542e+58
          1191.43630	         1.57915e+58
          1192.24260	         8.41972e+57
          1193.04890	         1.28719e+58
          1193.85520	         7.85651e+57
          1194.66150	         6.14781e+57
          1195.46780	         1.18835e+58
          1196.27410	         1.43516e+58
          1197.08040	         6.50913e+57
          1197.88670	         9.92909e+57
          1198.69300	         1.13566e+58
          1199.49930	         1.37340e+58
          1200.30560	         1.02835e+58
          1201.11190	         8.81881e+57
          1201.91820	         1.15751e+58
          1202.72450	         1.15256e+58
          1203.53080	         1.51771e+58
          1204.33710	         8.89599e+57
          1205.14340	         1.00726e+58
          1205.94970	         8.38606e+57
          1206.75600	         7.50420e+57
          1207.56230	         7.03421e+57
          1208.36860	         9.18139e+57
          1209.17490	         6.58874e+57
          1209.98120	         8.31386e+57
          1210.78750	         7.42626e+57
          1211.59380	         9.83731e+57
          1212.40010	         1.83029e+58
          1213.20640	         2.13449e+58
          1214.01270	         2.04880e+58
          1214.81900	         2.56222e+58
          1215.62530	         4.67152e+58
          1216.43160	         9.15490e+58
          1217.23790	         1.52242e+59
          1218.04420	         1.11691e+59
          1218.85050	         8.36963e+58
          1219.65680	         5.82018e+58
          1220.46310	         3.32841e+58
          1221.26940	         2.17129e+58
          1222.07570	         1.47638e+58
          1222.88200	         8.79046e+57
          1223.68830	         5.80428e+57
          1224.49460	         6.56640e+57
          1225.30090	         6.87525e+57
          1226.10720	         8.47332e+57
          1226.91350	         1.07768e+58
          1227.71980	         9.02370e+57
          1228.52610	         1.18313e+58
          1229.33240	         9.55171e+57
          1230.13870	         1.01496e+58
          1230.94500	         1.17983e+58
          1231.75130	         5.97862e+57
          1232.55760	         8.54055e+57
          1233.36390	         8.50934e+57
          1234.17020	         1.01513e+58
          1234.97650	         9.11215e+57
          1235.78280	         8.70143e+57
          1236.58910	         8.23553e+57
          1237.39540	         8.49955e+57
          1238.20170	         1.03734e+58
          1239.00800	         1.09169e+58
          1239.81430	         1.27748e+58
          1240.62060	         1.07309e+58
          1241.42690	         1.20190e+58
          1242.23320	         1.40140e+58
          1243.03950	         1.01253e+58
          1243.84580	         7.73193e+57
          1244.65210	         9.37495e+57
          1245.45840	         1.04582e+58
          1246.26470	         1.09687e+58
          1247.07100	         6.36054e+57
          1247.87730	         6.32938e+57
          1248.68360	         5.24168e+57
          1249.48990	         8.29394e+57
          1250.29620	         9.97278e+57
          1251.10250	         7.73428e+57
          1251.90880	         5.84265e+57
          1252.71510	         5.86743e+57
          1253.52140	         5.42931e+57
          1254.32770	         1.13497e+58
          1255.13400	         1.31368e+58
          1255.94030	         1.00897e+58
          1256.74660	         1.00835e+58
          1257.55290	         1.01735e+58
          1258.35920	         6.77261e+57
          1259.16550	         2.98144e+57
          1259.97180	         5.17437e+57
          1260.77810	         7.59653e+57
          1261.58440	         1.08105e+58
          1262.39070	         9.08637e+57
          1263.19700	         8.36400e+57
          1264.00330	         8.53300e+57
          1264.80960	         1.05484e+58
          1265.61590	         1.14307e+58
          1266.42220	         1.19894e+58
          1267.22850	         1.19248e+58
          1268.03480	         1.47657e+58
          1268.84110	         1.43630e+58
          1269.64740	         1.21101e+58
          1270.45370	         1.35122e+58
          1271.26000	         1.29455e+58
          1272.06630	         9.31564e+57
          1272.87260	         8.95080e+57
          1273.67890	         1.15935e+58
          1274.48520	         1.29541e+58
          1275.29150	         1.25777e+58
          1276.09780	         1.15095e+58
          1276.90410	         1.27642e+58
          1277.71040	         1.19865e+58
          1278.51670	         1.19889e+58
          1279.32300	         1.38222e+58
          1280.12930	         1.30520e+58
          1280.93560	         1.19189e+58
          1281.74190	         1.18539e+58
          1282.54820	         1.19017e+58
          1283.35450	         9.19302e+57
          1284.16080	         6.94787e+57
          1284.96710	         9.76359e+57
          1285.77340	         1.09398e+58
          1286.57970	         1.23405e+58
          1287.38600	         1.70230e+58
          1288.19230	         1.90952e+58
          1288.99860	         1.64206e+58
          1289.80490	         1.18964e+58
          1290.61120	         1.25762e+58
          1291.41750	         1.34996e+58
          1292.22380	         1.20077e+58
          1293.03010	         1.04589e+58
          1293.83640	         1.05523e+58
          1294.64270	         1.03710e+58
          1295.44900	         8.32137e+57
          1296.25530	         7.78508e+57
          1297.06160	         9.93838e+57
          1297.86790	         1.04584e+58
          1298.67420	         1.02944e+58
          1299.48050	         1.13375e+58
          1300.28680	         1.18842e+58
          1301.09310	         9.71266e+57
          1301.89940	         4.57778e+57
          1302.70570	         5.74983e+57
          1303.51200	         8.28994e+57
          1304.31830	         9.56416e+57
          1305.12460	         1.21981e+58
          1305.93090	         1.24232e+58
          1306.73720	         1.14219e+58
          1307.54350	         1.34782e+58
          1308.34980	         1.23712e+58
          1309.15610	         1.33273e+58
          1309.96240	         1.71717e+58
          1310.76870	         1.42599e+58
          1311.57500	         9.45109e+57
          1312.38130	         1.00927e+58
          1313.18760	         1.38980e+58
          1313.99390	         1.78831e+58
          1314.80020	         1.81145e+58
          1315.60650	         1.36971e+58
          1316.41280	         1.01046e+58
          1317.21910	         1.07910e+58
          1318.02540	         1.27051e+58
          1318.83170	         1.34948e+58
          1319.63800	         1.11105e+58
          1320.44430	         1.19107e+58
          1321.25060	         1.48893e+58
          1322.05690	         1.32158e+58
          1322.86320	         1.23279e+58
          1323.66950	         1.13094e+58
          1324.47580	         8.87351e+57
          1325.28210	         9.74303e+57
          1326.08840	         1.02898e+58
          1326.89470	         1.06421e+58
          1327.70100	         9.65023e+57
          1328.50730	         8.08173e+57
          1329.31360	         8.85952e+57
          1330.11990	         9.10722e+57
          1330.92620	         8.15071e+57
          1331.73250	         1.10258e+58
          1332.53880	         1.21229e+58
          1333.34510	         9.63332e+57
          1334.15140	         8.42289e+57
          1334.95770	         8.15244e+57
          1335.76400	         1.03344e+58
          1336.57030	         1.07207e+58
          1337.37660	         9.11711e+57
          1338.18290	         9.39139e+57
          1338.98920	         1.07343e+58
          1339.79550	         1.15881e+58
          1340.60180	         1.15544e+58
          1341.40810	         1.23805e+58
          1342.21440	         1.12242e+58
          1343.02070	         1.05674e+58
          1343.82700	         1.17293e+58
          1344.63330	         1.13976e+58
          1345.43960	         1.30472e+58
          1346.24590	         1.02740e+58
          1347.05220	         1.11180e+58
          1347.85850	         1.12481e+58
          1348.66480	         1.24655e+58
          1349.47110	         1.29548e+58
          1350.27740	         1.15073e+58
          1351.08370	         1.13329e+58
          1351.89000	         1.27984e+58
          1352.69630	         1.13252e+58
          1353.50260	         1.16917e+58
          1354.30890	         1.18141e+58
          1355.11520	         1.21523e+58
          1355.92150	         1.14471e+58
          1356.72780	         9.22176e+57
          1357.53410	         9.76457e+57
          1358.34040	         1.05879e+58
          1359.14670	         1.04950e+58
          1359.95300	         1.20276e+58
          1360.75930	         1.16387e+58
          1361.56560	         1.06452e+58
          1362.37190	         1.20403e+58
          1363.17820	         1.10384e+58
          1363.98450	         1.21587e+58
          1364.79080	         1.37296e+58
          1365.59710	         1.25964e+58
          1366.40340	         1.22112e+58
          1367.20970	         1.00348e+58
          1368.01600	         9.96795e+57
          1368.82230	         1.11859e+58
          1369.62860	         1.12566e+58
          1370.43490	         9.90268e+57
          1371.24120	         1.03852e+58
          1372.04750	         8.32434e+57
          1372.85380	         9.17596e+57
          1373.66010	         1.17829e+58
          1374.46640	         1.12399e+58
          1375.27270	         1.05370e+58
          1376.07900	         1.05727e+58
          1376.88530	         1.02818e+58
          1377.69160	         8.82131e+57
          1378.49790	         6.62355e+57
          1379.30420	         8.20581e+57
          1380.11050	         9.53914e+57
          1380.91680	         9.07855e+57
          1381.72310	         9.01600e+57
          1382.52940	         9.98078e+57
          1383.33570	         9.82276e+57
          1384.14200	         1.03872e+58
          1384.94830	         1.14156e+58
          1385.75460	         9.42728e+57
          1386.56090	         1.06638e+58
          1387.36720	         1.07556e+58
          1388.17350	         1.08407e+58
          1388.97980	         1.10050e+58
          1389.78610	         9.75915e+57
          1390.59240	         6.83262e+57
          1391.39870	         6.85182e+57
          1392.20500	         8.01252e+57
          1393.01130	         7.30756e+57
          1393.81760	         7.25259e+57
          1394.62390	         7.16328e+57
          1395.43020	         6.44264e+57
          1396.23650	         6.76602e+57
          1397.04280	         7.82721e+57
          1397.84910	         8.63822e+57
          1398.65540	         8.63145e+57
          1399.46170	         9.84239e+57
          1400.26800	         9.78558e+57
          1401.07430	         8.54980e+57
          1401.88060	         8.01581e+57
          1402.68690	         9.05914e+57
          1403.49320	         9.01722e+57
          1404.29950	         9.68121e+57
          1405.10580	         1.11066e+58
          1405.91210	         1.16965e+58
          1406.71840	         1.13402e+58
          1407.52470	         9.96722e+57
          1408.33100	         9.80269e+57
          1409.13730	         1.11489e+58
          1409.94360	         1.03821e+58
          1410.74990	         1.00540e+58
          1411.55620	         9.77609e+57
          1412.36250	         8.57232e+57
          1413.16880	         8.13048e+57
          1413.97510	         7.53576e+57
          1414.78140	         8.26715e+57
          1415.58770	         1.07797e+58
          1416.39400	         1.09683e+58
          1417.20030	         1.05878e+58
          1418.00660	         1.03620e+58
          1418.81290	         1.00319e+58
          1419.61920	         8.60591e+57
          1420.42550	         1.09780e+58
          1421.23180	         1.38254e+58
          1422.03810	         1.34325e+58
          1422.84440	         1.19563e+58
          1423.65070	         1.25311e+58
          1424.45700	         1.09171e+58
          1425.26330	         8.03726e+57
          1426.06960	         8.75569e+57
          1426.87590	         1.00648e+58
          1427.68220	         1.08732e+58
          1428.48850	         1.17416e+58
          1429.29480	         1.13009e+58
          1430.10110	         1.00451e+58
          1430.90740	         8.88219e+57
          1431.71370	         8.96227e+57
          1432.52000	         9.08810e+57
          1433.32630	         7.12445e+57
          1434.13260	         7.78805e+57
          1434.93890	         9.50070e+57
          1435.74520	         9.99654e+57
          1436.55150	         9.57598e+57
          1437.35780	         9.40500e+57
          1438.16410	         9.19253e+57
          1438.97040	         8.60874e+57
          1439.77670	         8.74101e+57
          1440.58300	         8.23823e+57
          1441.38930	         9.95294e+57
          1442.19560	         9.53609e+57
          1443.00190	         8.06350e+57
          1443.80820	         9.72896e+57
          1444.61450	         1.01839e+58
          1445.42080	         9.02266e+57
          1446.22710	         9.95572e+57
          1447.03340	         9.14549e+57
          1447.83970	         9.70617e+57
          1448.64600	         1.01082e+58
          1449.45230	         9.69202e+57
          1450.25860	         1.00019e+58
          1451.06490	         8.54043e+57
          1451.87120	         6.42612e+57
          1452.67750	         7.53753e+57
          1453.48380	         8.64192e+57
          1454.29010	         7.50624e+57
          1455.09640	         7.20669e+57
          1455.90270	         8.45799e+57
          1456.70900	         7.81018e+57
          1457.51530	         9.01088e+57
          1458.32160	         1.11668e+58
          1459.12790	         1.11634e+58
          1459.93420	         1.01949e+58
          1460.74050	         8.05756e+57
          1461.54680	         8.24574e+57
          1462.35310	         8.13373e+57
          1463.15940	         8.56627e+57
          1463.96570	         1.03834e+58
          1464.77200	         1.14707e+58
          1465.57830	         1.00869e+58
          1466.38460	         8.95380e+57
          1467.19090	         8.17973e+57
          1467.99720	         8.42126e+57
          1468.80350	         9.73854e+57
          1469.60980	         1.05410e+58
          1470.41610	         1.12908e+58
          1471.22240	         1.03329e+58
          1472.02870	         9.03688e+57
          1472.83500	         8.20218e+57
          1473.64130	         9.58657e+57
          1474.44760	         1.12020e+58
          1475.25390	         1.03921e+58
          1476.06020	         9.46576e+57
          1476.86650	         8.87288e+57
          1477.67280	         8.62248e+57
          1478.47910	         7.34103e+57
          1479.28540	         6.88052e+57
          1480.09170	         8.21077e+57
          1480.89800	         8.29608e+57
          1481.70430	         8.40854e+57
          1482.51060	         8.51779e+57
          1483.31690	         7.29776e+57
          1484.12320	         7.80228e+57
          1484.92950	         8.26462e+57
          1485.73580	         8.15006e+57
          1486.54210	         8.28545e+57
          1487.34840	         8.27850e+57
          1488.15470	         8.43838e+57
          1488.96100	         8.67477e+57
          1489.76730	         9.01920e+57
