#sample_309_stacked_spectrum_rest_UV-bands_median_H-alpha_noDC.txt
#median Lum: 1.71204e+42
#Rest-frame wavelength (A) | Luminosity (erg/s/A)
#
          1110.00000	         0.00000e+00
          1110.80630	         1.85627e+59
          1111.61260	         3.51577e+59
          1112.41890	        -1.87680e+59
          1113.22520	        -1.43026e+59
          1114.03150	        -2.82450e+59
          1114.83780	         5.67041e+58
          1115.64410	         1.18400e+59
          1116.45040	         1.59461e+59
          1117.25670	        -4.38440e+58
          1118.06300	         8.94355e+58
          1118.86930	         7.53411e+58
          1119.67560	         9.07145e+58
          1120.48190	         3.32376e+58
          1121.28820	        -7.97360e+58
          1122.09450	        -1.82472e+58
          1122.90080	        -5.50840e+57
          1123.70710	         6.01214e+58
          1124.51340	         1.68285e+59
          1125.31970	        -4.88865e+57
          1126.12600	        -3.00934e+57
          1126.93230	        -5.24529e+58
          1127.73860	        -7.45763e+58
          1128.54490	         2.16496e+57
          1129.35120	         4.13340e+58
          1130.15750	         1.59203e+58
          1130.96380	        -2.59098e+58
          1131.77010	         4.70772e+58
          1132.57640	         3.49812e+58
          1133.38270	         2.37659e+58
          1134.18900	         3.83477e+58
          1134.99530	         2.85023e+58
          1135.80160	         3.06429e+58
          1136.60790	         4.40046e+58
          1137.41420	        -2.37798e+56
          1138.22050	         4.26692e+58
          1139.02680	         1.81451e+58
          1139.83310	         1.77943e+58
          1140.63940	         1.13280e+58
          1141.44570	        -1.54840e+58
          1142.25200	        -1.10175e+58
          1143.05830	         1.61635e+57
          1143.86460	         3.76181e+57
          1144.67090	         2.24431e+58
          1145.47720	         5.31145e+57
          1146.28350	         1.81475e+57
          1147.08980	         6.56544e+57
          1147.89610	         1.44088e+58
          1148.70240	         1.69829e+58
          1149.50870	         2.10620e+58
          1150.31500	        -4.06961e+57
          1151.12130	         6.82122e+57
          1151.92760	         3.93664e+57
          1152.73390	         6.23779e+57
          1153.54020	         3.58919e+57
          1154.34650	         2.01474e+58
          1155.15280	         1.93741e+58
          1155.95910	         9.25272e+57
          1156.76540	        -2.40424e+57
          1157.57170	        -2.82805e+57
          1158.37800	        -1.60168e+57
          1159.18430	         2.22254e+57
          1159.99060	         1.62107e+58
          1160.79690	         1.57824e+58
          1161.60320	         1.76548e+58
          1162.40950	         1.81133e+58
          1163.21580	         2.50884e+58
          1164.02210	         5.25371e+57
          1164.82840	         1.27239e+58
          1165.63470	         1.94701e+58
          1166.44100	         3.02837e+58
          1167.24730	         1.88741e+58
          1168.05360	         4.33934e+57
          1168.85990	         3.93717e+56
          1169.66620	         7.05978e+57
          1170.47250	         1.04909e+58
          1171.27880	         3.56087e+57
          1172.08510	         1.32877e+58
          1172.89140	         4.55013e+57
          1173.69770	         9.55180e+57
          1174.50400	         1.24238e+58
          1175.31030	         1.50419e+58
          1176.11660	         1.48646e+58
          1176.92290	         1.63929e+58
          1177.72920	         1.19103e+58
          1178.53550	         4.63434e+57
          1179.34180	         2.60308e+57
          1180.14810	         5.65007e+57
          1180.95440	         6.32030e+57
          1181.76070	         6.26722e+57
          1182.56700	         1.12096e+58
          1183.37330	         1.08554e+58
          1184.17960	         1.04834e+58
          1184.98590	         8.30690e+57
          1185.79220	         7.20460e+57
          1186.59850	         6.72018e+57
          1187.40480	         6.38698e+57
          1188.21110	         1.67930e+58
          1189.01740	         5.88301e+57
          1189.82370	         7.97569e+57
          1190.63000	         1.39315e+58
          1191.43630	         1.53688e+58
          1192.24260	         1.31679e+58
          1193.04890	         1.45489e+58
          1193.85520	         1.31178e+58
          1194.66150	         9.37560e+57
          1195.46780	         6.33567e+57
          1196.27410	         1.28655e+58
          1197.08040	         9.50919e+57
          1197.88670	         1.09951e+58
          1198.69300	         1.40548e+58
          1199.49930	         1.70365e+58
          1200.30560	         1.52604e+58
          1201.11190	         1.13730e+58
          1201.91820	         8.29526e+57
          1202.72450	         5.78982e+57
          1203.53080	         1.55567e+58
          1204.33710	         1.27132e+58
          1205.14340	         6.94756e+57
          1205.94970	         7.87557e+57
          1206.75600	         8.71116e+57
          1207.56230	         5.22644e+57
          1208.36860	         1.12983e+58
          1209.17490	         6.69394e+57
          1209.98120	         5.61388e+57
          1210.78750	         8.70582e+57
          1211.59380	         1.45025e+58
          1212.40010	         1.84813e+58
          1213.20640	         1.91062e+58
          1214.01270	         1.94537e+58
          1214.81900	         2.74407e+58
          1215.62530	         4.53546e+58
          1216.43160	         9.00339e+58
          1217.23790	         1.53575e+59
          1218.04420	         1.12146e+59
          1218.85050	         8.08484e+58
          1219.65680	         5.57196e+58
          1220.46310	         3.42166e+58
          1221.26940	         2.46394e+58
          1222.07570	         1.62093e+58
          1222.88200	         1.28846e+58
          1223.68830	         9.60507e+57
          1224.49460	         7.59306e+57
          1225.30090	         6.03929e+57
          1226.10720	         8.12527e+57
          1226.91350	         8.02509e+57
          1227.71980	         5.87115e+57
          1228.52610	         9.30918e+57
          1229.33240	         7.31594e+57
          1230.13870	         8.35908e+57
          1230.94500	         1.01077e+58
          1231.75130	         3.90272e+57
          1232.55760	         8.74474e+57
          1233.36390	         1.12984e+58
          1234.17020	         1.00202e+58
          1234.97650	         5.66600e+57
          1235.78280	         8.32040e+57
          1236.58910	         8.91779e+57
          1237.39540	         7.89067e+57
          1238.20170	         9.97797e+57
          1239.00800	         1.26149e+58
          1239.81430	         1.39981e+58
          1240.62060	         9.11338e+57
          1241.42690	         9.81099e+57
          1242.23320	         1.24617e+58
          1243.03950	         8.98456e+57
          1243.84580	         5.97856e+57
          1244.65210	         6.24717e+57
          1245.45840	         7.92905e+57
          1246.26470	         7.69174e+57
          1247.07100	         8.02066e+57
          1247.87730	         6.35996e+57
          1248.68360	         5.52715e+57
          1249.48990	         7.96609e+57
          1250.29620	         1.11657e+58
          1251.10250	         9.06782e+57
          1251.90880	         3.14523e+57
          1252.71510	         3.98639e+57
          1253.52140	         7.41641e+57
          1254.32770	         8.88469e+57
          1255.13400	         1.12174e+58
          1255.94030	         1.14976e+58
          1256.74660	         1.19699e+58
          1257.55290	         1.16102e+58
          1258.35920	         8.46854e+57
          1259.16550	         4.13728e+57
          1259.97180	         3.32814e+57
          1260.77810	         7.77176e+57
          1261.58440	         1.11079e+58
          1262.39070	         8.93806e+57
          1263.19700	         1.09294e+58
          1264.00330	         1.03042e+58
          1264.80960	         1.07920e+58
          1265.61590	         1.28723e+58
          1266.42220	         1.23245e+58
          1267.22850	         1.01555e+58
          1268.03480	         1.38596e+58
          1268.84110	         1.57534e+58
          1269.64740	         1.27331e+58
          1270.45370	         1.31024e+58
          1271.26000	         1.19948e+58
          1272.06630	         1.05236e+58
          1272.87260	         1.17341e+58
          1273.67890	         1.28496e+58
          1274.48520	         1.21063e+58
          1275.29150	         1.27752e+58
          1276.09780	         1.14480e+58
          1276.90410	         1.53891e+58
          1277.71040	         1.52043e+58
          1278.51670	         1.43261e+58
          1279.32300	         1.40362e+58
          1280.12930	         1.08820e+58
          1280.93560	         9.69371e+57
          1281.74190	         1.21447e+58
          1282.54820	         1.15292e+58
          1283.35450	         1.05518e+58
          1284.16080	         1.17211e+58
          1284.96710	         1.19726e+58
          1285.77340	         1.10982e+58
          1286.57970	         1.19462e+58
          1287.38600	         1.62237e+58
          1288.19230	         1.67007e+58
          1288.99860	         1.51086e+58
          1289.80490	         1.18360e+58
          1290.61120	         1.25514e+58
          1291.41750	         1.32354e+58
          1292.22380	         1.02114e+58
          1293.03010	         9.54382e+57
          1293.83640	         1.25851e+58
          1294.64270	         9.83644e+57
          1295.44900	         4.44914e+57
          1296.25530	         5.28541e+57
          1297.06160	         9.11252e+57
          1297.86790	         1.14456e+58
          1298.67420	         1.10658e+58
          1299.48050	         1.01216e+58
          1300.28680	         9.07480e+57
          1301.09310	         7.43255e+57
          1301.89940	         3.28738e+57
          1302.70570	         5.59244e+57
          1303.51200	         6.90764e+57
          1304.31830	         9.59162e+57
          1305.12460	         1.08836e+58
          1305.93090	         1.14348e+58
          1306.73720	         1.27511e+58
          1307.54350	         1.36149e+58
          1308.34980	         1.42020e+58
          1309.15610	         1.46262e+58
          1309.96240	         1.32697e+58
          1310.76870	         1.15514e+58
          1311.57500	         1.10556e+58
          1312.38130	         1.24066e+58
          1313.18760	         1.39941e+58
          1313.99390	         1.64269e+58
          1314.80020	         1.83641e+58
          1315.60650	         1.73046e+58
          1316.41280	         1.22484e+58
          1317.21910	         9.75258e+57
          1318.02540	         1.01093e+58
          1318.83170	         1.20373e+58
          1319.63800	         1.19317e+58
          1320.44430	         1.19790e+58
          1321.25060	         1.12067e+58
          1322.05690	         1.19410e+58
          1322.86320	         1.25902e+58
          1323.66950	         1.08057e+58
          1324.47580	         9.48766e+57
          1325.28210	         9.90120e+57
          1326.08840	         1.10170e+58
          1326.89470	         1.23215e+58
          1327.70100	         1.09655e+58
          1328.50730	         7.50668e+57
          1329.31360	         8.47076e+57
          1330.11990	         9.02062e+57
          1330.92620	         8.72918e+57
          1331.73250	         1.01561e+58
          1332.53880	         9.13375e+57
          1333.34510	         7.97385e+57
          1334.15140	         8.61022e+57
          1334.95770	         9.45635e+57
          1335.76400	         1.11505e+58
          1336.57030	         1.17939e+58
          1337.37660	         1.15501e+58
          1338.18290	         1.19936e+58
          1338.98920	         1.28158e+58
          1339.79550	         1.27538e+58
          1340.60180	         1.29428e+58
          1341.40810	         1.22670e+58
          1342.21440	         1.13995e+58
          1343.02070	         1.24575e+58
          1343.82700	         1.38003e+58
          1344.63330	         1.20509e+58
          1345.43960	         1.11041e+58
          1346.24590	         1.02557e+58
          1347.05220	         1.24069e+58
          1347.85850	         1.25663e+58
          1348.66480	         1.25899e+58
          1349.47110	         1.42520e+58
          1350.27740	         1.41024e+58
          1351.08370	         1.27508e+58
          1351.89000	         1.27034e+58
          1352.69630	         1.26397e+58
          1353.50260	         1.24271e+58
          1354.30890	         1.27157e+58
          1355.11520	         1.15042e+58
          1355.92150	         1.11112e+58
          1356.72780	         1.01149e+58
          1357.53410	         1.09658e+58
          1358.34040	         1.25290e+58
          1359.14670	         1.20480e+58
          1359.95300	         1.15960e+58
          1360.75930	         1.14337e+58
          1361.56560	         1.02963e+58
          1362.37190	         1.05113e+58
          1363.17820	         1.09078e+58
          1363.98450	         1.23203e+58
          1364.79080	         1.40722e+58
          1365.59710	         1.45993e+58
          1366.40340	         1.25337e+58
          1367.20970	         1.03807e+58
          1368.01600	         1.06871e+58
          1368.82230	         1.01943e+58
          1369.62860	         1.02507e+58
          1370.43490	         1.00604e+58
          1371.24120	         9.81521e+57
          1372.04750	         8.80029e+57
          1372.85380	         1.19931e+58
          1373.66010	         1.16674e+58
          1374.46640	         1.05333e+58
          1375.27270	         1.14296e+58
          1376.07900	         9.50784e+57
          1376.88530	         7.19835e+57
          1377.69160	         8.24299e+57
          1378.49790	         8.16395e+57
          1379.30420	         6.81753e+57
          1380.11050	         9.10755e+57
          1380.91680	         9.74471e+57
          1381.72310	         7.61422e+57
          1382.52940	         6.85754e+57
          1383.33570	         7.75585e+57
          1384.14200	         1.09726e+58
          1384.94830	         1.14164e+58
          1385.75460	         1.06123e+58
          1386.56090	         1.16210e+58
          1387.36720	         1.20560e+58
          1388.17350	         1.29952e+58
          1388.97980	         9.71729e+57
          1389.78610	         7.09992e+57
          1390.59240	         7.18004e+57
          1391.39870	         6.11122e+57
          1392.20500	         8.29629e+57
          1393.01130	         8.42679e+57
          1393.81760	         9.14851e+57
          1394.62390	         8.84621e+57
          1395.43020	         6.65533e+57
          1396.23650	         7.77359e+57
          1397.04280	         7.98733e+57
          1397.84910	         8.06070e+57
          1398.65540	         9.00866e+57
          1399.46170	         9.63188e+57
          1400.26800	         8.05322e+57
          1401.07430	         7.69332e+57
          1401.88060	         8.21234e+57
          1402.68690	         9.32652e+57
          1403.49320	         9.54596e+57
          1404.29950	         8.92109e+57
          1405.10580	         1.00807e+58
          1405.91210	         1.12369e+58
          1406.71840	         1.15878e+58
          1407.52470	         1.10667e+58
          1408.33100	         1.00833e+58
          1409.13730	         1.05862e+58
          1409.94360	         1.21083e+58
          1410.74990	         1.18676e+58
          1411.55620	         1.03387e+58
          1412.36250	         9.09071e+57
          1413.16880	         9.39225e+57
          1413.97510	         9.03118e+57
          1414.78140	         9.18883e+57
          1415.58770	         1.11733e+58
          1416.39400	         1.17484e+58
          1417.20030	         1.13822e+58
          1418.00660	         9.69158e+57
          1418.81290	         9.98547e+57
          1419.61920	         1.04443e+58
          1420.42550	         1.18473e+58
          1421.23180	         1.44864e+58
          1422.03810	         1.27596e+58
          1422.84440	         1.06242e+58
          1423.65070	         1.25505e+58
          1424.45700	         1.18758e+58
          1425.26330	         9.25783e+57
          1426.06960	         9.75568e+57
          1426.87590	         9.26561e+57
          1427.68220	         8.61685e+57
          1428.48850	         9.91378e+57
          1429.29480	         1.02454e+58
          1430.10110	         1.01614e+58
          1430.90740	         9.05547e+57
          1431.71370	         8.88335e+57
          1432.52000	         9.19724e+57
          1433.32630	         8.23351e+57
          1434.13260	         8.40413e+57
          1434.93890	         8.62317e+57
          1435.74520	         9.13509e+57
          1436.55150	         1.00648e+58
          1437.35780	         9.58518e+57
          1438.16410	         8.53635e+57
          1438.97040	         8.38967e+57
          1439.77670	         9.03222e+57
          1440.58300	         9.64956e+57
          1441.38930	         1.01400e+58
          1442.19560	         1.02565e+58
          1443.00190	         1.07662e+58
          1443.80820	         1.17927e+58
          1444.61450	         9.22632e+57
          1445.42080	         8.41636e+57
          1446.22710	         1.02359e+58
          1447.03340	         9.98713e+57
          1447.83970	         1.07328e+58
          1448.64600	         1.06630e+58
          1449.45230	         9.71770e+57
          1450.25860	         9.86402e+57
          1451.06490	         1.00035e+58
          1451.87120	         7.87263e+57
          1452.67750	         7.48922e+57
          1453.48380	         8.55600e+57
          1454.29010	         6.88888e+57
          1455.09640	         7.37208e+57
          1455.90270	         8.47371e+57
          1456.70900	         8.92762e+57
          1457.51530	         9.97663e+57
          1458.32160	         1.21529e+58
          1459.12790	         1.16287e+58
          1459.93420	         9.62142e+57
          1460.74050	         7.89616e+57
          1461.54680	         8.43980e+57
          1462.35310	         8.32777e+57
          1463.15940	         9.81254e+57
          1463.96570	         1.14651e+58
          1464.77200	         1.10092e+58
          1465.57830	         1.00201e+58
          1466.38460	         8.68960e+57
          1467.19090	         8.94329e+57
          1467.99720	         9.49804e+57
          1468.80350	         1.01814e+58
          1469.60980	         1.00078e+58
          1470.41610	         1.02342e+58
          1471.22240	         9.32061e+57
          1472.02870	         9.22756e+57
          1472.83500	         9.41233e+57
          1473.64130	         9.18720e+57
          1474.44760	         9.86896e+57
          1475.25390	         1.08297e+58
          1476.06020	         9.84265e+57
          1476.86650	         8.92629e+57
          1477.67280	         8.54781e+57
          1478.47910	         6.54677e+57
          1479.28540	         6.85391e+57
          1480.09170	         8.47925e+57
          1480.89800	         7.99006e+57
          1481.70430	         7.95250e+57
          1482.51060	         7.56574e+57
          1483.31690	         6.75183e+57
          1484.12320	         6.62462e+57
          1484.92950	         7.36176e+57
          1485.73580	         8.39979e+57
          1486.54210	         8.67452e+57
          1487.34840	         9.05596e+57
          1488.15470	         8.00260e+57
          1488.96100	         8.01778e+57
          1489.76730	         9.53500e+57
