#sample_130_stacked_spectrum_rest_UV-bands_median_H-alpha_noDC.txt
#median Lum: 1.69755e+42
#Rest-frame wavelength (A) | Luminosity (erg/s/A)
#
          1110.00000	         0.00000e+00
          1110.80630	         1.89297e+59
          1111.61260	        -5.65163e+57
          1112.41890	         1.56064e+59
          1113.22520	         1.38435e+59
          1114.03150	        -1.76090e+58
          1114.83780	         2.47324e+59
          1115.64410	         1.35752e+59
          1116.45040	         2.08538e+59
          1117.25670	         2.22391e+58
          1118.06300	         2.69252e+59
          1118.86930	        -1.21985e+58
          1119.67560	        -2.22536e+58
          1120.48190	        -2.35929e+58
          1121.28820	        -1.28615e+59
          1122.09450	         6.32329e+57
          1122.90080	         1.32694e+59
          1123.70710	         8.04842e+58
          1124.51340	         1.15860e+59
          1125.31970	         2.76166e+58
          1126.12600	        -2.31895e+58
          1126.93230	        -5.26250e+58
          1127.73860	        -4.11020e+57
          1128.54490	        -4.65443e+58
          1129.35120	        -1.10681e+58
          1130.15750	        -3.32699e+58
          1130.96380	        -4.14816e+58
          1131.77010	         7.64103e+58
          1132.57640	         6.37673e+58
          1133.38270	         2.02163e+58
          1134.18900	         6.11568e+57
          1134.99530	         3.23999e+58
          1135.80160	         4.00929e+58
          1136.60790	         1.70595e+58
          1137.41420	        -8.49013e+57
          1138.22050	         5.59793e+58
          1139.02680	         3.92619e+58
          1139.83310	         3.12975e+58
          1140.63940	         9.78423e+57
          1141.44570	        -1.31760e+58
          1142.25200	        -1.67337e+58
          1143.05830	         2.05853e+58
          1143.86460	         1.08017e+58
          1144.67090	         2.54146e+58
          1145.47720	         1.97128e+58
          1146.28350	         1.08406e+58
          1147.08980	         1.78485e+58
          1147.89610	         1.54134e+58
          1148.70240	         3.02186e+58
          1149.50870	         2.57905e+58
          1150.31500	         2.09888e+58
          1151.12130	        -4.09699e+57
          1151.92760	        -8.68867e+57
          1152.73390	         1.07652e+57
          1153.54020	         1.05861e+58
          1154.34650	         2.55424e+58
          1155.15280	         2.33094e+58
          1155.95910	         1.18810e+58
          1156.76540	         1.83138e+58
          1157.57170	         3.15067e+57
          1158.37800	        -2.77102e+57
          1159.18430	        -1.21227e+58
          1159.99060	        -2.78142e+55
          1160.79690	        -4.74067e+56
          1161.60320	         1.31850e+58
          1162.40950	         1.12765e+58
          1163.21580	         2.24032e+58
          1164.02210	         1.38127e+58
          1164.82840	         1.78190e+58
          1165.63470	         2.36548e+58
          1166.44100	         2.68508e+58
          1167.24730	         1.44953e+58
          1168.05360	         6.00749e+57
          1168.85990	         8.65134e+57
          1169.66620	         8.31695e+57
          1170.47250	         1.15691e+58
          1171.27880	         1.51905e+58
          1172.08510	         1.75410e+58
          1172.89140	         1.90580e+58
          1173.69770	        -3.06046e+57
          1174.50400	         7.14086e+57
          1175.31030	         1.85150e+58
          1176.11660	         1.49019e+58
          1176.92290	         1.64274e+58
          1177.72920	         1.08808e+58
          1178.53550	         7.18629e+57
          1179.34180	         6.53163e+57
          1180.14810	         3.80190e+57
          1180.95440	         5.75899e+57
          1181.76070	         6.97468e+57
          1182.56700	         7.47409e+57
          1183.37330	         9.20876e+57
          1184.17960	         1.39418e+58
          1184.98590	         1.07012e+58
          1185.79220	         6.81863e+57
          1186.59850	         8.35479e+57
          1187.40480	         6.40547e+57
          1188.21110	         1.71364e+58
          1189.01740	         9.38981e+57
          1189.82370	         1.26111e+58
          1190.63000	         1.34639e+58
          1191.43630	         1.00507e+58
          1192.24260	         6.78332e+57
          1193.04890	         1.11437e+58
          1193.85520	         9.10475e+57
          1194.66150	         3.85638e+57
          1195.46780	         1.24227e+58
          1196.27410	         1.46820e+58
          1197.08040	         1.10727e+58
          1197.88670	         1.85326e+58
          1198.69300	         1.96389e+58
          1199.49930	         1.80202e+58
          1200.30560	         9.91920e+57
          1201.11190	         9.18028e+57
          1201.91820	         1.15048e+58
          1202.72450	         7.16995e+57
          1203.53080	         1.04619e+58
          1204.33710	         6.16866e+57
          1205.14340	         6.41738e+57
          1205.94970	         3.30057e+57
          1206.75600	         6.38696e+57
          1207.56230	         3.94595e+57
          1208.36860	         7.96891e+57
          1209.17490	         1.39547e+57
          1209.98120	         5.59328e+57
          1210.78750	         8.95091e+57
          1211.59380	         1.32579e+58
          1212.40010	         1.73943e+58
          1213.20640	         2.54343e+58
          1214.01270	         2.50327e+58
          1214.81900	         2.30235e+58
          1215.62530	         4.49439e+58
          1216.43160	         9.10580e+58
          1217.23790	         1.51758e+59
          1218.04420	         1.17988e+59
          1218.85050	         8.72802e+58
          1219.65680	         5.72881e+58
          1220.46310	         3.53015e+58
          1221.26940	         2.28080e+58
          1222.07570	         1.31573e+58
          1222.88200	         1.08723e+58
          1223.68830	         1.06507e+58
          1224.49460	         5.99025e+57
          1225.30090	         5.52333e+57
          1226.10720	         5.85489e+57
          1226.91350	         8.28635e+57
          1227.71980	         8.65961e+57
          1228.52610	         9.31925e+57
          1229.33240	         7.11836e+57
          1230.13870	         8.08700e+57
          1230.94500	         9.09972e+57
          1231.75130	         7.01111e+57
          1232.55760	         8.83725e+57
          1233.36390	         9.30159e+57
          1234.17020	         6.61720e+57
          1234.97650	         5.83365e+57
          1235.78280	         5.19073e+57
          1236.58910	         5.86576e+57
          1237.39540	         1.05794e+58
          1238.20170	         9.82283e+57
          1239.00800	         1.02567e+58
          1239.81430	         1.39891e+58
          1240.62060	         1.07246e+58
          1241.42690	         1.09826e+58
          1242.23320	         1.31653e+58
          1243.03950	         1.06268e+58
          1243.84580	         1.02942e+58
          1244.65210	         9.73428e+57
          1245.45840	         9.26576e+57
          1246.26470	         6.53044e+57
          1247.07100	         7.85744e+57
          1247.87730	         7.18051e+57
          1248.68360	         4.70957e+57
          1249.48990	         7.10580e+57
          1250.29620	         9.97157e+57
          1251.10250	         8.70252e+57
          1251.90880	         5.46607e+57
          1252.71510	         5.30231e+57
          1253.52140	         8.31122e+57
          1254.32770	         9.42192e+57
          1255.13400	         1.35867e+58
          1255.94030	         1.27748e+58
          1256.74660	         1.02733e+58
          1257.55290	         1.18875e+58
          1258.35920	         8.27655e+57
          1259.16550	         5.57334e+57
          1259.97180	         5.26073e+57
          1260.77810	         8.64611e+57
          1261.58440	         1.25661e+58
          1262.39070	         6.68191e+57
          1263.19700	         7.26925e+57
          1264.00330	         8.75701e+57
          1264.80960	         1.07535e+58
          1265.61590	         1.34888e+58
          1266.42220	         1.20047e+58
          1267.22850	         1.15532e+58
          1268.03480	         1.45932e+58
          1268.84110	         1.41427e+58
          1269.64740	         1.30885e+58
          1270.45370	         1.41620e+58
          1271.26000	         1.21713e+58
          1272.06630	         1.38240e+58
          1272.87260	         1.37599e+58
          1273.67890	         1.30921e+58
          1274.48520	         1.18366e+58
          1275.29150	         1.26065e+58
          1276.09780	         1.27603e+58
          1276.90410	         1.46992e+58
          1277.71040	         1.37604e+58
          1278.51670	         1.16197e+58
          1279.32300	         1.23744e+58
          1280.12930	         1.39803e+58
          1280.93560	         1.27278e+58
          1281.74190	         1.14697e+58
          1282.54820	         1.24140e+58
          1283.35450	         1.13148e+58
          1284.16080	         1.31412e+58
          1284.96710	         1.50355e+58
          1285.77340	         9.94481e+57
          1286.57970	         7.36145e+57
          1287.38600	         1.36541e+58
          1288.19230	         1.71003e+58
          1288.99860	         1.67605e+58
          1289.80490	         1.40532e+58
          1290.61120	         1.32408e+58
          1291.41750	         1.55339e+58
          1292.22380	         1.53017e+58
          1293.03010	         1.31805e+58
          1293.83640	         1.27634e+58
          1294.64270	         1.00293e+58
          1295.44900	         6.93380e+57
          1296.25530	         8.97292e+57
          1297.06160	         1.12998e+58
          1297.86790	         9.62192e+57
          1298.67420	         7.26711e+57
          1299.48050	         8.04287e+57
          1300.28680	         9.89036e+57
          1301.09310	         9.02560e+57
          1301.89940	         5.22629e+57
          1302.70570	         7.08985e+57
          1303.51200	         9.14480e+57
          1304.31830	         8.95467e+57
          1305.12460	         1.13806e+58
          1305.93090	         1.19889e+58
          1306.73720	         1.28773e+58
          1307.54350	         1.56332e+58
          1308.34980	         1.61583e+58
          1309.15610	         1.40566e+58
          1309.96240	         1.36841e+58
          1310.76870	         1.49206e+58
          1311.57500	         1.27689e+58
          1312.38130	         1.06683e+58
          1313.18760	         1.35212e+58
          1313.99390	         1.48860e+58
          1314.80020	         1.64464e+58
          1315.60650	         1.58443e+58
          1316.41280	         1.28697e+58
          1317.21910	         1.13990e+58
          1318.02540	         1.08968e+58
          1318.83170	         1.25157e+58
          1319.63800	         1.36105e+58
          1320.44430	         1.37168e+58
          1321.25060	         1.38883e+58
          1322.05690	         1.28971e+58
          1322.86320	         1.31268e+58
          1323.66950	         1.16445e+58
          1324.47580	         9.15946e+57
          1325.28210	         9.87920e+57
          1326.08840	         1.18897e+58
          1326.89470	         1.27661e+58
          1327.70100	         1.06076e+58
          1328.50730	         7.67568e+57
          1329.31360	         8.63476e+57
          1330.11990	         9.10345e+57
          1330.92620	         9.78161e+57
          1331.73250	         9.99070e+57
          1332.53880	         8.84270e+57
          1333.34510	         8.45307e+57
          1334.15140	         8.45615e+57
          1334.95770	         7.92907e+57
          1335.76400	         9.13002e+57
          1336.57030	         1.07942e+58
          1337.37660	         1.05321e+58
          1338.18290	         1.07686e+58
          1338.98920	         1.20268e+58
          1339.79550	         1.23925e+58
          1340.60180	         1.18348e+58
          1341.40810	         1.37350e+58
          1342.21440	         1.13452e+58
          1343.02070	         1.07261e+58
          1343.82700	         1.23819e+58
          1344.63330	         1.03189e+58
          1345.43960	         9.84054e+57
          1346.24590	         9.40219e+57
          1347.05220	         1.14149e+58
          1347.85850	         1.21601e+58
          1348.66480	         1.30716e+58
          1349.47110	         1.48267e+58
          1350.27740	         1.26938e+58
          1351.08370	         1.10714e+58
          1351.89000	         1.17272e+58
          1352.69630	         1.23458e+58
          1353.50260	         1.30231e+58
          1354.30890	         1.30256e+58
          1355.11520	         1.21689e+58
          1355.92150	         1.16097e+58
          1356.72780	         1.12873e+58
          1357.53410	         1.06094e+58
          1358.34040	         1.03998e+58
          1359.14670	         1.12437e+58
          1359.95300	         1.17174e+58
          1360.75930	         1.16954e+58
          1361.56560	         1.10938e+58
          1362.37190	         1.11266e+58
          1363.17820	         1.09591e+58
          1363.98450	         1.12011e+58
          1364.79080	         1.17835e+58
          1365.59710	         1.36747e+58
          1366.40340	         1.30917e+58
          1367.20970	         1.12088e+58
          1368.01600	         1.16822e+58
          1368.82230	         9.55848e+57
          1369.62860	         9.74333e+57
          1370.43490	         9.81499e+57
          1371.24120	         1.01064e+58
          1372.04750	         9.05926e+57
          1372.85380	         1.22437e+58
          1373.66010	         1.17001e+58
          1374.46640	         1.00830e+58
          1375.27270	         1.00454e+58
          1376.07900	         8.72683e+57
          1376.88530	         8.94391e+57
          1377.69160	         8.80284e+57
          1378.49790	         6.61320e+57
          1379.30420	         6.48262e+57
          1380.11050	         8.69621e+57
          1380.91680	         8.75110e+57
          1381.72310	         7.36170e+57
          1382.52940	         7.82613e+57
          1383.33570	         9.13286e+57
          1384.14200	         9.93129e+57
          1384.94830	         1.07535e+58
          1385.75460	         1.04912e+58
          1386.56090	         1.09542e+58
          1387.36720	         1.04409e+58
          1388.17350	         1.18223e+58
          1388.97980	         1.17560e+58
          1389.78610	         9.54349e+57
          1390.59240	         8.30237e+57
          1391.39870	         7.37035e+57
          1392.20500	         8.15388e+57
          1393.01130	         8.56335e+57
          1393.81760	         8.08055e+57
          1394.62390	         7.23871e+57
          1395.43020	         7.06961e+57
          1396.23650	         6.54677e+57
          1397.04280	         6.25562e+57
          1397.84910	         8.24951e+57
          1398.65540	         8.76682e+57
          1399.46170	         9.40827e+57
          1400.26800	         8.32579e+57
          1401.07430	         7.34237e+57
          1401.88060	         7.94040e+57
          1402.68690	         1.02346e+58
          1403.49320	         1.07497e+58
          1404.29950	         1.02223e+58
          1405.10580	         1.04969e+58
          1405.91210	         1.01836e+58
          1406.71840	         1.01383e+58
          1407.52470	         1.08564e+58
          1408.33100	         1.14489e+58
          1409.13730	         1.16977e+58
          1409.94360	         1.18601e+58
          1410.74990	         1.09884e+58
          1411.55620	         9.62014e+57
          1412.36250	         8.70586e+57
          1413.16880	         8.71122e+57
          1413.97510	         8.15807e+57
          1414.78140	         8.10709e+57
          1415.58770	         1.06641e+58
          1416.39400	         1.12483e+58
          1417.20030	         1.10480e+58
          1418.00660	         9.57725e+57
          1418.81290	         1.11274e+58
          1419.61920	         1.19778e+58
          1420.42550	         1.26490e+58
          1421.23180	         1.33744e+58
          1422.03810	         1.10222e+58
          1422.84440	         1.12362e+58
          1423.65070	         1.23325e+58
          1424.45700	         1.13457e+58
          1425.26330	         8.90138e+57
          1426.06960	         9.49197e+57
          1426.87590	         9.73830e+57
          1427.68220	         1.00739e+58
          1428.48850	         1.11425e+58
          1429.29480	         9.58682e+57
          1430.10110	         8.56288e+57
          1430.90740	         8.66119e+57
          1431.71370	         8.86491e+57
          1432.52000	         8.74374e+57
          1433.32630	         8.04237e+57
          1434.13260	         7.72199e+57
          1434.93890	         8.28128e+57
          1435.74520	         9.28862e+57
          1436.55150	         1.04144e+58
          1437.35780	         1.03417e+58
          1438.16410	         9.36905e+57
          1438.97040	         9.04105e+57
          1439.77670	         8.53497e+57
          1440.58300	         8.81384e+57
          1441.38930	         9.78997e+57
          1442.19560	         1.02695e+58
          1443.00190	         9.98249e+57
          1443.80820	         1.02604e+58
          1444.61450	         9.58164e+57
          1445.42080	         9.60773e+57
          1446.22710	         9.81697e+57
          1447.03340	         9.46483e+57
          1447.83970	         1.14872e+58
          1448.64600	         1.08322e+58
          1449.45230	         9.92218e+57
          1450.25860	         9.73237e+57
          1451.06490	         8.67543e+57
          1451.87120	         7.36954e+57
          1452.67750	         6.62155e+57
          1453.48380	         7.93181e+57
          1454.29010	         7.89741e+57
          1455.09640	         8.40795e+57
          1455.90270	         9.80117e+57
          1456.70900	         9.11904e+57
          1457.51530	         9.89027e+57
          1458.32160	         1.26188e+58
          1459.12790	         1.31668e+58
          1459.93420	         1.15255e+58
          1460.74050	         9.10488e+57
          1461.54680	         8.33597e+57
          1462.35310	         6.84267e+57
          1463.15940	         9.39840e+57
          1463.96570	         1.17983e+58
          1464.77200	         1.14570e+58
          1465.57830	         1.05329e+58
          1466.38460	         8.17358e+57
          1467.19090	         8.12230e+57
          1467.99720	         8.97810e+57
          1468.80350	         9.42776e+57
          1469.60980	         8.90698e+57
          1470.41610	         9.97328e+57
          1471.22240	         1.04290e+58
          1472.02870	         1.02483e+58
          1472.83500	         1.06704e+58
          1473.64130	         9.98938e+57
          1474.44760	         9.86103e+57
          1475.25390	         9.00445e+57
          1476.06020	         8.62047e+57
          1476.86650	         8.38880e+57
          1477.67280	         8.39421e+57
          1478.47910	         7.74458e+57
          1479.28540	         7.47326e+57
          1480.09170	         8.65430e+57
          1480.89800	         9.33302e+57
          1481.70430	         9.28998e+57
          1482.51060	         9.28314e+57
          1483.31690	         8.80212e+57
          1484.12320	         7.70051e+57
          1484.92950	         6.77131e+57
          1485.73580	         7.46062e+57
          1486.54210	         8.92039e+57
          1487.34840	         8.84929e+57
          1488.15470	         7.93018e+57
          1488.96100	         8.20926e+57
          1489.76730	         8.73573e+57
