#sample_248_stacked_spectrum_rest_UV-bands_median_H-alpha_noDC.txt
#median Lum: 1.68433e+42
#Rest-frame wavelength (A) | Luminosity (erg/s/A)
#
          1110.00000	         0.00000e+00
          1110.80630	        -4.57423e+59
          1111.61260	         1.66509e+59
          1112.41890	         4.18873e+59
          1113.22520	         1.42400e+59
          1114.03150	        -1.04253e+59
          1114.83780	        -1.40118e+59
          1115.64410	        -1.22903e+59
          1116.45040	        -8.59070e+58
          1117.25670	         1.49025e+59
          1118.06300	         1.32101e+59
          1118.86930	         8.12215e+58
          1119.67560	         9.58872e+58
          1120.48190	        -2.95246e+58
          1121.28820	        -1.16419e+59
          1122.09450	         5.40819e+58
          1122.90080	         6.05049e+58
          1123.70710	         1.49298e+58
          1124.51340	         4.78814e+58
          1125.31970	        -2.45008e+58
          1126.12600	        -1.75574e+58
          1126.93230	        -6.71788e+58
          1127.73860	        -6.84475e+58
          1128.54490	         1.49782e+58
          1129.35120	         1.29716e+58
          1130.15750	         1.00075e+58
          1130.96380	        -1.30460e+58
          1131.77010	         3.22324e+58
          1132.57640	        -1.48313e+58
          1133.38270	         2.35249e+58
          1134.18900	         1.07568e+58
          1134.99530	         2.63524e+58
          1135.80160	         2.22533e+58
          1136.60790	         1.34941e+58
          1137.41420	        -1.31488e+58
          1138.22050	         2.65619e+58
          1139.02680	         2.72401e+58
          1139.83310	         2.14502e+58
          1140.63940	         2.64595e+58
          1141.44570	        -1.62090e+57
          1142.25200	        -4.26106e+57
          1143.05830	         3.12918e+58
          1143.86460	         2.80507e+58
          1144.67090	         1.01780e+58
          1145.47720	        -2.59843e+57
          1146.28350	         1.32807e+58
          1147.08980	         1.23188e+58
          1147.89610	         6.00597e+57
          1148.70240	         2.33917e+58
          1149.50870	         2.38377e+58
          1150.31500	         1.50748e+58
          1151.12130	         8.50395e+57
          1151.92760	         6.48262e+57
          1152.73390	         1.11272e+57
          1153.54020	        -1.34266e+57
          1154.34650	         1.46009e+58
          1155.15280	         1.78161e+58
          1155.95910	         1.50727e+58
          1156.76540	         4.50775e+57
          1157.57170	         7.92794e+57
          1158.37800	        -6.95110e+57
          1159.18430	        -4.09521e+57
          1159.99060	         1.84762e+57
          1160.79690	         5.58859e+57
          1161.60320	         1.08946e+58
          1162.40950	         9.90339e+57
          1163.21580	         2.35897e+58
          1164.02210	         1.37075e+58
          1164.82840	         5.83822e+57
          1165.63470	         1.96817e+58
          1166.44100	         2.92301e+58
          1167.24730	         1.64394e+58
          1168.05360	         5.48546e+57
          1168.85990	         4.38100e+57
          1169.66620	         1.05134e+58
          1170.47250	         8.47698e+57
          1171.27880	         7.12574e+57
          1172.08510	         1.04974e+58
          1172.89140	         1.10779e+58
          1173.69770	         3.98588e+57
          1174.50400	         8.11046e+57
          1175.31030	         1.90092e+58
          1176.11660	         2.03457e+58
          1176.92290	         1.69648e+58
          1177.72920	         1.12079e+58
          1178.53550	         7.35489e+57
          1179.34180	         1.78129e+57
          1180.14810	         1.00116e+58
          1180.95440	         1.92695e+58
          1181.76070	         1.50008e+58
          1182.56700	         1.04815e+58
          1183.37330	         4.21174e+57
          1184.17960	         9.57601e+57
          1184.98590	         1.00692e+58
          1185.79220	         6.30477e+57
          1186.59850	         7.52207e+57
          1187.40480	         1.22406e+58
          1188.21110	         1.57790e+58
          1189.01740	         9.15297e+57
          1189.82370	         6.87432e+57
          1190.63000	         4.77153e+57
          1191.43630	         1.64131e+58
          1192.24260	         1.19165e+58
          1193.04890	         1.38077e+58
          1193.85520	         1.23324e+58
          1194.66150	         6.51535e+57
          1195.46780	         9.65073e+57
          1196.27410	         1.33415e+58
          1197.08040	         8.05215e+57
          1197.88670	         1.31162e+58
          1198.69300	         1.88869e+58
          1199.49930	         1.63593e+58
          1200.30560	         9.16238e+57
          1201.11190	         7.58495e+57
          1201.91820	         9.40030e+57
          1202.72450	         1.03382e+58
          1203.53080	         1.69062e+58
          1204.33710	         1.16624e+58
          1205.14340	         4.02697e+57
          1205.94970	         5.13200e+57
          1206.75600	         4.92257e+57
          1207.56230	         5.86011e+57
          1208.36860	         1.13505e+58
          1209.17490	         6.62471e+57
          1209.98120	         4.66359e+57
          1210.78750	         9.41810e+57
          1211.59380	         1.09570e+58
          1212.40010	         1.56544e+58
          1213.20640	         2.10594e+58
          1214.01270	         2.05079e+58
          1214.81900	         2.33649e+58
          1215.62530	         4.26328e+58
          1216.43160	         8.93623e+58
          1217.23790	         1.47722e+59
          1218.04420	         1.17995e+59
          1218.85050	         8.71601e+58
          1219.65680	         5.59004e+58
          1220.46310	         3.21044e+58
          1221.26940	         2.50324e+58
          1222.07570	         1.66377e+58
          1222.88200	         1.34125e+58
          1223.68830	         9.78377e+57
          1224.49460	         7.64957e+57
          1225.30090	         5.64108e+57
          1226.10720	         5.34732e+57
          1226.91350	         5.91854e+57
          1227.71980	         8.50487e+57
          1228.52610	         9.79402e+57
          1229.33240	         1.02111e+58
          1230.13870	         1.20326e+58
          1230.94500	         9.43663e+57
          1231.75130	         4.75481e+57
          1232.55760	         6.67267e+57
          1233.36390	         9.15675e+57
          1234.17020	         9.54916e+57
          1234.97650	         1.00617e+58
          1235.78280	         8.14086e+57
          1236.58910	         7.67396e+57
          1237.39540	         8.89619e+57
          1238.20170	         8.20069e+57
          1239.00800	         9.46090e+57
          1239.81430	         1.37586e+58
          1240.62060	         1.23623e+58
          1241.42690	         1.15307e+58
          1242.23320	         1.25323e+58
          1243.03950	         8.32557e+57
          1243.84580	         8.56877e+57
          1244.65210	         1.00713e+58
          1245.45840	         1.03768e+58
          1246.26470	         1.08210e+58
          1247.07100	         7.75494e+57
          1247.87730	         6.06067e+57
          1248.68360	         5.11483e+57
          1249.48990	         8.43473e+57
          1250.29620	         1.10498e+58
          1251.10250	         7.97162e+57
          1251.90880	         4.22123e+57
          1252.71510	         4.45145e+57
          1253.52140	         6.40183e+57
          1254.32770	         9.85871e+57
          1255.13400	         1.20302e+58
          1255.94030	         1.12390e+58
          1256.74660	         9.49223e+57
          1257.55290	         1.05295e+58
          1258.35920	         8.97849e+57
          1259.16550	         5.07867e+57
          1259.97180	         7.05202e+57
          1260.77810	         9.11467e+57
          1261.58440	         8.67810e+57
          1262.39070	         8.46494e+57
          1263.19700	         9.14103e+57
          1264.00330	         1.10051e+58
          1264.80960	         1.16194e+58
          1265.61590	         1.23136e+58
          1266.42220	         1.17777e+58
          1267.22850	         9.49482e+57
          1268.03480	         1.42574e+58
          1268.84110	         1.55776e+58
          1269.64740	         1.39062e+58
          1270.45370	         1.57806e+58
          1271.26000	         1.36968e+58
          1272.06630	         1.29597e+58
          1272.87260	         1.16933e+58
          1273.67890	         1.07067e+58
          1274.48520	         1.21879e+58
          1275.29150	         1.28328e+58
          1276.09780	         1.21004e+58
          1276.90410	         1.46564e+58
          1277.71040	         1.30803e+58
          1278.51670	         1.10795e+58
          1279.32300	         1.28845e+58
          1280.12930	         1.16736e+58
          1280.93560	         1.08546e+58
          1281.74190	         1.08287e+58
          1282.54820	         1.21851e+58
          1283.35450	         1.23542e+58
          1284.16080	         1.28310e+58
          1284.96710	         1.39237e+58
          1285.77340	         1.37781e+58
          1286.57970	         1.23401e+58
          1287.38600	         1.66000e+58
          1288.19230	         2.02215e+58
          1288.99860	         1.58564e+58
          1289.80490	         1.12776e+58
          1290.61120	         1.35479e+58
          1291.41750	         1.40952e+58
          1292.22380	         1.13196e+58
          1293.03010	         1.13363e+58
          1293.83640	         1.28663e+58
          1294.64270	         1.15193e+58
          1295.44900	         9.21538e+57
          1296.25530	         8.61156e+57
          1297.06160	         1.03853e+58
          1297.86790	         9.39099e+57
          1298.67420	         6.72104e+57
          1299.48050	         9.56516e+57
          1300.28680	         1.05912e+58
          1301.09310	         8.81796e+57
          1301.89940	         6.07789e+57
          1302.70570	         8.28114e+57
          1303.51200	         8.90901e+57
          1304.31830	         9.73990e+57
          1305.12460	         1.11963e+58
          1305.93090	         1.09922e+58
          1306.73720	         1.25815e+58
          1307.54350	         1.32785e+58
          1308.34980	         1.29211e+58
          1309.15610	         1.41186e+58
          1309.96240	         1.57439e+58
          1310.76870	         1.34170e+58
          1311.57500	         1.14413e+58
          1312.38130	         1.26166e+58
          1313.18760	         1.55168e+58
          1313.99390	         1.62595e+58
          1314.80020	         1.53540e+58
          1315.60650	         1.42514e+58
          1316.41280	         1.42027e+58
          1317.21910	         1.31681e+58
          1318.02540	         1.21241e+58
          1318.83170	         1.28223e+58
          1319.63800	         1.23313e+58
          1320.44430	         1.04190e+58
          1321.25060	         1.02550e+58
          1322.05690	         1.11816e+58
          1322.86320	         1.14353e+58
          1323.66950	         1.23966e+58
          1324.47580	         1.00876e+58
          1325.28210	         9.21481e+57
          1326.08840	         1.02379e+58
          1326.89470	         1.12395e+58
          1327.70100	         9.69493e+57
          1328.50730	         8.47707e+57
          1329.31360	         9.74877e+57
          1330.11990	         8.90968e+57
          1330.92620	         8.84261e+57
          1331.73250	         1.03753e+58
          1332.53880	         9.25229e+57
          1333.34510	         9.29504e+57
          1334.15140	         9.37426e+57
          1334.95770	         8.94440e+57
          1335.76400	         9.43463e+57
          1336.57030	         1.12774e+58
          1337.37660	         1.22866e+58
          1338.18290	         1.09930e+58
          1338.98920	         1.10166e+58
          1339.79550	         1.07408e+58
          1340.60180	         1.13094e+58
          1341.40810	         1.28946e+58
          1342.21440	         1.20283e+58
          1343.02070	         1.33682e+58
          1343.82700	         1.40815e+58
          1344.63330	         1.30544e+58
          1345.43960	         1.44351e+58
          1346.24590	         1.15807e+58
          1347.05220	         1.06511e+58
          1347.85850	         9.69758e+57
          1348.66480	         1.16381e+58
          1349.47110	         1.13509e+58
          1350.27740	         1.22572e+58
          1351.08370	         1.30326e+58
          1351.89000	         1.19599e+58
          1352.69630	         1.11028e+58
          1353.50260	         1.00381e+58
          1354.30890	         1.09295e+58
          1355.11520	         1.16745e+58
          1355.92150	         1.11149e+58
          1356.72780	         1.01995e+58
          1357.53410	         9.72028e+57
          1358.34040	         1.07331e+58
          1359.14670	         1.03620e+58
          1359.95300	         1.08818e+58
          1360.75930	         1.09772e+58
          1361.56560	         9.91970e+57
          1362.37190	         1.06113e+58
          1363.17820	         1.05646e+58
          1363.98450	         1.09888e+58
          1364.79080	         1.28855e+58
          1365.59710	         1.32839e+58
          1366.40340	         1.08012e+58
          1367.20970	         1.07488e+58
          1368.01600	         1.05735e+58
          1368.82230	         9.20216e+57
          1369.62860	         1.05430e+58
          1370.43490	         8.86108e+57
          1371.24120	         1.00235e+58
          1372.04750	         9.51318e+57
          1372.85380	         9.58687e+57
          1373.66010	         1.06919e+58
          1374.46640	         1.03313e+58
          1375.27270	         9.94311e+57
          1376.07900	         9.53830e+57
          1376.88530	         9.49342e+57
          1377.69160	         8.99296e+57
          1378.49790	         7.96906e+57
          1379.30420	         7.59991e+57
          1380.11050	         7.69258e+57
          1380.91680	         7.93761e+57
          1381.72310	         7.79014e+57
          1382.52940	         6.58035e+57
          1383.33570	         8.30811e+57
          1384.14200	         1.02266e+58
          1384.94830	         1.04660e+58
          1385.75460	         9.78321e+57
          1386.56090	         1.10367e+58
          1387.36720	         1.17071e+58
          1388.17350	         1.44425e+58
          1388.97980	         1.23589e+58
          1389.78610	         8.16487e+57
          1390.59240	         7.64084e+57
          1391.39870	         6.37225e+57
          1392.20500	         7.45876e+57
          1393.01130	         6.28794e+57
          1393.81760	         6.34949e+57
          1394.62390	         7.09390e+57
          1395.43020	         5.36395e+57
          1396.23650	         6.55748e+57
          1397.04280	         7.21761e+57
          1397.84910	         7.03988e+57
          1398.65540	         8.96740e+57
          1399.46170	         1.05357e+58
          1400.26800	         8.41344e+57
          1401.07430	         6.51491e+57
          1401.88060	         7.62086e+57
          1402.68690	         8.69803e+57
          1403.49320	         9.25690e+57
          1404.29950	         8.74306e+57
          1405.10580	         1.02053e+58
          1405.91210	         1.12393e+58
          1406.71840	         1.13531e+58
          1407.52470	         1.02247e+58
          1408.33100	         1.01453e+58
          1409.13730	         1.15719e+58
          1409.94360	         1.10313e+58
          1410.74990	         1.15380e+58
          1411.55620	         1.06641e+58
          1412.36250	         8.81090e+57
          1413.16880	         8.58024e+57
          1413.97510	         8.33090e+57
          1414.78140	         9.84209e+57
          1415.58770	         1.10009e+58
          1416.39400	         9.44837e+57
          1417.20030	         9.73976e+57
          1418.00660	         8.71681e+57
          1418.81290	         9.82565e+57
          1419.61920	         1.07440e+58
          1420.42550	         1.24922e+58
          1421.23180	         1.46676e+58
          1422.03810	         1.41377e+58
          1422.84440	         1.23064e+58
          1423.65070	         1.38953e+58
          1424.45700	         1.15383e+58
          1425.26330	         8.99651e+57
          1426.06960	         9.39805e+57
          1426.87590	         9.83052e+57
          1427.68220	         1.07070e+58
          1428.48850	         1.15195e+58
          1429.29480	         1.12787e+58
          1430.10110	         1.09693e+58
          1430.90740	         9.68905e+57
          1431.71370	         8.86981e+57
          1432.52000	         8.72954e+57
          1433.32630	         7.73477e+57
          1434.13260	         7.69427e+57
          1434.93890	         8.21039e+57
          1435.74520	         1.01158e+58
          1436.55150	         1.08701e+58
          1437.35780	         9.27837e+57
          1438.16410	         8.62495e+57
          1438.97040	         8.82763e+57
          1439.77670	         9.18295e+57
          1440.58300	         9.72617e+57
          1441.38930	         1.01612e+58
          1442.19560	         9.47342e+57
          1443.00190	         9.75535e+57
          1443.80820	         1.12620e+58
          1444.61450	         1.07896e+58
          1445.42080	         8.98005e+57
          1446.22710	         1.07270e+58
          1447.03340	         9.84617e+57
          1447.83970	         1.07092e+58
          1448.64600	         1.10026e+58
          1449.45230	         9.71661e+57
          1450.25860	         9.60945e+57
          1451.06490	         8.53485e+57
          1451.87120	         7.14159e+57
          1452.67750	         6.23754e+57
          1453.48380	         8.86067e+57
          1454.29010	         9.05020e+57
          1455.09640	         7.81995e+57
          1455.90270	         8.18017e+57
          1456.70900	         8.56198e+57
          1457.51530	         9.79513e+57
          1458.32160	         1.21800e+58
          1459.12790	         1.20962e+58
          1459.93420	         1.06257e+58
          1460.74050	         8.94635e+57
          1461.54680	         8.25938e+57
          1462.35310	         8.39595e+57
          1463.15940	         9.57578e+57
          1463.96570	         1.06418e+58
          1464.77200	         1.20302e+58
          1465.57830	         1.09636e+58
          1466.38460	         9.08138e+57
          1467.19090	         7.24989e+57
          1467.99720	         7.30817e+57
          1468.80350	         8.98178e+57
          1469.60980	         8.97133e+57
          1470.41610	         1.00637e+58
          1471.22240	         9.37132e+57
          1472.02870	         8.36113e+57
          1472.83500	         1.00283e+58
          1473.64130	         1.09557e+58
          1474.44760	         9.18056e+57
          1475.25390	         8.49312e+57
          1476.06020	         8.31604e+57
          1476.86650	         7.59016e+57
          1477.67280	         7.24394e+57
          1478.47910	         7.00059e+57
          1479.28540	         7.28559e+57
          1480.09170	         8.53653e+57
          1480.89800	         8.00943e+57
          1481.70430	         8.47777e+57
          1482.51060	         7.86773e+57
          1483.31690	         7.19356e+57
          1484.12320	         8.93526e+57
          1484.92950	         8.30322e+57
          1485.73580	         7.88457e+57
          1486.54210	         8.99061e+57
          1487.34840	         8.11970e+57
          1488.15470	         7.91110e+57
          1488.96100	         9.16807e+57
          1489.76730	         9.35996e+57
