#sample_466_stacked_spectrum_rest_UV-bands_median_H-alpha_noDC.txt
#median Lum: 1.68311e+42
#Rest-frame wavelength (A) | Luminosity (erg/s/A)
#
          1110.00000	         0.00000e+00
          1110.80630	        -4.29538e+58
          1111.61260	         3.20639e+59
          1112.41890	         1.14330e+59
          1113.22520	         1.89280e+59
          1114.03150	        -1.38607e+59
          1114.83780	         4.11942e+58
          1115.64410	         2.78159e+58
          1116.45040	         1.48043e+59
          1117.25670	         1.97783e+58
          1118.06300	         8.08283e+57
          1118.86930	         1.66059e+58
          1119.67560	         1.97435e+59
          1120.48190	         2.74627e+58
          1121.28820	        -1.33246e+59
          1122.09450	        -7.64937e+58
          1122.90080	        -5.62074e+58
          1123.70710	         2.98842e+58
          1124.51340	         6.46880e+58
          1125.31970	        -1.79532e+58
          1126.12600	        -7.89384e+57
          1126.93230	        -2.82296e+58
          1127.73860	        -3.93226e+58
          1128.54490	         1.56618e+58
          1129.35120	         3.45457e+58
          1130.15750	         1.60790e+58
          1130.96380	        -2.11892e+58
          1131.77010	         2.56355e+58
          1132.57640	         3.22544e+58
          1133.38270	         4.43489e+58
          1134.18900	         4.23616e+58
          1134.99530	         2.62188e+58
          1135.80160	         1.45047e+58
          1136.60790	         7.61310e+57
          1137.41420	         2.33249e+58
          1138.22050	         2.26096e+58
          1139.02680	         2.52088e+58
          1139.83310	         1.40206e+58
          1140.63940	         2.88681e+58
          1141.44570	        -4.03261e+57
          1142.25200	        -2.57211e+58
          1143.05830	         7.58767e+57
          1143.86460	         4.38544e+58
          1144.67090	         2.00465e+58
          1145.47720	         6.33150e+57
          1146.28350	         3.76212e+57
          1147.08980	         9.62716e+57
          1147.89610	         1.16258e+58
          1148.70240	         1.83252e+58
          1149.50870	         2.67321e+58
          1150.31500	         1.89940e+58
          1151.12130	         1.13149e+58
          1151.92760	         1.16344e+58
          1152.73390	         1.07129e+58
          1153.54020	         8.07776e+57
          1154.34650	         2.74972e+58
          1155.15280	         1.57204e+58
          1155.95910	         3.68126e+56
          1156.76540	        -6.11984e+57
          1157.57170	        -2.96717e+57
          1158.37800	        -1.04254e+58
          1159.18430	        -2.94181e+57
          1159.99060	         1.61991e+58
          1160.79690	         6.61328e+57
          1161.60320	         1.58846e+58
          1162.40950	         1.76506e+58
          1163.21580	         1.00546e+58
          1164.02210	         1.05317e+57
          1164.82840	         1.23656e+58
          1165.63470	         1.99589e+58
          1166.44100	         3.02420e+58
          1167.24730	         2.32649e+58
          1168.05360	         5.77491e+57
          1168.85990	         6.15286e+57
          1169.66620	         2.05121e+57
          1170.47250	         5.10571e+57
          1171.27880	         6.67933e+57
          1172.08510	         1.43330e+58
          1172.89140	         1.28244e+58
          1173.69770	         6.69297e+57
          1174.50400	         1.80165e+58
          1175.31030	         2.10236e+58
          1176.11660	         1.37044e+58
          1176.92290	         1.76253e+58
          1177.72920	         1.30362e+58
          1178.53550	         8.25813e+57
          1179.34180	         3.73336e+57
          1180.14810	         4.62168e+57
          1180.95440	         1.00925e+58
          1181.76070	         8.27332e+57
          1182.56700	         8.15227e+57
          1183.37330	         5.34173e+57
          1184.17960	         7.91702e+57
          1184.98590	         9.62559e+57
          1185.79220	         1.10070e+58
          1186.59850	         1.17754e+58
          1187.40480	         5.54131e+57
          1188.21110	         9.02914e+57
          1189.01740	         1.07357e+58
          1189.82370	         1.10454e+58
          1190.63000	         1.18912e+58
          1191.43630	         1.06901e+58
          1192.24260	         4.77763e+57
          1193.04890	         1.21126e+58
          1193.85520	         1.11094e+58
          1194.66150	         2.51462e+57
          1195.46780	         1.41272e+58
          1196.27410	         1.51889e+58
          1197.08040	         1.24550e+58
          1197.88670	         1.62181e+58
          1198.69300	         1.55387e+58
          1199.49930	         1.53235e+58
          1200.30560	         9.05821e+57
          1201.11190	         1.13726e+58
          1201.91820	         1.21864e+58
          1202.72450	         6.88456e+57
          1203.53080	         1.26362e+58
          1204.33710	         7.03508e+57
          1205.14340	         5.42674e+57
          1205.94970	         4.12161e+57
          1206.75600	         4.15319e+57
          1207.56230	         4.48932e+57
          1208.36860	         8.82933e+57
          1209.17490	         3.83501e+57
          1209.98120	         5.60776e+57
          1210.78750	         8.80286e+57
          1211.59380	         1.14480e+58
          1212.40010	         1.51274e+58
          1213.20640	         2.46900e+58
          1214.01270	         2.37121e+58
          1214.81900	         2.77788e+58
          1215.62530	         4.56768e+58
          1216.43160	         9.16037e+58
          1217.23790	         1.53065e+59
          1218.04420	         1.12659e+59
          1218.85050	         8.82077e+58
          1219.65680	         6.09190e+58
          1220.46310	         3.62941e+58
          1221.26940	         2.46839e+58
          1222.07570	         1.50862e+58
          1222.88200	         1.16156e+58
          1223.68830	         1.24914e+58
          1224.49460	         1.06470e+58
          1225.30090	         4.72435e+57
          1226.10720	         5.38885e+57
          1226.91350	         5.33208e+57
          1227.71980	         7.63648e+57
          1228.52610	         9.16962e+57
          1229.33240	         4.77684e+57
          1230.13870	         7.52954e+57
          1230.94500	         1.05028e+58
          1231.75130	         5.81881e+57
          1232.55760	         9.12588e+57
          1233.36390	         9.82858e+57
          1234.17020	         9.25309e+57
          1234.97650	         8.82418e+57
          1235.78280	         1.06661e+58
          1236.58910	         9.64501e+57
          1237.39540	         1.02791e+58
          1238.20170	         1.12435e+58
          1239.00800	         1.19565e+58
          1239.81430	         1.61944e+58
          1240.62060	         1.57519e+58
          1241.42690	         1.01364e+58
          1242.23320	         7.49002e+57
          1243.03950	         6.22577e+57
          1243.84580	         9.72625e+57
          1244.65210	         1.12436e+58
          1245.45840	         1.01439e+58
          1246.26470	         1.01229e+58
          1247.07100	         7.89986e+57
          1247.87730	         5.66563e+57
          1248.68360	         3.31226e+57
          1249.48990	         5.93610e+57
          1250.29620	         7.10628e+57
          1251.10250	         6.38955e+57
          1251.90880	         5.13395e+57
          1252.71510	         6.71324e+57
          1253.52140	         6.56508e+57
          1254.32770	         7.71189e+57
          1255.13400	         1.31627e+58
          1255.94030	         1.27319e+58
          1256.74660	         1.11853e+58
          1257.55290	         1.06984e+58
          1258.35920	         9.00534e+57
          1259.16550	         6.88623e+57
          1259.97180	         6.08540e+57
          1260.77810	         1.04251e+58
          1261.58440	         1.16240e+58
          1262.39070	         6.66858e+57
          1263.19700	         6.63370e+57
          1264.00330	         9.01966e+57
          1264.80960	         1.24966e+58
          1265.61590	         1.36455e+58
          1266.42220	         1.16351e+58
          1267.22850	         1.14133e+58
          1268.03480	         1.27547e+58
          1268.84110	         1.23971e+58
          1269.64740	         1.14203e+58
          1270.45370	         1.37532e+58
          1271.26000	         1.16346e+58
          1272.06630	         1.17622e+58
          1272.87260	         1.38593e+58
          1273.67890	         1.43817e+58
          1274.48520	         1.21820e+58
          1275.29150	         1.36037e+58
          1276.09780	         1.17548e+58
          1276.90410	         1.43140e+58
          1277.71040	         1.43950e+58
          1278.51670	         1.10077e+58
          1279.32300	         1.40837e+58
          1280.12930	         1.29470e+58
          1280.93560	         9.55166e+57
          1281.74190	         1.07172e+58
          1282.54820	         1.18565e+58
          1283.35450	         1.05043e+58
          1284.16080	         1.09885e+58
          1284.96710	         1.35657e+58
          1285.77340	         1.09488e+58
          1286.57970	         1.02486e+58
          1287.38600	         1.26595e+58
          1288.19230	         1.61003e+58
          1288.99860	         1.48388e+58
          1289.80490	         1.05426e+58
          1290.61120	         1.29502e+58
          1291.41750	         1.58932e+58
          1292.22380	         1.37468e+58
          1293.03010	         1.16525e+58
          1293.83640	         1.27208e+58
          1294.64270	         9.62160e+57
          1295.44900	         4.33800e+57
          1296.25530	         6.98705e+57
          1297.06160	         1.14791e+58
          1297.86790	         1.12821e+58
          1298.67420	         1.07638e+58
          1299.48050	         1.07906e+58
          1300.28680	         1.08961e+58
          1301.09310	         7.82649e+57
          1301.89940	         2.87441e+57
          1302.70570	         5.99416e+57
          1303.51200	         8.55834e+57
          1304.31830	         1.10659e+58
          1305.12460	         1.12788e+58
          1305.93090	         1.01107e+58
          1306.73720	         1.12749e+58
          1307.54350	         1.31549e+58
          1308.34980	         1.43364e+58
          1309.15610	         1.50859e+58
          1309.96240	         1.59588e+58
          1310.76870	         1.33034e+58
          1311.57500	         9.50404e+57
          1312.38130	         1.11545e+58
          1313.18760	         1.56110e+58
          1313.99390	         1.76062e+58
          1314.80020	         1.73876e+58
          1315.60650	         1.51910e+58
          1316.41280	         1.17115e+58
          1317.21910	         9.76507e+57
          1318.02540	         1.12907e+58
          1318.83170	         1.32375e+58
          1319.63800	         1.10332e+58
          1320.44430	         1.11658e+58
          1321.25060	         1.21547e+58
          1322.05690	         1.20036e+58
          1322.86320	         1.16273e+58
          1323.66950	         9.91993e+57
          1324.47580	         8.03703e+57
          1325.28210	         8.49976e+57
          1326.08840	         1.06074e+58
          1326.89470	         1.17436e+58
          1327.70100	         1.04131e+58
          1328.50730	         8.71035e+57
          1329.31360	         9.10453e+57
          1330.11990	         9.55113e+57
          1330.92620	         9.67435e+57
          1331.73250	         1.08916e+58
          1332.53880	         1.01921e+58
          1333.34510	         9.36472e+57
          1334.15140	         9.42621e+57
          1334.95770	         1.01413e+58
          1335.76400	         1.16178e+58
          1336.57030	         1.17370e+58
          1337.37660	         1.00144e+58
          1338.18290	         1.01069e+58
          1338.98920	         1.07025e+58
          1339.79550	         1.08757e+58
          1340.60180	         1.07440e+58
          1341.40810	         1.16001e+58
          1342.21440	         1.06515e+58
          1343.02070	         1.04880e+58
          1343.82700	         1.33746e+58
          1344.63330	         1.34456e+58
          1345.43960	         1.29981e+58
          1346.24590	         1.19547e+58
          1347.05220	         1.31746e+58
          1347.85850	         1.08771e+58
          1348.66480	         1.08340e+58
          1349.47110	         1.11145e+58
          1350.27740	         9.96020e+57
          1351.08370	         1.09636e+58
          1351.89000	         1.11625e+58
          1352.69630	         1.28998e+58
          1353.50260	         1.32420e+58
          1354.30890	         1.21707e+58
          1355.11520	         1.30303e+58
          1355.92150	         1.16023e+58
          1356.72780	         9.85162e+57
          1357.53410	         1.04038e+58
          1358.34040	         1.11249e+58
          1359.14670	         1.00950e+58
          1359.95300	         1.05419e+58
          1360.75930	         1.02385e+58
          1361.56560	         9.64785e+57
          1362.37190	         1.15487e+58
          1363.17820	         1.19478e+58
          1363.98450	         1.14724e+58
          1364.79080	         1.32563e+58
          1365.59710	         1.44174e+58
          1366.40340	         1.16990e+58
          1367.20970	         9.24810e+57
          1368.01600	         9.88565e+57
          1368.82230	         9.80911e+57
          1369.62860	         1.07901e+58
          1370.43490	         1.00260e+58
          1371.24120	         9.08461e+57
          1372.04750	         8.34230e+57
          1372.85380	         1.04754e+58
          1373.66010	         1.06985e+58
          1374.46640	         1.03425e+58
          1375.27270	         1.13600e+58
          1376.07900	         1.02491e+58
          1376.88530	         8.58072e+57
          1377.69160	         8.23937e+57
          1378.49790	         7.43211e+57
          1379.30420	         7.29309e+57
          1380.11050	         8.78152e+57
          1380.91680	         7.72171e+57
          1381.72310	         8.10402e+57
          1382.52940	         9.59162e+57
          1383.33570	         8.98752e+57
          1384.14200	         1.01238e+58
          1384.94830	         1.05240e+58
          1385.75460	         1.01928e+58
          1386.56090	         1.06660e+58
          1387.36720	         9.51254e+57
          1388.17350	         1.19892e+58
          1388.97980	         1.17050e+58
          1389.78610	         9.94906e+57
          1390.59240	         9.66282e+57
          1391.39870	         8.13145e+57
          1392.20500	         8.10104e+57
          1393.01130	         6.94735e+57
          1393.81760	         5.99031e+57
          1394.62390	         6.89675e+57
          1395.43020	         5.88517e+57
          1396.23650	         5.05938e+57
          1397.04280	         7.04384e+57
          1397.84910	         8.22876e+57
          1398.65540	         8.14228e+57
          1399.46170	         9.18985e+57
          1400.26800	         7.71358e+57
          1401.07430	         7.74182e+57
          1401.88060	         9.39503e+57
          1402.68690	         9.65277e+57
          1403.49320	         9.77336e+57
          1404.29950	         8.90302e+57
          1405.10580	         1.01959e+58
          1405.91210	         1.11258e+58
          1406.71840	         1.00847e+58
          1407.52470	         9.22175e+57
          1408.33100	         8.93642e+57
          1409.13730	         1.06559e+58
          1409.94360	         1.11726e+58
          1410.74990	         1.09856e+58
          1411.55620	         1.02705e+58
          1412.36250	         8.51010e+57
          1413.16880	         8.49748e+57
          1413.97510	         1.00495e+58
          1414.78140	         1.03731e+58
          1415.58770	         1.20698e+58
          1416.39400	         1.16900e+58
          1417.20030	         9.46494e+57
          1418.00660	         9.30335e+57
          1418.81290	         9.50148e+57
          1419.61920	         1.04471e+58
          1420.42550	         1.25967e+58
          1421.23180	         1.30422e+58
          1422.03810	         1.34650e+58
          1422.84440	         1.19501e+58
          1423.65070	         1.30133e+58
          1424.45700	         1.16613e+58
          1425.26330	         9.06476e+57
          1426.06960	         8.88817e+57
          1426.87590	         1.03212e+58
          1427.68220	         9.85484e+57
          1428.48850	         9.60103e+57
          1429.29480	         9.92917e+57
          1430.10110	         1.07261e+58
          1430.90740	         8.51113e+57
          1431.71370	         8.26201e+57
          1432.52000	         9.35331e+57
          1433.32630	         8.22245e+57
          1434.13260	         7.94291e+57
          1434.93890	         8.17113e+57
          1435.74520	         9.63484e+57
          1436.55150	         9.98631e+57
          1437.35780	         9.92128e+57
          1438.16410	         1.06618e+58
          1438.97040	         9.80899e+57
          1439.77670	         9.25131e+57
          1440.58300	         9.09268e+57
          1441.38930	         9.04131e+57
          1442.19560	         9.36503e+57
          1443.00190	         9.86334e+57
          1443.80820	         1.06656e+58
          1444.61450	         1.10812e+58
          1445.42080	         1.01503e+58
          1446.22710	         9.62205e+57
          1447.03340	         9.15785e+57
          1447.83970	         9.48147e+57
          1448.64600	         1.07792e+58
          1449.45230	         1.13328e+58
          1450.25860	         1.06492e+58
          1451.06490	         8.20838e+57
          1451.87120	         6.75667e+57
          1452.67750	         7.66435e+57
          1453.48380	         8.86143e+57
          1454.29010	         8.58012e+57
          1455.09640	         7.72410e+57
          1455.90270	         8.69405e+57
          1456.70900	         9.33664e+57
          1457.51530	         1.03257e+58
          1458.32160	         1.25445e+58
          1459.12790	         1.20379e+58
          1459.93420	         1.02514e+58
          1460.74050	         7.97408e+57
          1461.54680	         7.37562e+57
          1462.35310	         7.63629e+57
          1463.15940	         9.04171e+57
          1463.96570	         1.06939e+58
          1464.77200	         1.05953e+58
          1465.57830	         9.69612e+57
          1466.38460	         1.03310e+58
          1467.19090	         8.81203e+57
          1467.99720	         8.58181e+57
          1468.80350	         8.38556e+57
          1469.60980	         8.71424e+57
          1470.41610	         1.00032e+58
          1471.22240	         9.10031e+57
          1472.02870	         9.26300e+57
          1472.83500	         1.00808e+58
          1473.64130	         1.05215e+58
          1474.44760	         1.03274e+58
          1475.25390	         8.86882e+57
          1476.06020	         8.01133e+57
          1476.86650	         8.13266e+57
          1477.67280	         8.09871e+57
          1478.47910	         7.45360e+57
          1479.28540	         7.04869e+57
          1480.09170	         8.57515e+57
          1480.89800	         9.69275e+57
          1481.70430	         1.02386e+58
          1482.51060	         9.12148e+57
          1483.31690	         8.09186e+57
          1484.12320	         8.17800e+57
          1484.92950	         7.80886e+57
          1485.73580	         8.80422e+57
          1486.54210	         8.78006e+57
          1487.34840	         8.96574e+57
          1488.15470	         8.92602e+57
          1488.96100	         8.33775e+57
          1489.76730	         9.33983e+57
