#sample_79_stacked_spectrum_rest_UV-bands_median_H-alpha_noDC.txt
#median Lum: 1.67298e+42
#Rest-frame wavelength (A) | Luminosity (erg/s/A)
#
          1110.00000	         0.00000e+00
          1110.80630	        -2.75415e+59
          1111.61260	         1.70987e+58
          1112.41890	         2.23624e+59
          1113.22520	        -2.01262e+58
          1114.03150	        -1.80216e+59
          1114.83780	        -5.80938e+58
          1115.64410	         9.31608e+58
          1116.45040	         6.59567e+58
          1117.25670	        -7.64449e+58
          1118.06300	         1.21687e+59
          1118.86930	        -9.30274e+56
          1119.67560	         6.35949e+58
          1120.48190	        -3.09882e+58
          1121.28820	        -1.46581e+59
          1122.09450	        -2.28422e+58
          1122.90080	        -9.78000e+57
          1123.70710	        -1.19468e+58
          1124.51340	         7.78275e+58
          1125.31970	         4.52071e+58
          1126.12600	        -5.18014e+57
          1126.93230	        -7.56189e+58
          1127.73860	        -5.04353e+58
          1128.54490	        -6.13072e+57
          1129.35120	         3.69612e+57
          1130.15750	        -1.31389e+58
          1130.96380	        -6.58816e+58
          1131.77010	         4.90579e+58
          1132.57640	         5.01570e+58
          1133.38270	         4.05729e+58
          1134.18900	         2.48885e+58
          1134.99530	         2.00890e+58
          1135.80160	         3.12579e+58
          1136.60790	         3.19554e+57
          1137.41420	        -6.11168e+57
          1138.22050	         4.28536e+58
          1139.02680	         4.40318e+58
          1139.83310	         2.62670e+58
          1140.63940	         3.22704e+58
          1141.44570	        -2.19811e+58
          1142.25200	        -2.56298e+57
          1143.05830	         1.72984e+58
          1143.86460	         4.06676e+58
          1144.67090	         3.48192e+58
          1145.47720	         7.60105e+57
          1146.28350	         1.89275e+58
          1147.08980	         1.50870e+58
          1147.89610	         8.14376e+57
          1148.70240	         1.67780e+58
          1149.50870	         2.32750e+58
          1150.31500	         7.56762e+57
          1151.12130	         1.58202e+56
          1151.92760	        -1.27108e+58
          1152.73390	         7.61961e+57
          1153.54020	         5.41166e+57
          1154.34650	         1.89970e+58
          1155.15280	         2.18229e+58
          1155.95910	         1.09084e+58
          1156.76540	         5.37903e+57
          1157.57170	         1.52643e+58
          1158.37800	         7.46164e+57
          1159.18430	         9.52077e+56
          1159.99060	         1.15680e+58
          1160.79690	         9.91419e+57
          1161.60320	         1.23718e+58
          1162.40950	         1.92844e+58
          1163.21580	         8.98617e+57
          1164.02210	         1.36833e+58
          1164.82840	         1.32531e+58
          1165.63470	         1.90497e+58
          1166.44100	         3.38512e+58
          1167.24730	         1.96616e+58
          1168.05360	         7.17903e+57
          1168.85990	         8.94221e+57
          1169.66620	         9.67020e+57
          1170.47250	         1.41579e+58
          1171.27880	         1.67927e+58
          1172.08510	         2.01000e+58
          1172.89140	         1.63533e+58
          1173.69770	         1.66916e+58
          1174.50400	         2.27917e+58
          1175.31030	         1.98826e+58
          1176.11660	         1.78897e+58
          1176.92290	         1.74560e+58
          1177.72920	         1.17386e+58
          1178.53550	         7.72804e+57
          1179.34180	         2.92674e+57
          1180.14810	         4.85330e+57
          1180.95440	         7.10341e+57
          1181.76070	         6.49848e+57
          1182.56700	         5.31894e+57
          1183.37330	         7.05427e+57
          1184.17960	         1.13105e+58
          1184.98590	         9.27089e+57
          1185.79220	         8.86649e+57
          1186.59850	         1.65544e+58
          1187.40480	         1.04170e+58
          1188.21110	         1.69590e+58
          1189.01740	         1.25658e+58
          1189.82370	         9.54893e+57
          1190.63000	         1.14054e+58
          1191.43630	         9.90354e+57
          1192.24260	         2.35193e+57
          1193.04890	         7.30212e+57
          1193.85520	         9.81432e+57
          1194.66150	         4.66433e+57
          1195.46780	         1.04004e+58
          1196.27410	         1.59717e+58
          1197.08040	         1.31653e+58
          1197.88670	         1.56935e+58
          1198.69300	         1.57261e+58
          1199.49930	         1.37951e+58
          1200.30560	         1.20290e+58
          1201.11190	         1.06194e+58
          1201.91820	         1.00053e+58
          1202.72450	         6.38036e+57
          1203.53080	         1.47395e+58
          1204.33710	         8.02508e+57
          1205.14340	         5.63786e+57
          1205.94970	         3.93338e+57
          1206.75600	         2.38945e+57
          1207.56230	         7.69995e+57
          1208.36860	         1.02451e+58
          1209.17490	         5.49231e+57
          1209.98120	         8.45252e+57
          1210.78750	         8.82637e+57
          1211.59380	         1.10731e+58
          1212.40010	         1.73879e+58
          1213.20640	         1.87588e+58
          1214.01270	         1.77617e+58
          1214.81900	         2.35135e+58
          1215.62530	         4.79379e+58
          1216.43160	         9.44400e+58
          1217.23790	         1.56786e+59
          1218.04420	         1.14224e+59
          1218.85050	         8.41504e+58
          1219.65680	         5.70095e+58
          1220.46310	         3.75893e+58
          1221.26940	         2.54751e+58
          1222.07570	         1.30407e+58
          1222.88200	         1.09019e+58
          1223.68830	         6.58649e+57
          1224.49460	         5.90046e+57
          1225.30090	         5.28361e+57
          1226.10720	         6.01993e+57
          1226.91350	         7.57807e+57
          1227.71980	         1.04798e+58
          1228.52610	         1.40343e+58
          1229.33240	         1.28952e+58
          1230.13870	         6.69828e+57
          1230.94500	         7.28520e+57
          1231.75130	         7.04021e+57
          1232.55760	         9.10646e+57
          1233.36390	         1.12180e+58
          1234.17020	         1.19522e+58
          1234.97650	         1.10332e+58
          1235.78280	         8.81025e+57
          1236.58910	         7.92984e+57
          1237.39540	         9.51723e+57
          1238.20170	         7.75793e+57
          1239.00800	         1.08902e+58
          1239.81430	         1.36361e+58
          1240.62060	         1.19077e+58
          1241.42690	         1.23555e+58
          1242.23320	         1.27184e+58
          1243.03950	         9.95615e+57
          1243.84580	         8.33005e+57
          1244.65210	         1.01278e+58
          1245.45840	         1.21653e+58
          1246.26470	         1.10195e+58
          1247.07100	         8.66141e+57
          1247.87730	         4.86839e+57
          1248.68360	         4.49585e+57
          1249.48990	         8.65534e+57
          1250.29620	         1.04108e+58
          1251.10250	         7.80109e+57
          1251.90880	         4.77635e+57
          1252.71510	         5.78375e+57
          1253.52140	         4.55756e+57
          1254.32770	         5.88211e+57
          1255.13400	         1.11057e+58
          1255.94030	         1.19622e+58
          1256.74660	         1.10161e+58
          1257.55290	         1.12811e+58
          1258.35920	         7.55108e+57
          1259.16550	         3.30905e+57
          1259.97180	         5.24567e+57
          1260.77810	         7.38816e+57
          1261.58440	         6.91880e+57
          1262.39070	         6.35019e+57
          1263.19700	         7.86647e+57
          1264.00330	         8.52439e+57
          1264.80960	         8.54899e+57
          1265.61590	         1.09835e+58
          1266.42220	         1.17349e+58
          1267.22850	         1.25948e+58
          1268.03480	         1.44242e+58
          1268.84110	         1.45259e+58
          1269.64740	         1.48976e+58
          1270.45370	         1.39141e+58
          1271.26000	         1.19263e+58
          1272.06630	         1.29938e+58
          1272.87260	         1.28653e+58
          1273.67890	         1.25333e+58
          1274.48520	         1.26192e+58
          1275.29150	         1.28092e+58
          1276.09780	         1.04933e+58
          1276.90410	         1.38457e+58
          1277.71040	         1.46161e+58
          1278.51670	         1.29340e+58
          1279.32300	         1.37968e+58
          1280.12930	         1.38353e+58
          1280.93560	         1.13946e+58
          1281.74190	         1.01519e+58
          1282.54820	         1.29808e+58
          1283.35450	         1.15758e+58
          1284.16080	         8.81927e+57
          1284.96710	         1.12284e+58
          1285.77340	         9.51771e+57
          1286.57970	         8.75257e+57
          1287.38600	         1.36551e+58
          1288.19230	         1.69742e+58
          1288.99860	         1.42002e+58
          1289.80490	         1.06800e+58
          1290.61120	         1.20761e+58
          1291.41750	         1.33063e+58
          1292.22380	         1.29359e+58
          1293.03010	         1.31525e+58
          1293.83640	         1.24971e+58
          1294.64270	         1.03592e+58
          1295.44900	         6.69368e+57
          1296.25530	         7.01806e+57
          1297.06160	         1.11201e+58
          1297.86790	         1.09212e+58
          1298.67420	         8.02932e+57
          1299.48050	         7.41390e+57
          1300.28680	         8.93835e+57
          1301.09310	         9.71047e+57
          1301.89940	         5.17683e+57
          1302.70570	         6.59141e+57
          1303.51200	         8.78309e+57
          1304.31830	         9.60170e+57
          1305.12460	         1.08339e+58
          1305.93090	         1.16540e+58
          1306.73720	         1.19843e+58
          1307.54350	         1.27869e+58
          1308.34980	         1.44314e+58
          1309.15610	         1.46148e+58
          1309.96240	         1.55351e+58
          1310.76870	         1.47663e+58
          1311.57500	         1.11260e+58
          1312.38130	         1.07466e+58
          1313.18760	         1.23569e+58
          1313.99390	         1.40829e+58
          1314.80020	         1.62362e+58
          1315.60650	         1.62855e+58
          1316.41280	         1.29663e+58
          1317.21910	         1.26066e+58
          1318.02540	         1.29972e+58
          1318.83170	         1.42622e+58
          1319.63800	         1.33341e+58
          1320.44430	         1.16248e+58
          1321.25060	         1.23616e+58
          1322.05690	         1.15794e+58
          1322.86320	         1.19380e+58
          1323.66950	         1.13679e+58
          1324.47580	         9.84055e+57
          1325.28210	         8.57394e+57
          1326.08840	         9.51647e+57
          1326.89470	         1.06241e+58
          1327.70100	         1.06518e+58
          1328.50730	         7.46145e+57
          1329.31360	         7.75247e+57
          1330.11990	         9.96733e+57
          1330.92620	         1.02276e+58
          1331.73250	         1.05253e+58
          1332.53880	         8.77160e+57
          1333.34510	         7.05480e+57
          1334.15140	         7.88801e+57
          1334.95770	         8.66547e+57
          1335.76400	         1.03087e+58
          1336.57030	         1.15304e+58
          1337.37660	         1.08298e+58
          1338.18290	         1.01799e+58
          1338.98920	         1.09487e+58
          1339.79550	         9.97794e+57
          1340.60180	         1.12536e+58
          1341.40810	         1.38040e+58
          1342.21440	         1.17503e+58
          1343.02070	         1.12963e+58
          1343.82700	         1.27650e+58
          1344.63330	         1.30287e+58
          1345.43960	         1.27021e+58
          1346.24590	         1.04447e+58
          1347.05220	         9.98949e+57
          1347.85850	         1.02607e+58
          1348.66480	         1.19477e+58
          1349.47110	         1.25824e+58
          1350.27740	         1.01947e+58
          1351.08370	         1.09526e+58
          1351.89000	         1.24763e+58
          1352.69630	         1.13535e+58
          1353.50260	         1.13390e+58
          1354.30890	         1.18629e+58
          1355.11520	         1.23346e+58
          1355.92150	         1.15525e+58
          1356.72780	         1.09403e+58
          1357.53410	         9.78983e+57
          1358.34040	         9.61094e+57
          1359.14670	         9.74075e+57
          1359.95300	         1.15760e+58
          1360.75930	         1.17450e+58
          1361.56560	         1.07009e+58
          1362.37190	         1.10631e+58
          1363.17820	         1.05752e+58
          1363.98450	         1.09624e+58
          1364.79080	         1.21815e+58
          1365.59710	         1.27148e+58
          1366.40340	         1.22153e+58
          1367.20970	         1.08171e+58
          1368.01600	         1.03261e+58
          1368.82230	         9.68644e+57
          1369.62860	         1.06142e+58
          1370.43490	         1.02403e+58
          1371.24120	         1.06627e+58
          1372.04750	         1.01546e+58
          1372.85380	         1.14650e+58
          1373.66010	         1.13590e+58
          1374.46640	         1.06299e+58
          1375.27270	         1.13885e+58
          1376.07900	         1.03931e+58
          1376.88530	         8.76157e+57
          1377.69160	         8.70412e+57
          1378.49790	         8.03669e+57
          1379.30420	         7.81132e+57
          1380.11050	         9.46724e+57
          1380.91680	         8.03025e+57
          1381.72310	         7.59504e+57
          1382.52940	         8.30626e+57
          1383.33570	         8.15307e+57
          1384.14200	         8.82635e+57
          1384.94830	         1.04287e+58
          1385.75460	         1.03716e+58
          1386.56090	         1.12558e+58
          1387.36720	         1.05405e+58
          1388.17350	         1.18304e+58
          1388.97980	         1.05311e+58
          1389.78610	         9.31995e+57
          1390.59240	         8.52602e+57
          1391.39870	         7.56804e+57
          1392.20500	         1.01466e+58
          1393.01130	         8.73340e+57
          1393.81760	         7.28528e+57
          1394.62390	         6.14660e+57
          1395.43020	         5.96041e+57
          1396.23650	         6.47716e+57
          1397.04280	         7.37435e+57
          1397.84910	         8.12597e+57
          1398.65540	         7.94479e+57
          1399.46170	         9.27798e+57
          1400.26800	         8.76567e+57
          1401.07430	         7.68467e+57
          1401.88060	         7.71350e+57
          1402.68690	         7.96798e+57
          1403.49320	         8.66777e+57
          1404.29950	         9.43847e+57
          1405.10580	         1.13894e+58
          1405.91210	         1.16241e+58
          1406.71840	         1.09942e+58
          1407.52470	         1.12075e+58
          1408.33100	         9.17716e+57
          1409.13730	         9.82788e+57
          1409.94360	         1.07929e+58
          1410.74990	         1.14898e+58
          1411.55620	         9.86203e+57
          1412.36250	         8.41850e+57
          1413.16880	         8.67281e+57
          1413.97510	         7.86129e+57
          1414.78140	         8.10850e+57
          1415.58770	         9.59263e+57
          1416.39400	         1.07196e+58
          1417.20030	         1.04297e+58
          1418.00660	         9.39572e+57
          1418.81290	         9.85232e+57
          1419.61920	         1.11628e+58
          1420.42550	         1.28476e+58
          1421.23180	         1.43125e+58
          1422.03810	         1.18472e+58
          1422.84440	         1.08729e+58
          1423.65070	         1.30590e+58
          1424.45700	         1.19553e+58
          1425.26330	         8.68312e+57
          1426.06960	         8.72117e+57
          1426.87590	         9.62318e+57
          1427.68220	         9.57531e+57
          1428.48850	         1.07734e+58
          1429.29480	         1.02550e+58
          1430.10110	         8.86439e+57
          1430.90740	         8.27557e+57
          1431.71370	         8.01884e+57
          1432.52000	         8.20610e+57
          1433.32630	         7.91838e+57
          1434.13260	         8.20302e+57
          1434.93890	         9.51827e+57
          1435.74520	         1.01352e+58
          1436.55150	         1.02078e+58
          1437.35780	         8.57113e+57
          1438.16410	         8.40653e+57
          1438.97040	         9.31378e+57
          1439.77670	         9.48060e+57
          1440.58300	         9.45572e+57
          1441.38930	         8.99664e+57
          1442.19560	         9.54710e+57
          1443.00190	         1.01355e+58
          1443.80820	         1.05774e+58
          1444.61450	         9.70768e+57
          1445.42080	         9.66964e+57
          1446.22710	         1.05740e+58
          1447.03340	         1.03820e+58
          1447.83970	         1.14992e+58
          1448.64600	         1.13277e+58
          1449.45230	         9.59411e+57
          1450.25860	         9.41678e+57
          1451.06490	         8.62230e+57
          1451.87120	         8.18251e+57
          1452.67750	         7.27853e+57
          1453.48380	         8.03804e+57
          1454.29010	         7.53582e+57
          1455.09640	         7.54596e+57
          1455.90270	         8.27500e+57
          1456.70900	         8.24905e+57
          1457.51530	         9.03786e+57
          1458.32160	         1.17105e+58
          1459.12790	         1.15532e+58
          1459.93420	         9.97666e+57
          1460.74050	         8.23598e+57
          1461.54680	         8.69251e+57
          1462.35310	         7.59941e+57
          1463.15940	         9.25878e+57
          1463.96570	         1.10756e+58
          1464.77200	         1.11910e+58
          1465.57830	         1.04758e+58
          1466.38460	         9.40903e+57
          1467.19090	         9.05787e+57
          1467.99720	         9.07876e+57
          1468.80350	         1.04170e+58
          1469.60980	         1.05660e+58
          1470.41610	         1.11823e+58
          1471.22240	         9.97299e+57
          1472.02870	         9.80429e+57
          1472.83500	         1.04024e+58
          1473.64130	         9.95729e+57
          1474.44760	         9.32822e+57
          1475.25390	         8.28586e+57
          1476.06020	         7.13757e+57
          1476.86650	         7.66117e+57
          1477.67280	         8.00686e+57
          1478.47910	         6.61273e+57
          1479.28540	         6.81265e+57
          1480.09170	         7.96211e+57
          1480.89800	         8.83775e+57
          1481.70430	         8.48865e+57
          1482.51060	         8.00491e+57
          1483.31690	         8.55007e+57
          1484.12320	         8.50873e+57
          1484.92950	         6.98802e+57
          1485.73580	         8.39681e+57
          1486.54210	         8.97711e+57
          1487.34840	         8.36345e+57
          1488.15470	         8.22760e+57
          1488.96100	         8.68219e+57
          1489.76730	         8.37216e+57
