#sample_298_stacked_spectrum_rest_UV-bands_median_H-alpha_noDC.txt
#median Lum: 1.68731e+42
#Rest-frame wavelength (A) | Luminosity (erg/s/A)
#
          1110.00000	         0.00000e+00
          1110.80630	         2.65805e+59
          1111.61260	         3.24414e+59
          1112.41890	         2.61138e+59
          1113.22520	         2.19070e+59
          1114.03150	        -7.90261e+58
          1114.83780	        -5.72302e+58
          1115.64410	         1.43928e+59
          1116.45040	         1.58742e+59
          1117.25670	        -2.80020e+58
          1118.06300	         3.07173e+59
          1118.86930	         1.82787e+58
          1119.67560	         9.85362e+58
          1120.48190	         2.46857e+57
          1121.28820	        -6.98844e+58
          1122.09450	         4.64306e+58
          1122.90080	         5.80979e+58
          1123.70710	         4.38645e+58
          1124.51340	         8.51876e+58
          1125.31970	         8.70269e+58
          1126.12600	         2.85204e+58
          1126.93230	        -5.43652e+58
          1127.73860	        -6.40475e+58
          1128.54490	        -4.48980e+58
          1129.35120	         5.51069e+57
          1130.15750	         2.80233e+58
          1130.96380	        -2.69600e+58
          1131.77010	         3.72857e+58
          1132.57640	         4.51733e+58
          1133.38270	         4.49730e+58
          1134.18900	         4.64890e+58
          1134.99530	         2.66587e+58
          1135.80160	         4.47429e+58
          1136.60790	         2.53407e+58
          1137.41420	         1.45219e+58
          1138.22050	         3.49888e+58
          1139.02680	         2.65124e+58
          1139.83310	         2.47186e+58
          1140.63940	        -6.09949e+57
          1141.44570	        -2.15422e+58
          1142.25200	        -4.37440e+57
          1143.05830	         1.52130e+58
          1143.86460	         2.47147e+58
          1144.67090	         1.85241e+58
          1145.47720	         1.52779e+58
          1146.28350	         1.93857e+58
          1147.08980	         9.31238e+57
          1147.89610	         1.38506e+58
          1148.70240	         1.61611e+58
          1149.50870	         2.22782e+58
          1150.31500	         5.19509e+57
          1151.12130	        -9.80830e+57
          1151.92760	        -7.83061e+56
          1152.73390	        -1.44499e+57
          1153.54020	        -8.84105e+57
          1154.34650	         1.70619e+58
          1155.15280	         2.28628e+58
          1155.95910	         8.74967e+57
          1156.76540	         8.79119e+56
          1157.57170	        -2.04548e+57
          1158.37800	        -1.10131e+57
          1159.18430	        -4.51447e+57
          1159.99060	         1.13009e+58
          1160.79690	         9.37780e+57
          1161.60320	         1.05803e+58
          1162.40950	         7.16846e+57
          1163.21580	         9.00914e+57
          1164.02210	         9.96498e+57
          1164.82840	         1.16866e+58
          1165.63470	         2.38288e+58
          1166.44100	         3.42334e+58
          1167.24730	         2.67794e+58
          1168.05360	         9.95246e+57
          1168.85990	         7.12444e+57
          1169.66620	         1.62965e+58
          1170.47250	         1.01960e+58
          1171.27880	         7.94763e+57
          1172.08510	         1.46852e+58
          1172.89140	         1.24180e+58
          1173.69770	         7.73258e+57
          1174.50400	         1.04740e+58
          1175.31030	         1.51243e+58
          1176.11660	         1.63909e+58
          1176.92290	         1.47088e+58
          1177.72920	         1.34183e+58
          1178.53550	         6.83135e+57
          1179.34180	         1.34885e+57
          1180.14810	         3.54508e+57
          1180.95440	         7.02790e+57
          1181.76070	         6.89700e+57
          1182.56700	         6.44451e+57
          1183.37330	         6.35288e+57
          1184.17960	         1.64333e+58
          1184.98590	         1.45724e+58
          1185.79220	         6.39079e+57
          1186.59850	         9.43074e+57
          1187.40480	         1.02738e+58
          1188.21110	         1.46872e+58
          1189.01740	         1.24735e+58
          1189.82370	         1.30167e+58
          1190.63000	         1.51965e+58
          1191.43630	         1.32503e+58
          1192.24260	         1.01952e+58
          1193.04890	         1.17246e+58
          1193.85520	         7.52708e+57
          1194.66150	         9.41166e+57
          1195.46780	         1.49138e+58
          1196.27410	         1.53062e+58
          1197.08040	         8.73085e+57
          1197.88670	         1.27184e+58
          1198.69300	         1.37952e+58
          1199.49930	         1.43004e+58
          1200.30560	         1.11104e+58
          1201.11190	         1.05777e+58
          1201.91820	         1.08144e+58
          1202.72450	         9.10895e+57
          1203.53080	         1.66407e+58
          1204.33710	         9.15768e+57
          1205.14340	         8.78855e+57
          1205.94970	         6.97089e+57
          1206.75600	         7.98366e+57
          1207.56230	         6.12486e+57
          1208.36860	         8.14459e+57
          1209.17490	         2.05516e+57
          1209.98120	         1.16404e+57
          1210.78750	         8.67362e+57
          1211.59380	         1.08032e+58
          1212.40010	         1.33028e+58
          1213.20640	         1.89225e+58
          1214.01270	         1.93006e+58
          1214.81900	         2.22092e+58
          1215.62530	         4.47694e+58
          1216.43160	         9.22803e+58
          1217.23790	         1.51911e+59
          1218.04420	         1.12506e+59
          1218.85050	         8.71366e+58
          1219.65680	         5.96098e+58
          1220.46310	         2.97097e+58
          1221.26940	         2.14801e+58
          1222.07570	         1.39798e+58
          1222.88200	         1.15061e+58
          1223.68830	         1.37662e+58
          1224.49460	         1.01832e+58
          1225.30090	         6.13845e+57
          1226.10720	         8.90796e+57
          1226.91350	         9.84447e+57
          1227.71980	         8.84714e+57
          1228.52610	         1.13382e+58
          1229.33240	         6.74506e+57
          1230.13870	         1.05764e+58
          1230.94500	         9.06783e+57
          1231.75130	         6.62880e+57
          1232.55760	         1.09839e+58
          1233.36390	         9.72665e+57
          1234.17020	         1.06454e+58
          1234.97650	         9.21765e+57
          1235.78280	         8.05156e+57
          1236.58910	         8.43829e+57
          1237.39540	         1.01370e+58
          1238.20170	         1.04791e+58
          1239.00800	         1.21863e+58
          1239.81430	         1.46060e+58
          1240.62060	         1.05374e+58
          1241.42690	         9.23255e+57
          1242.23320	         1.16992e+58
          1243.03950	         9.83799e+57
          1243.84580	         6.76619e+57
          1244.65210	         6.89585e+57
          1245.45840	         7.68998e+57
          1246.26470	         8.19106e+57
          1247.07100	         7.59856e+57
          1247.87730	         5.79100e+57
          1248.68360	         4.77066e+57
          1249.48990	         6.78612e+57
          1250.29620	         8.51744e+57
          1251.10250	         1.01548e+58
          1251.90880	         7.42162e+57
          1252.71510	         5.45067e+57
          1253.52140	         7.91092e+57
          1254.32770	         9.79483e+57
          1255.13400	         1.18528e+58
          1255.94030	         1.10388e+58
          1256.74660	         8.83599e+57
          1257.55290	         1.01298e+58
          1258.35920	         1.06053e+58
          1259.16550	         5.73550e+57
          1259.97180	         5.39958e+57
          1260.77810	         9.39223e+57
          1261.58440	         1.10970e+58
          1262.39070	         8.82410e+57
          1263.19700	         8.06320e+57
          1264.00330	         9.05857e+57
          1264.80960	         1.12211e+58
          1265.61590	         1.43399e+58
          1266.42220	         1.35042e+58
          1267.22850	         1.11965e+58
          1268.03480	         1.30039e+58
          1268.84110	         1.38609e+58
          1269.64740	         1.18005e+58
          1270.45370	         1.24412e+58
          1271.26000	         1.29556e+58
          1272.06630	         1.32934e+58
          1272.87260	         1.21580e+58
          1273.67890	         1.38582e+58
          1274.48520	         1.18166e+58
          1275.29150	         1.09876e+58
          1276.09780	         1.27088e+58
          1276.90410	         1.63217e+58
          1277.71040	         1.44173e+58
          1278.51670	         1.30991e+58
          1279.32300	         1.40932e+58
          1280.12930	         1.21871e+58
          1280.93560	         1.06930e+58
          1281.74190	         1.13841e+58
          1282.54820	         1.13482e+58
          1283.35450	         1.14460e+58
          1284.16080	         1.40957e+58
          1284.96710	         1.19019e+58
          1285.77340	         9.16876e+57
          1286.57970	         9.49495e+57
          1287.38600	         1.46180e+58
          1288.19230	         1.88808e+58
          1288.99860	         1.67947e+58
          1289.80490	         1.24957e+58
          1290.61120	         1.35529e+58
          1291.41750	         1.52542e+58
          1292.22380	         1.30426e+58
          1293.03010	         1.15732e+58
          1293.83640	         1.11919e+58
          1294.64270	         9.34833e+57
          1295.44900	         6.77918e+57
          1296.25530	         7.26369e+57
          1297.06160	         8.20610e+57
          1297.86790	         9.19945e+57
          1298.67420	         8.83722e+57
          1299.48050	         1.06565e+58
          1300.28680	         1.13941e+58
          1301.09310	         8.18432e+57
          1301.89940	         5.93959e+57
          1302.70570	         7.45948e+57
          1303.51200	         7.12116e+57
          1304.31830	         9.38488e+57
          1305.12460	         1.10570e+58
          1305.93090	         1.06738e+58
          1306.73720	         1.13894e+58
          1307.54350	         1.23967e+58
          1308.34980	         1.29943e+58
          1309.15610	         1.37198e+58
          1309.96240	         1.45242e+58
          1310.76870	         1.35481e+58
          1311.57500	         1.24448e+58
          1312.38130	         1.11934e+58
          1313.18760	         1.27242e+58
          1313.99390	         1.54966e+58
          1314.80020	         1.53489e+58
          1315.60650	         1.38578e+58
          1316.41280	         1.36754e+58
          1317.21910	         1.11269e+58
          1318.02540	         1.12568e+58
          1318.83170	         1.26582e+58
          1319.63800	         1.24144e+58
          1320.44430	         1.17654e+58
          1321.25060	         1.14975e+58
          1322.05690	         1.09177e+58
          1322.86320	         1.15043e+58
          1323.66950	         1.04797e+58
          1324.47580	         8.69112e+57
          1325.28210	         1.08706e+58
          1326.08840	         1.34733e+58
          1326.89470	         1.29650e+58
          1327.70100	         1.08215e+58
          1328.50730	         7.71151e+57
          1329.31360	         9.13769e+57
          1330.11990	         1.09895e+58
          1330.92620	         8.94915e+57
          1331.73250	         1.00138e+58
          1332.53880	         9.66125e+57
          1333.34510	         8.14039e+57
          1334.15140	         8.35788e+57
          1334.95770	         9.24406e+57
          1335.76400	         1.06486e+58
          1336.57030	         1.12172e+58
          1337.37660	         1.10950e+58
          1338.18290	         1.09862e+58
          1338.98920	         1.05820e+58
          1339.79550	         1.13512e+58
          1340.60180	         1.27249e+58
          1341.40810	         1.29407e+58
          1342.21440	         1.21041e+58
          1343.02070	         1.19331e+58
          1343.82700	         1.32722e+58
          1344.63330	         1.48729e+58
          1345.43960	         1.41394e+58
          1346.24590	         1.17777e+58
          1347.05220	         1.09525e+58
          1347.85850	         1.04823e+58
          1348.66480	         1.12652e+58
          1349.47110	         1.05471e+58
          1350.27740	         1.02906e+58
          1351.08370	         1.25844e+58
          1351.89000	         1.22793e+58
          1352.69630	         1.16414e+58
          1353.50260	         1.12233e+58
          1354.30890	         1.17535e+58
          1355.11520	         1.18841e+58
          1355.92150	         1.09325e+58
          1356.72780	         9.35748e+57
          1357.53410	         9.28655e+57
          1358.34040	         1.04458e+58
          1359.14670	         1.06673e+58
          1359.95300	         1.10942e+58
          1360.75930	         1.21317e+58
          1361.56560	         1.15779e+58
          1362.37190	         1.14382e+58
          1363.17820	         1.13389e+58
          1363.98450	         1.35115e+58
          1364.79080	         1.33687e+58
          1365.59710	         1.10028e+58
          1366.40340	         1.08756e+58
          1367.20970	         1.15882e+58
          1368.01600	         1.10576e+58
          1368.82230	         1.12118e+58
          1369.62860	         1.19880e+58
          1370.43490	         1.00479e+58
          1371.24120	         9.12918e+57
          1372.04750	         8.27723e+57
          1372.85380	         9.44216e+57
          1373.66010	         1.08390e+58
          1374.46640	         1.14137e+58
          1375.27270	         1.12519e+58
          1376.07900	         9.64135e+57
          1376.88530	         8.38031e+57
          1377.69160	         7.94979e+57
          1378.49790	         7.23223e+57
          1379.30420	         7.44307e+57
          1380.11050	         9.59142e+57
          1380.91680	         8.50568e+57
          1381.72310	         6.60094e+57
          1382.52940	         6.99345e+57
          1383.33570	         7.79937e+57
          1384.14200	         1.03755e+58
          1384.94830	         9.87334e+57
          1385.75460	         9.73585e+57
          1386.56090	         1.19843e+58
          1387.36720	         1.10720e+58
          1388.17350	         1.29748e+58
          1388.97980	         1.29074e+58
          1389.78610	         1.02781e+58
          1390.59240	         9.34937e+57
          1391.39870	         8.04524e+57
          1392.20500	         8.03925e+57
          1393.01130	         7.27451e+57
          1393.81760	         6.89504e+57
          1394.62390	         7.23612e+57
          1395.43020	         7.32372e+57
          1396.23650	         6.51044e+57
          1397.04280	         7.20187e+57
          1397.84910	         8.02919e+57
          1398.65540	         8.42504e+57
          1399.46170	         1.01213e+58
          1400.26800	         9.17214e+57
          1401.07430	         7.71959e+57
          1401.88060	         8.05237e+57
          1402.68690	         9.91308e+57
          1403.49320	         9.65496e+57
          1404.29950	         9.21180e+57
          1405.10580	         1.05748e+58
          1405.91210	         1.04203e+58
          1406.71840	         1.03832e+58
          1407.52470	         1.01739e+58
          1408.33100	         1.09466e+58
          1409.13730	         1.21286e+58
          1409.94360	         1.11445e+58
          1410.74990	         1.05156e+58
          1411.55620	         9.70266e+57
          1412.36250	         8.95472e+57
          1413.16880	         9.68196e+57
          1413.97510	         8.76141e+57
          1414.78140	         8.28828e+57
          1415.58770	         1.06446e+58
          1416.39400	         1.11152e+58
          1417.20030	         1.08944e+58
          1418.00660	         9.59891e+57
          1418.81290	         9.62568e+57
          1419.61920	         1.10803e+58
          1420.42550	         1.35619e+58
          1421.23180	         1.42048e+58
          1422.03810	         1.08583e+58
          1422.84440	         9.98086e+57
          1423.65070	         1.15303e+58
          1424.45700	         1.11200e+58
          1425.26330	         8.56177e+57
          1426.06960	         9.51972e+57
          1426.87590	         1.04479e+58
          1427.68220	         1.08436e+58
          1428.48850	         1.05933e+58
          1429.29480	         1.07420e+58
          1430.10110	         1.07020e+58
          1430.90740	         8.94603e+57
          1431.71370	         8.39310e+57
          1432.52000	         8.44715e+57
          1433.32630	         6.58713e+57
          1434.13260	         6.21093e+57
          1434.93890	         8.08402e+57
          1435.74520	         8.69331e+57
          1436.55150	         9.34226e+57
          1437.35780	         9.78499e+57
          1438.16410	         9.82790e+57
          1438.97040	         9.80920e+57
          1439.77670	         9.20145e+57
          1440.58300	         9.06354e+57
          1441.38930	         1.01607e+58
          1442.19560	         9.70653e+57
          1443.00190	         9.40615e+57
          1443.80820	         1.07530e+58
          1444.61450	         1.02352e+58
          1445.42080	         8.71640e+57
          1446.22710	         9.58522e+57
          1447.03340	         1.01191e+58
          1447.83970	         1.00910e+58
          1448.64600	         1.05716e+58
          1449.45230	         1.07724e+58
          1450.25860	         1.09326e+58
          1451.06490	         8.83972e+57
          1451.87120	         6.74744e+57
          1452.67750	         7.23440e+57
          1453.48380	         9.70655e+57
          1454.29010	         8.02631e+57
          1455.09640	         7.70627e+57
          1455.90270	         8.20003e+57
          1456.70900	         7.14267e+57
          1457.51530	         9.39674e+57
          1458.32160	         1.26084e+58
          1459.12790	         1.27660e+58
          1459.93420	         1.02018e+58
          1460.74050	         8.17707e+57
          1461.54680	         8.15198e+57
          1462.35310	         7.19272e+57
          1463.15940	         8.90741e+57
          1463.96570	         1.01952e+58
          1464.77200	         9.87363e+57
          1465.57830	         9.20556e+57
          1466.38460	         8.89768e+57
          1467.19090	         9.26371e+57
          1467.99720	         8.95949e+57
          1468.80350	         8.69683e+57
          1469.60980	         9.19663e+57
          1470.41610	         1.05282e+58
          1471.22240	         9.58266e+57
          1472.02870	         1.00017e+58
          1472.83500	         1.11066e+58
          1473.64130	         1.06148e+58
          1474.44760	         9.88989e+57
          1475.25390	         9.38073e+57
          1476.06020	         9.74763e+57
          1476.86650	         9.46259e+57
          1477.67280	         8.89850e+57
          1478.47910	         7.19390e+57
          1479.28540	         7.47472e+57
          1480.09170	         8.55755e+57
          1480.89800	         8.15205e+57
          1481.70430	         8.93497e+57
          1482.51060	         8.53435e+57
          1483.31690	         8.03025e+57
          1484.12320	         7.84096e+57
          1484.92950	         7.87076e+57
          1485.73580	         9.74371e+57
          1486.54210	         9.77755e+57
          1487.34840	         8.86534e+57
          1488.15470	         8.85161e+57
          1488.96100	         8.55515e+57
          1489.76730	         9.81490e+57
