#sample_487_stacked_spectrum_rest_UV-bands_median_H-alpha_noDC.txt
#median Lum: 1.72731e+42
#Rest-frame wavelength (A) | Luminosity (erg/s/A)
#
          1110.00000	         0.00000e+00
          1110.80630	        -1.79221e+59
          1111.61260	         3.68621e+59
          1112.41890	         1.67560e+59
          1113.22520	         1.01789e+59
          1114.03150	        -3.80932e+57
          1114.83780	         4.84613e+58
          1115.64410	        -1.26353e+59
          1116.45040	        -1.49016e+59
          1117.25670	         3.67860e+58
          1118.06300	         8.51943e+57
          1118.86930	        -5.57625e+58
          1119.67560	         7.96348e+58
          1120.48190	        -4.44061e+58
          1121.28820	        -1.57928e+59
          1122.09450	        -5.52122e+58
          1122.90080	         2.81139e+58
          1123.70710	        -1.77665e+58
          1124.51340	         1.32832e+58
          1125.31970	        -1.38517e+58
          1126.12600	         3.65103e+58
          1126.93230	         1.46266e+58
          1127.73860	        -1.75626e+58
          1128.54490	         1.64429e+58
          1129.35120	         2.94563e+58
          1130.15750	        -1.48180e+58
          1130.96380	        -2.56198e+58
          1131.77010	         3.11675e+58
          1132.57640	         5.53133e+58
          1133.38270	         4.45084e+58
          1134.18900	         1.64828e+58
          1134.99530	         8.52300e+57
          1135.80160	         1.38215e+58
          1136.60790	        -8.78204e+56
          1137.41420	         1.74698e+58
          1138.22050	         4.91000e+58
          1139.02680	         1.72871e+58
          1139.83310	        -4.78972e+57
          1140.63940	         1.20005e+58
          1141.44570	        -7.60081e+57
          1142.25200	        -1.02925e+58
          1143.05830	         2.51264e+58
          1143.86460	         3.67469e+58
          1144.67090	         1.75516e+58
          1145.47720	         1.95754e+58
          1146.28350	         2.42441e+58
          1147.08980	         6.75100e+57
          1147.89610	         2.54542e+58
          1148.70240	         2.35258e+58
          1149.50870	         1.93764e+58
          1150.31500	         1.84009e+58
          1151.12130	         1.57977e+56
          1151.92760	         8.30051e+57
          1152.73390	         1.00239e+58
          1153.54020	         5.50479e+57
          1154.34650	         1.99787e+58
          1155.15280	         1.80122e+58
          1155.95910	         1.22180e+58
          1156.76540	         1.23735e+58
          1157.57170	        -2.74651e+57
          1158.37800	        -9.46424e+56
          1159.18430	        -4.68621e+57
          1159.99060	        -3.39678e+57
          1160.79690	         7.50961e+57
          1161.60320	         9.80710e+57
          1162.40950	         1.47593e+58
          1163.21580	         1.35155e+58
          1164.02210	         1.60664e+58
          1164.82840	         1.96536e+58
          1165.63470	         2.59203e+58
          1166.44100	         2.61674e+58
          1167.24730	         1.51031e+58
          1168.05360	         9.79982e+57
          1168.85990	         8.63158e+57
          1169.66620	         3.91193e+57
          1170.47250	         7.82480e+57
          1171.27880	         4.49680e+57
          1172.08510	        -1.33005e+57
          1172.89140	         1.31587e+57
          1173.69770	         9.93763e+57
          1174.50400	         1.05295e+58
          1175.31030	         1.72621e+58
          1176.11660	         1.87163e+58
          1176.92290	         1.65592e+58
          1177.72920	         1.21782e+58
          1178.53550	         4.20467e+57
          1179.34180	         3.97187e+57
          1180.14810	         7.03085e+57
          1180.95440	         4.80822e+57
          1181.76070	         4.67693e+57
          1182.56700	         5.36769e+57
          1183.37330	         7.69525e+57
          1184.17960	         1.06977e+58
          1184.98590	         1.27062e+58
          1185.79220	         8.43462e+57
          1186.59850	         1.10337e+58
          1187.40480	         1.31285e+58
          1188.21110	         1.85631e+58
          1189.01740	         1.13447e+58
          1189.82370	         9.09103e+57
          1190.63000	         1.08834e+58
          1191.43630	         1.00671e+58
          1192.24260	         9.06227e+57
          1193.04890	         1.14613e+58
          1193.85520	         8.93834e+57
          1194.66150	         3.10704e+57
          1195.46780	         5.47852e+57
          1196.27410	         8.54466e+57
          1197.08040	         8.82410e+57
          1197.88670	         1.57315e+58
          1198.69300	         1.70463e+58
          1199.49930	         1.55840e+58
          1200.30560	         1.32587e+58
          1201.11190	         1.43383e+58
          1201.91820	         1.00932e+58
          1202.72450	         8.65544e+57
          1203.53080	         1.49269e+58
          1204.33710	         9.91289e+57
          1205.14340	         5.68143e+57
          1205.94970	         7.70391e+57
          1206.75600	         6.43887e+57
          1207.56230	         6.27535e+57
          1208.36860	         8.12913e+57
          1209.17490	         3.94091e+57
          1209.98120	         2.57220e+57
          1210.78750	         3.85205e+57
          1211.59380	         1.22912e+58
          1212.40010	         2.05350e+58
          1213.20640	         1.97402e+58
          1214.01270	         1.85503e+58
          1214.81900	         2.37005e+58
          1215.62530	         4.50876e+58
          1216.43160	         9.00213e+58
          1217.23790	         1.48142e+59
          1218.04420	         1.13669e+59
          1218.85050	         8.61526e+58
          1219.65680	         5.92279e+58
          1220.46310	         3.32988e+58
          1221.26940	         2.36921e+58
          1222.07570	         1.71367e+58
          1222.88200	         1.21709e+58
          1223.68830	         9.64111e+57
          1224.49460	         4.90617e+57
          1225.30090	         6.23547e+57
          1226.10720	         7.40556e+57
          1226.91350	         7.69925e+57
          1227.71980	         8.58245e+57
          1228.52610	         1.07651e+58
          1229.33240	         9.88403e+57
          1230.13870	         9.78116e+57
          1230.94500	         9.95619e+57
          1231.75130	         4.45566e+57
          1232.55760	         5.69460e+57
          1233.36390	         7.31266e+57
          1234.17020	         9.47556e+57
          1234.97650	         7.44352e+57
          1235.78280	         7.30919e+57
          1236.58910	         5.37503e+57
          1237.39540	         9.73490e+57
          1238.20170	         1.03002e+58
          1239.00800	         1.16301e+58
          1239.81430	         1.28242e+58
          1240.62060	         9.93041e+57
          1241.42690	         1.07588e+58
          1242.23320	         1.29870e+58
          1243.03950	         9.28487e+57
          1243.84580	         8.84693e+57
          1244.65210	         1.04074e+58
          1245.45840	         1.23621e+58
          1246.26470	         1.09674e+58
          1247.07100	         7.31717e+57
          1247.87730	         5.79209e+57
          1248.68360	         1.64442e+57
          1249.48990	         7.02964e+57
          1250.29620	         1.00487e+58
          1251.10250	         6.48263e+57
          1251.90880	         2.82863e+57
          1252.71510	         3.08979e+57
          1253.52140	         6.13324e+57
          1254.32770	         8.70020e+57
          1255.13400	         1.47519e+58
          1255.94030	         1.37761e+58
          1256.74660	         1.23557e+58
          1257.55290	         1.40819e+58
          1258.35920	         9.03526e+57
          1259.16550	         5.87871e+57
          1259.97180	         6.37485e+57
          1260.77810	         1.02164e+58
          1261.58440	         1.20280e+58
          1262.39070	         9.32391e+57
          1263.19700	         9.48709e+57
          1264.00330	         1.00144e+58
          1264.80960	         1.29628e+58
          1265.61590	         1.39993e+58
          1266.42220	         1.27960e+58
          1267.22850	         1.04733e+58
          1268.03480	         1.24124e+58
          1268.84110	         1.39481e+58
          1269.64740	         1.16938e+58
          1270.45370	         1.26517e+58
          1271.26000	         1.24337e+58
          1272.06630	         1.31137e+58
          1272.87260	         1.39669e+58
          1273.67890	         1.40716e+58
          1274.48520	         1.20262e+58
          1275.29150	         1.17479e+58
          1276.09780	         1.08389e+58
          1276.90410	         1.40907e+58
          1277.71040	         1.46967e+58
          1278.51670	         1.28499e+58
          1279.32300	         1.41935e+58
          1280.12930	         1.31861e+58
          1280.93560	         1.18349e+58
          1281.74190	         1.25113e+58
          1282.54820	         1.35464e+58
          1283.35450	         1.07330e+58
          1284.16080	         1.02884e+58
          1284.96710	         1.36862e+58
          1285.77340	         1.01178e+58
          1286.57970	         8.08690e+57
          1287.38600	         1.52656e+58
          1288.19230	         1.93946e+58
          1288.99860	         1.65109e+58
          1289.80490	         1.00300e+58
          1290.61120	         1.30121e+58
          1291.41750	         1.55173e+58
          1292.22380	         1.27059e+58
          1293.03010	         1.12205e+58
          1293.83640	         1.23688e+58
          1294.64270	         9.89485e+57
          1295.44900	         7.10308e+57
          1296.25530	         6.84582e+57
          1297.06160	         7.97013e+57
          1297.86790	         9.99172e+57
          1298.67420	         9.18770e+57
          1299.48050	         8.88009e+57
          1300.28680	         9.71935e+57
          1301.09310	         8.03006e+57
          1301.89940	         3.92418e+57
          1302.70570	         5.57423e+57
          1303.51200	         6.49999e+57
          1304.31830	         8.92244e+57
          1305.12460	         1.08666e+58
          1305.93090	         1.05644e+58
          1306.73720	         1.18072e+58
          1307.54350	         1.45586e+58
          1308.34980	         1.45579e+58
          1309.15610	         1.46820e+58
          1309.96240	         1.50562e+58
          1310.76870	         1.15798e+58
          1311.57500	         1.04791e+58
          1312.38130	         1.34782e+58
          1313.18760	         1.53914e+58
          1313.99390	         1.55946e+58
          1314.80020	         1.45704e+58
          1315.60650	         1.24329e+58
          1316.41280	         1.18867e+58
          1317.21910	         1.18248e+58
          1318.02540	         1.23538e+58
          1318.83170	         1.24315e+58
          1319.63800	         1.16201e+58
          1320.44430	         1.14855e+58
          1321.25060	         1.21049e+58
          1322.05690	         1.31651e+58
          1322.86320	         1.31050e+58
          1323.66950	         1.12364e+58
          1324.47580	         1.02868e+58
          1325.28210	         1.06221e+58
          1326.08840	         1.10905e+58
          1326.89470	         1.27847e+58
          1327.70100	         1.14662e+58
          1328.50730	         8.56866e+57
          1329.31360	         8.09117e+57
          1330.11990	         1.07137e+58
          1330.92620	         1.08025e+58
          1331.73250	         1.19024e+58
          1332.53880	         1.04976e+58
          1333.34510	         8.66863e+57
          1334.15140	         9.23165e+57
          1334.95770	         9.78942e+57
          1335.76400	         1.02730e+58
          1336.57030	         1.11556e+58
          1337.37660	         1.12107e+58
          1338.18290	         1.04694e+58
          1338.98920	         1.12943e+58
          1339.79550	         1.13522e+58
          1340.60180	         1.20304e+58
          1341.40810	         1.42485e+58
          1342.21440	         1.23660e+58
          1343.02070	         1.18459e+58
          1343.82700	         1.31704e+58
          1344.63330	         1.13117e+58
          1345.43960	         1.05470e+58
          1346.24590	         1.07910e+58
          1347.05220	         1.23589e+58
          1347.85850	         9.67908e+57
          1348.66480	         1.22191e+58
          1349.47110	         1.27537e+58
          1350.27740	         1.14889e+58
          1351.08370	         1.11532e+58
          1351.89000	         1.09303e+58
          1352.69630	         1.10183e+58
          1353.50260	         1.22456e+58
          1354.30890	         1.27666e+58
          1355.11520	         1.10183e+58
          1355.92150	         9.90758e+57
          1356.72780	         1.12857e+58
          1357.53410	         1.09878e+58
          1358.34040	         1.10003e+58
          1359.14670	         1.08141e+58
          1359.95300	         1.04900e+58
          1360.75930	         1.15009e+58
          1361.56560	         1.18006e+58
          1362.37190	         1.24900e+58
          1363.17820	         1.21073e+58
          1363.98450	         1.26177e+58
          1364.79080	         1.24136e+58
          1365.59710	         1.29256e+58
          1366.40340	         1.20324e+58
          1367.20970	         1.02122e+58
          1368.01600	         8.05477e+57
          1368.82230	         9.47208e+57
          1369.62860	         1.04979e+58
          1370.43490	         8.67924e+57
          1371.24120	         1.00693e+58
          1372.04750	         9.77141e+57
          1372.85380	         9.47983e+57
          1373.66010	         1.03796e+58
          1374.46640	         1.05026e+58
          1375.27270	         1.09837e+58
          1376.07900	         9.99430e+57
          1376.88530	         8.60801e+57
          1377.69160	         8.46774e+57
          1378.49790	         7.34039e+57
          1379.30420	         8.96641e+57
          1380.11050	         1.05655e+58
          1380.91680	         8.68488e+57
          1381.72310	         6.86573e+57
          1382.52940	         8.39758e+57
          1383.33570	         8.58330e+57
          1384.14200	         9.54934e+57
          1384.94830	         1.11422e+58
          1385.75460	         1.02074e+58
          1386.56090	         1.09658e+58
          1387.36720	         1.22329e+58
          1388.17350	         1.40041e+58
          1388.97980	         1.28194e+58
          1389.78610	         9.91215e+57
          1390.59240	         8.12675e+57
          1391.39870	         7.43757e+57
          1392.20500	         7.52431e+57
          1393.01130	         7.27380e+57
          1393.81760	         6.89979e+57
          1394.62390	         6.32786e+57
          1395.43020	         5.68995e+57
          1396.23650	         6.58538e+57
          1397.04280	         7.72753e+57
          1397.84910	         8.87737e+57
          1398.65540	         9.14382e+57
          1399.46170	         1.01958e+58
          1400.26800	         8.50568e+57
          1401.07430	         7.80532e+57
          1401.88060	         8.29648e+57
          1402.68690	         9.31607e+57
          1403.49320	         9.30911e+57
          1404.29950	         8.77575e+57
          1405.10580	         1.02590e+58
          1405.91210	         1.15345e+58
          1406.71840	         1.07815e+58
          1407.52470	         9.89909e+57
          1408.33100	         9.57542e+57
          1409.13730	         1.24949e+58
          1409.94360	         1.31229e+58
          1410.74990	         1.17375e+58
          1411.55620	         1.08121e+58
          1412.36250	         9.79427e+57
          1413.16880	         9.31924e+57
          1413.97510	         8.82712e+57
          1414.78140	         8.13754e+57
          1415.58770	         9.49772e+57
          1416.39400	         1.17847e+58
          1417.20030	         1.16235e+58
          1418.00660	         9.74680e+57
          1418.81290	         1.01362e+58
          1419.61920	         1.05582e+58
          1420.42550	         1.15524e+58
          1421.23180	         1.35194e+58
          1422.03810	         1.25514e+58
          1422.84440	         1.04023e+58
          1423.65070	         1.21204e+58
          1424.45700	         1.20756e+58
          1425.26330	         9.22029e+57
          1426.06960	         8.62730e+57
          1426.87590	         1.01287e+58
          1427.68220	         1.01058e+58
          1428.48850	         1.18880e+58
          1429.29480	         1.11824e+58
          1430.10110	         9.42296e+57
          1430.90740	         8.06676e+57
          1431.71370	         8.82111e+57
          1432.52000	         9.75009e+57
          1433.32630	         8.20021e+57
          1434.13260	         7.78118e+57
          1434.93890	         7.98487e+57
          1435.74520	         8.67659e+57
          1436.55150	         8.92716e+57
          1437.35780	         8.99500e+57
          1438.16410	         9.04377e+57
          1438.97040	         8.38209e+57
          1439.77670	         9.48367e+57
          1440.58300	         9.71163e+57
          1441.38930	         9.22699e+57
          1442.19560	         8.83518e+57
          1443.00190	         9.06730e+57
          1443.80820	         1.02017e+58
          1444.61450	         9.86719e+57
          1445.42080	         9.18945e+57
          1446.22710	         1.11263e+58
          1447.03340	         1.03649e+58
          1447.83970	         1.05828e+58
          1448.64600	         1.09374e+58
          1449.45230	         1.07243e+58
          1450.25860	         1.12175e+58
          1451.06490	         8.98760e+57
          1451.87120	         8.06938e+57
          1452.67750	         7.52084e+57
          1453.48380	         9.03524e+57
          1454.29010	         8.59382e+57
          1455.09640	         7.57372e+57
          1455.90270	         9.19219e+57
          1456.70900	         9.16954e+57
          1457.51530	         9.57156e+57
          1458.32160	         1.19144e+58
          1459.12790	         1.23933e+58
          1459.93420	         1.02547e+58
          1460.74050	         6.87767e+57
          1461.54680	         8.12601e+57
          1462.35310	         7.65346e+57
          1463.15940	         9.21111e+57
          1463.96570	         1.14867e+58
          1464.77200	         1.26988e+58
          1465.57830	         1.16055e+58
          1466.38460	         9.83406e+57
          1467.19090	         8.32590e+57
          1467.99720	         8.77280e+57
          1468.80350	         9.42557e+57
          1469.60980	         1.01034e+58
          1470.41610	         1.20769e+58
          1471.22240	         1.01252e+58
          1472.02870	         8.75521e+57
          1472.83500	         9.39411e+57
          1473.64130	         9.77069e+57
          1474.44760	         9.03370e+57
          1475.25390	         9.13987e+57
          1476.06020	         8.85464e+57
          1476.86650	         8.91544e+57
          1477.67280	         8.29200e+57
          1478.47910	         7.17888e+57
          1479.28540	         7.78503e+57
          1480.09170	         9.12686e+57
          1480.89800	         8.45760e+57
          1481.70430	         9.06749e+57
          1482.51060	         9.80393e+57
          1483.31690	         8.90064e+57
          1484.12320	         8.22980e+57
          1484.92950	         7.97256e+57
          1485.73580	         8.48180e+57
          1486.54210	         7.60152e+57
          1487.34840	         8.13152e+57
          1488.15470	         7.90197e+57
          1488.96100	         8.48299e+57
          1489.76730	         8.46210e+57
