#sample_382_stacked_spectrum_rest_UV-bands_median_H-alpha_noDC.txt
#median Lum: 1.71780e+42
#Rest-frame wavelength (A) | Luminosity (erg/s/A)
#
          1110.00000	         0.00000e+00
          1110.80630	        -5.54403e+59
          1111.61260	        -1.43927e+59
          1112.41890	         4.94567e+58
          1113.22520	        -1.10047e+58
          1114.03150	        -6.46596e+58
          1114.83780	         3.66024e+59
          1115.64410	         1.48123e+59
          1116.45040	         1.69273e+59
          1117.25670	         2.09506e+59
          1118.06300	         9.55566e+58
          1118.86930	        -1.56081e+58
          1119.67560	         9.45733e+58
          1120.48190	         3.21092e+58
          1121.28820	        -1.06663e+59
          1122.09450	         1.28175e+58
          1122.90080	         7.63344e+58
          1123.70710	         7.56038e+58
          1124.51340	         1.09011e+59
          1125.31970	         2.28641e+58
          1126.12600	        -4.53147e+56
          1126.93230	        -2.35199e+58
          1127.73860	        -7.47900e+58
          1128.54490	        -2.56295e+58
          1129.35120	         5.26834e+58
          1130.15750	         1.45493e+58
          1130.96380	        -5.57593e+57
          1131.77010	         8.60311e+58
          1132.57640	         7.38542e+58
          1133.38270	         3.07014e+58
          1134.18900	        -9.40193e+57
          1134.99530	        -1.65828e+58
          1135.80160	         2.27423e+58
          1136.60790	         1.58816e+58
          1137.41420	        -5.91825e+56
          1138.22050	         1.49012e+58
          1139.02680	         3.66079e+58
          1139.83310	         4.22839e+58
          1140.63940	         3.33487e+58
          1141.44570	        -2.72689e+57
          1142.25200	         2.72531e+58
          1143.05830	         3.46564e+58
          1143.86460	         2.43911e+58
          1144.67090	         3.86593e+58
          1145.47720	         2.12353e+58
          1146.28350	         8.45931e+57
          1147.08980	         8.98246e+57
          1147.89610	         4.85222e+57
          1148.70240	         2.97336e+58
          1149.50870	         2.81168e+58
          1150.31500	         9.10596e+57
          1151.12130	         2.04724e+58
          1151.92760	         1.39294e+58
          1152.73390	        -3.85212e+57
          1153.54020	         5.59561e+57
          1154.34650	         1.68217e+58
          1155.15280	         9.96087e+57
          1155.95910	         6.52287e+57
          1156.76540	        -2.56652e+57
          1157.57170	         7.95063e+57
          1158.37800	         6.00918e+57
          1159.18430	         9.89584e+57
          1159.99060	         3.14619e+57
          1160.79690	         4.94820e+57
          1161.60320	         1.36738e+58
          1162.40950	         2.45758e+58
          1163.21580	         1.95254e+58
          1164.02210	         1.95246e+58
          1164.82840	         2.28942e+57
          1165.63470	         1.42993e+58
          1166.44100	         2.29777e+58
          1167.24730	         8.45639e+57
          1168.05360	         1.15906e+58
          1168.85990	         1.23118e+58
          1169.66620	         8.67287e+57
          1170.47250	         1.35734e+58
          1171.27880	         9.81694e+57
          1172.08510	         1.42979e+58
          1172.89140	         1.26456e+58
          1173.69770	         8.16797e+57
          1174.50400	         1.37887e+58
          1175.31030	         1.63885e+58
          1176.11660	         2.29464e+58
          1176.92290	         1.69468e+58
          1177.72920	         1.01088e+58
          1178.53550	         1.07564e+58
          1179.34180	         7.17330e+57
          1180.14810	         1.09194e+58
          1180.95440	         6.50596e+57
          1181.76070	         3.86166e+57
          1182.56700	         6.19607e+57
          1183.37330	         6.23335e+57
          1184.17960	         1.21650e+58
          1184.98590	         1.20756e+58
          1185.79220	         3.75964e+57
          1186.59850	         1.01003e+58
          1187.40480	         1.21067e+58
          1188.21110	         1.02402e+58
          1189.01740	         1.22145e+58
          1189.82370	         1.01584e+58
          1190.63000	         1.08514e+58
          1191.43630	         1.26479e+58
          1192.24260	         8.79719e+57
          1193.04890	         1.47423e+58
          1193.85520	         1.43084e+58
          1194.66150	         5.63292e+57
          1195.46780	         1.07436e+58
          1196.27410	         1.04458e+58
          1197.08040	         9.04826e+57
          1197.88670	         1.45944e+58
          1198.69300	         1.48774e+58
          1199.49930	         1.64203e+58
          1200.30560	         1.29853e+58
          1201.11190	         1.09660e+58
          1201.91820	         1.09273e+58
          1202.72450	         6.39799e+57
          1203.53080	         1.19772e+58
          1204.33710	         8.12035e+57
          1205.14340	         1.52763e+58
          1205.94970	         1.28094e+58
          1206.75600	         8.03009e+57
          1207.56230	         3.81739e+57
          1208.36860	         8.33952e+57
          1209.17490	         4.81611e+57
          1209.98120	         4.26071e+57
          1210.78750	         9.06685e+57
          1211.59380	         1.25283e+58
          1212.40010	         1.88167e+58
          1213.20640	         1.93995e+58
          1214.01270	         2.02867e+58
          1214.81900	         2.75142e+58
          1215.62530	         4.31775e+58
          1216.43160	         8.96924e+58
          1217.23790	         1.52569e+59
          1218.04420	         1.16059e+59
          1218.85050	         8.57768e+58
          1219.65680	         6.19058e+58
          1220.46310	         4.08947e+58
          1221.26940	         2.67509e+58
          1222.07570	         1.62334e+58
          1222.88200	         1.18487e+58
          1223.68830	         1.04056e+58
          1224.49460	         7.07192e+57
          1225.30090	         8.65604e+57
          1226.10720	         7.15826e+57
          1226.91350	         6.20485e+57
          1227.71980	         7.48546e+57
          1228.52610	         1.18115e+58
          1229.33240	         9.52509e+57
          1230.13870	         9.62463e+57
          1230.94500	         1.05515e+58
          1231.75130	         8.81848e+57
          1232.55760	         9.44651e+57
          1233.36390	         9.88114e+57
          1234.17020	         1.28283e+58
          1234.97650	         1.10099e+58
          1235.78280	         7.60152e+57
          1236.58910	         7.49442e+57
          1237.39540	         1.22669e+58
          1238.20170	         1.23350e+58
          1239.00800	         9.20281e+57
          1239.81430	         1.24970e+58
          1240.62060	         1.17822e+58
          1241.42690	         1.08436e+58
          1242.23320	         1.13232e+58
          1243.03950	         9.05872e+57
          1243.84580	         8.70604e+57
          1244.65210	         9.47087e+57
          1245.45840	         9.83649e+57
          1246.26470	         1.09973e+58
          1247.07100	         1.06801e+58
          1247.87730	         6.21102e+57
          1248.68360	         5.73302e+57
          1249.48990	         8.23992e+57
          1250.29620	         7.94388e+57
          1251.10250	         6.53590e+57
          1251.90880	         7.01232e+57
          1252.71510	         7.91344e+57
          1253.52140	         9.29681e+57
          1254.32770	         1.33703e+58
          1255.13400	         1.36145e+58
          1255.94030	         1.21179e+58
          1256.74660	         1.01276e+58
          1257.55290	         9.06477e+57
          1258.35920	         8.02563e+57
          1259.16550	         5.55670e+57
          1259.97180	         5.99548e+57
          1260.77810	         8.05494e+57
          1261.58440	         9.92219e+57
          1262.39070	         6.26250e+57
          1263.19700	         5.86539e+57
          1264.00330	         8.62786e+57
          1264.80960	         1.09979e+58
          1265.61590	         1.28103e+58
          1266.42220	         1.11633e+58
          1267.22850	         1.03595e+58
          1268.03480	         1.43252e+58
          1268.84110	         1.37799e+58
          1269.64740	         1.11125e+58
          1270.45370	         1.32562e+58
          1271.26000	         1.27826e+58
          1272.06630	         1.27576e+58
          1272.87260	         1.17051e+58
          1273.67890	         8.79829e+57
          1274.48520	         1.23222e+58
          1275.29150	         1.26479e+58
          1276.09780	         1.04687e+58
          1276.90410	         1.56514e+58
          1277.71040	         1.34063e+58
          1278.51670	         1.26580e+58
          1279.32300	         1.37508e+58
          1280.12930	         1.28958e+58
          1280.93560	         1.18229e+58
          1281.74190	         1.20011e+58
          1282.54820	         1.27133e+58
          1283.35450	         1.05340e+58
          1284.16080	         1.07564e+58
          1284.96710	         1.42025e+58
          1285.77340	         1.23916e+58
          1286.57970	         1.34540e+58
          1287.38600	         1.73328e+58
          1288.19230	         1.60257e+58
          1288.99860	         1.40451e+58
          1289.80490	         1.22281e+58
          1290.61120	         1.48094e+58
          1291.41750	         1.48407e+58
          1292.22380	         1.23787e+58
          1293.03010	         1.23778e+58
          1293.83640	         1.26211e+58
          1294.64270	         1.17257e+58
          1295.44900	         8.24359e+57
          1296.25530	         7.05096e+57
          1297.06160	         1.02072e+58
          1297.86790	         1.20423e+58
          1298.67420	         1.00064e+58
          1299.48050	         1.07291e+58
          1300.28680	         1.03549e+58
          1301.09310	         7.08859e+57
          1301.89940	         3.84890e+57
          1302.70570	         6.39965e+57
          1303.51200	         8.51544e+57
          1304.31830	         8.83443e+57
          1305.12460	         1.13664e+58
          1305.93090	         1.21258e+58
          1306.73720	         1.13882e+58
          1307.54350	         1.30917e+58
          1308.34980	         1.43101e+58
          1309.15610	         1.46658e+58
          1309.96240	         1.59514e+58
          1310.76870	         1.26729e+58
          1311.57500	         7.56127e+57
          1312.38130	         9.37969e+57
          1313.18760	         1.56074e+58
          1313.99390	         1.77941e+58
          1314.80020	         1.64522e+58
          1315.60650	         1.37978e+58
          1316.41280	         1.40706e+58
          1317.21910	         1.35415e+58
          1318.02540	         1.17619e+58
          1318.83170	         1.21042e+58
          1319.63800	         1.16184e+58
          1320.44430	         1.15024e+58
          1321.25060	         1.26168e+58
          1322.05690	         1.23749e+58
          1322.86320	         1.25442e+58
          1323.66950	         1.10220e+58
          1324.47580	         1.00658e+58
          1325.28210	         1.03935e+58
          1326.08840	         1.17424e+58
          1326.89470	         1.22711e+58
          1327.70100	         9.68981e+57
          1328.50730	         7.49764e+57
          1329.31360	         9.50871e+57
          1330.11990	         1.02917e+58
          1330.92620	         8.63640e+57
          1331.73250	         9.94668e+57
          1332.53880	         9.97196e+57
          1333.34510	         1.01786e+58
          1334.15140	         1.07793e+58
          1334.95770	         9.95980e+57
          1335.76400	         1.07515e+58
          1336.57030	         1.17458e+58
          1337.37660	         1.21206e+58
          1338.18290	         1.25858e+58
          1338.98920	         1.20312e+58
          1339.79550	         1.21246e+58
          1340.60180	         1.33999e+58
          1341.40810	         1.43943e+58
          1342.21440	         1.21824e+58
          1343.02070	         1.12443e+58
          1343.82700	         1.23114e+58
          1344.63330	         1.37957e+58
          1345.43960	         1.45294e+58
          1346.24590	         1.29157e+58
          1347.05220	         1.46827e+58
          1347.85850	         1.08606e+58
          1348.66480	         1.12098e+58
          1349.47110	         1.34592e+58
          1350.27740	         1.23265e+58
          1351.08370	         1.14924e+58
          1351.89000	         1.15689e+58
          1352.69630	         1.01789e+58
          1353.50260	         1.09368e+58
          1354.30890	         1.20710e+58
          1355.11520	         1.21613e+58
          1355.92150	         1.06664e+58
          1356.72780	         9.31573e+57
          1357.53410	         8.88750e+57
          1358.34040	         9.40991e+57
          1359.14670	         1.01758e+58
          1359.95300	         1.18988e+58
          1360.75930	         1.27443e+58
          1361.56560	         1.08066e+58
          1362.37190	         1.01215e+58
          1363.17820	         1.15021e+58
          1363.98450	         1.29305e+58
          1364.79080	         1.29810e+58
          1365.59710	         1.22587e+58
          1366.40340	         1.07210e+58
          1367.20970	         9.90178e+57
          1368.01600	         9.61529e+57
          1368.82230	         9.91978e+57
          1369.62860	         1.11828e+58
          1370.43490	         1.08011e+58
          1371.24120	         1.07255e+58
          1372.04750	         1.01208e+58
          1372.85380	         1.07770e+58
          1373.66010	         9.38287e+57
          1374.46640	         9.50071e+57
          1375.27270	         1.03040e+58
          1376.07900	         8.30896e+57
          1376.88530	         8.55848e+57
          1377.69160	         8.80061e+57
          1378.49790	         7.65897e+57
          1379.30420	         7.96807e+57
          1380.11050	         8.34582e+57
          1380.91680	         7.57792e+57
          1381.72310	         7.91753e+57
          1382.52940	         7.88958e+57
          1383.33570	         8.77216e+57
          1384.14200	         9.86902e+57
          1384.94830	         9.88563e+57
          1385.75460	         9.25410e+57
          1386.56090	         9.87737e+57
          1387.36720	         1.05356e+58
          1388.17350	         1.27671e+58
          1388.97980	         1.13138e+58
          1389.78610	         7.54905e+57
          1390.59240	         6.88426e+57
          1391.39870	         7.87319e+57
          1392.20500	         9.51117e+57
          1393.01130	         7.56894e+57
          1393.81760	         7.32988e+57
          1394.62390	         8.55222e+57
          1395.43020	         6.98171e+57
          1396.23650	         7.27115e+57
          1397.04280	         7.34038e+57
          1397.84910	         6.66888e+57
          1398.65540	         8.10678e+57
          1399.46170	         9.78315e+57
          1400.26800	         8.61550e+57
          1401.07430	         7.66906e+57
          1401.88060	         8.76384e+57
          1402.68690	         8.98745e+57
          1403.49320	         9.36279e+57
          1404.29950	         8.95982e+57
          1405.10580	         1.04500e+58
          1405.91210	         1.13245e+58
          1406.71840	         1.09674e+58
          1407.52470	         1.15280e+58
          1408.33100	         1.06689e+58
          1409.13730	         1.23791e+58
          1409.94360	         1.37143e+58
          1410.74990	         1.20376e+58
          1411.55620	         9.92519e+57
          1412.36250	         8.48862e+57
          1413.16880	         8.94608e+57
          1413.97510	         8.83103e+57
          1414.78140	         7.84734e+57
          1415.58770	         9.07162e+57
          1416.39400	         1.05544e+58
          1417.20030	         1.04624e+58
          1418.00660	         1.06776e+58
          1418.81290	         1.28347e+58
          1419.61920	         1.24239e+58
          1420.42550	         1.45527e+58
          1421.23180	         1.50448e+58
          1422.03810	         1.29493e+58
          1422.84440	         1.07796e+58
          1423.65070	         1.19430e+58
          1424.45700	         1.20824e+58
          1425.26330	         1.01309e+58
          1426.06960	         1.00376e+58
          1426.87590	         1.06223e+58
          1427.68220	         9.86426e+57
          1428.48850	         1.05856e+58
          1429.29480	         1.11636e+58
          1430.10110	         1.07572e+58
          1430.90740	         9.06684e+57
          1431.71370	         8.73992e+57
          1432.52000	         8.96398e+57
          1433.32630	         7.67874e+57
          1434.13260	         7.67125e+57
          1434.93890	         7.81976e+57
          1435.74520	         9.08490e+57
          1436.55150	         9.77851e+57
          1437.35780	         9.53237e+57
          1438.16410	         9.50253e+57
          1438.97040	         8.48871e+57
          1439.77670	         7.80496e+57
          1440.58300	         9.12040e+57
          1441.38930	         9.74398e+57
          1442.19560	         1.02125e+58
          1443.00190	         1.05289e+58
          1443.80820	         1.18761e+58
          1444.61450	         1.05138e+58
          1445.42080	         9.11390e+57
          1446.22710	         1.15031e+58
          1447.03340	         1.10284e+58
          1447.83970	         1.11360e+58
          1448.64600	         1.10424e+58
          1449.45230	         1.02091e+58
          1450.25860	         1.01499e+58
          1451.06490	         8.65912e+57
          1451.87120	         7.44333e+57
          1452.67750	         8.37262e+57
          1453.48380	         8.74816e+57
          1454.29010	         8.07197e+57
          1455.09640	         8.22022e+57
          1455.90270	         8.72490e+57
          1456.70900	         8.44913e+57
          1457.51530	         1.00179e+58
          1458.32160	         1.32628e+58
          1459.12790	         1.26219e+58
          1459.93420	         9.28603e+57
          1460.74050	         7.21872e+57
          1461.54680	         7.72600e+57
          1462.35310	         8.23794e+57
          1463.15940	         9.94028e+57
          1463.96570	         1.18278e+58
          1464.77200	         1.20152e+58
          1465.57830	         1.02109e+58
          1466.38460	         9.15611e+57
          1467.19090	         9.23063e+57
          1467.99720	         8.92751e+57
          1468.80350	         8.49588e+57
          1469.60980	         1.05285e+58
          1470.41610	         1.16892e+58
          1471.22240	         9.41065e+57
          1472.02870	         8.81976e+57
          1472.83500	         9.49849e+57
          1473.64130	         9.91465e+57
          1474.44760	         9.37211e+57
          1475.25390	         8.42443e+57
          1476.06020	         8.01641e+57
          1476.86650	         7.68041e+57
          1477.67280	         7.30589e+57
          1478.47910	         7.34143e+57
          1479.28540	         6.86871e+57
          1480.09170	         9.14994e+57
          1480.89800	         8.45630e+57
          1481.70430	         8.26153e+57
          1482.51060	         8.01459e+57
          1483.31690	         7.56787e+57
          1484.12320	         8.67975e+57
          1484.92950	         8.44814e+57
          1485.73580	         8.87453e+57
          1486.54210	         9.63400e+57
          1487.34840	         9.88890e+57
          1488.15470	         9.14582e+57
          1488.96100	         8.79741e+57
          1489.76730	         9.32264e+57
