#sample_169_stacked_spectrum_rest_UV-bands_median_H-alpha_noDC.txt
#median Lum: 1.69746e+42
#Rest-frame wavelength (A) | Luminosity (erg/s/A)
#
          1110.00000	         0.00000e+00
          1110.80630	         2.41232e+59
          1111.61260	         4.32862e+58
          1112.41890	         7.17976e+58
          1113.22520	         1.79420e+59
          1114.03150	         7.79360e+58
          1114.83780	         2.27767e+59
          1115.64410	        -4.75865e+57
          1116.45040	         1.08663e+59
          1117.25670	         1.54917e+59
          1118.06300	         1.70910e+59
          1118.86930	        -6.07571e+58
          1119.67560	         5.61285e+58
          1120.48190	        -6.93444e+57
          1121.28820	        -1.20868e+59
          1122.09450	        -1.99088e+58
          1122.90080	         2.34153e+58
          1123.70710	        -1.03819e+57
          1124.51340	         9.77378e+58
          1125.31970	         4.37749e+58
          1126.12600	         2.23096e+58
          1126.93230	        -7.15982e+58
          1127.73860	        -5.45330e+58
          1128.54490	         3.21320e+58
          1129.35120	         1.69156e+58
          1130.15750	         1.14950e+58
          1130.96380	         2.88714e+58
          1131.77010	         7.91000e+58
          1132.57640	         5.47591e+58
          1133.38270	         4.04295e+58
          1134.18900	         1.39110e+58
          1134.99530	         5.16941e+57
          1135.80160	         3.92228e+57
          1136.60790	         1.33538e+58
          1137.41420	        -1.90528e+58
          1138.22050	         2.39679e+58
          1139.02680	         2.15615e+58
          1139.83310	         2.38834e+58
          1140.63940	         1.99700e+58
          1141.44570	        -1.63441e+58
          1142.25200	        -5.41338e+57
          1143.05830	         2.78474e+58
          1143.86460	         4.05391e+58
          1144.67090	         2.92624e+58
          1145.47720	         6.57665e+57
          1146.28350	         8.64030e+57
          1147.08980	         1.49283e+58
          1147.89610	         1.41726e+58
          1148.70240	         2.02476e+58
          1149.50870	         2.29775e+58
          1150.31500	         2.03829e+58
          1151.12130	         1.51641e+58
          1151.92760	         5.25040e+57
          1152.73390	         4.83304e+57
          1153.54020	         9.35577e+57
          1154.34650	         2.61829e+58
          1155.15280	         2.42325e+58
          1155.95910	         8.67265e+57
          1156.76540	         7.47860e+57
          1157.57170	         4.13913e+56
          1158.37800	         2.58194e+57
          1159.18430	         3.86207e+57
          1159.99060	         1.42365e+58
          1160.79690	         1.68047e+57
          1161.60320	         1.78857e+58
          1162.40950	         1.35910e+58
          1163.21580	         6.18001e+57
          1164.02210	         4.60948e+57
          1164.82840	         6.22902e+57
          1165.63470	         1.92318e+58
          1166.44100	         2.48810e+58
          1167.24730	         2.13285e+58
          1168.05360	         1.14519e+58
          1168.85990	        -1.95630e+57
          1169.66620	         4.51831e+57
          1170.47250	         1.42630e+58
          1171.27880	         9.25344e+57
          1172.08510	         1.29754e+58
          1172.89140	         1.15586e+58
          1173.69770	         2.75128e+57
          1174.50400	         5.20420e+57
          1175.31030	         1.71989e+58
          1176.11660	         1.57044e+58
          1176.92290	         1.45412e+58
          1177.72920	         1.32675e+58
          1178.53550	         1.03951e+58
          1179.34180	         7.08391e+57
          1180.14810	         9.01086e+57
          1180.95440	         1.34180e+58
          1181.76070	         8.87531e+57
          1182.56700	         6.40877e+57
          1183.37330	         9.94796e+57
          1184.17960	         1.24784e+58
          1184.98590	         6.49220e+57
          1185.79220	         4.15568e+57
          1186.59850	         1.47811e+58
          1187.40480	         1.90222e+58
          1188.21110	         2.06917e+58
          1189.01740	         1.14053e+58
          1189.82370	         8.82303e+57
          1190.63000	         1.68066e+58
          1191.43630	         1.42294e+58
          1192.24260	         8.94897e+57
          1193.04890	         1.06548e+58
          1193.85520	         1.16174e+58
          1194.66150	         8.63965e+57
          1195.46780	         1.00669e+58
          1196.27410	         1.21515e+58
          1197.08040	         1.06060e+58
          1197.88670	         1.31273e+58
          1198.69300	         1.54799e+58
          1199.49930	         1.66450e+58
          1200.30560	         1.29093e+58
          1201.11190	         5.55235e+57
          1201.91820	         4.05630e+57
          1202.72450	         6.49469e+57
          1203.53080	         1.53244e+58
          1204.33710	         6.85897e+57
          1205.14340	         7.54253e+57
          1205.94970	         6.34579e+57
          1206.75600	         1.10811e+58
          1207.56230	         7.33946e+57
          1208.36860	         8.12696e+57
          1209.17490	         7.96291e+57
          1209.98120	         7.63247e+57
          1210.78750	         7.86587e+57
          1211.59380	         9.75894e+57
          1212.40010	         1.73604e+58
          1213.20640	         1.80254e+58
          1214.01270	         2.23229e+58
          1214.81900	         2.79824e+58
          1215.62530	         4.33541e+58
          1216.43160	         8.96786e+58
          1217.23790	         1.51637e+59
          1218.04420	         1.15617e+59
          1218.85050	         9.13846e+58
          1219.65680	         5.91236e+58
          1220.46310	         3.04117e+58
          1221.26940	         2.01043e+58
          1222.07570	         1.31187e+58
          1222.88200	         1.32128e+58
          1223.68830	         9.66431e+57
          1224.49460	         7.84177e+57
          1225.30090	         6.91895e+57
          1226.10720	         7.04015e+57
          1226.91350	         6.99349e+57
          1227.71980	         1.00733e+58
          1228.52610	         1.24566e+58
          1229.33240	         1.38389e+58
          1230.13870	         1.02186e+58
          1230.94500	         8.81746e+57
          1231.75130	         8.02458e+57
          1232.55760	         7.57838e+57
          1233.36390	         8.80346e+57
          1234.17020	         8.90028e+57
          1234.97650	         6.89777e+57
          1235.78280	         5.59451e+57
          1236.58910	         7.76854e+57
          1237.39540	         9.02047e+57
          1238.20170	         8.69198e+57
          1239.00800	         1.23012e+58
          1239.81430	         1.74125e+58
          1240.62060	         1.41670e+58
          1241.42690	         1.12876e+58
          1242.23320	         1.09523e+58
          1243.03950	         6.96766e+57
          1243.84580	         6.54424e+57
          1244.65210	         1.10336e+58
          1245.45840	         1.12689e+58
          1246.26470	         9.51566e+57
          1247.07100	         9.02561e+57
          1247.87730	         7.38453e+57
          1248.68360	         6.73953e+57
          1249.48990	         9.87251e+57
          1250.29620	         1.04962e+58
          1251.10250	         5.99002e+57
          1251.90880	         3.03165e+57
          1252.71510	         5.92775e+57
          1253.52140	         8.64567e+57
          1254.32770	         1.14736e+58
          1255.13400	         1.36738e+58
          1255.94030	         1.19351e+58
          1256.74660	         1.17517e+58
          1257.55290	         1.23718e+58
          1258.35920	         9.67392e+57
          1259.16550	         6.59958e+57
          1259.97180	         5.23196e+57
          1260.77810	         9.43932e+57
          1261.58440	         1.20426e+58
          1262.39070	         9.56795e+57
          1263.19700	         9.03464e+57
          1264.00330	         9.66741e+57
          1264.80960	         1.25973e+58
          1265.61590	         1.43002e+58
          1266.42220	         1.15368e+58
          1267.22850	         1.11054e+58
          1268.03480	         1.45063e+58
          1268.84110	         1.56272e+58
          1269.64740	         1.53663e+58
          1270.45370	         1.35954e+58
          1271.26000	         1.01300e+58
          1272.06630	         1.42516e+58
          1272.87260	         1.41400e+58
          1273.67890	         1.12837e+58
          1274.48520	         1.06167e+58
          1275.29150	         1.15831e+58
          1276.09780	         1.11969e+58
          1276.90410	         1.30437e+58
          1277.71040	         1.35753e+58
          1278.51670	         1.23772e+58
          1279.32300	         1.24865e+58
          1280.12930	         1.17728e+58
          1280.93560	         1.17284e+58
          1281.74190	         1.27055e+58
          1282.54820	         1.34304e+58
          1283.35450	         1.18210e+58
          1284.16080	         1.27290e+58
          1284.96710	         1.47587e+58
          1285.77340	         1.19963e+58
          1286.57970	         1.23550e+58
          1287.38600	         1.68187e+58
          1288.19230	         1.71920e+58
          1288.99860	         1.38747e+58
          1289.80490	         1.02062e+58
          1290.61120	         1.44881e+58
          1291.41750	         1.59088e+58
          1292.22380	         1.35532e+58
          1293.03010	         1.36756e+58
          1293.83640	         1.35172e+58
          1294.64270	         9.04983e+57
          1295.44900	         5.54935e+57
          1296.25530	         6.83565e+57
          1297.06160	         9.49315e+57
          1297.86790	         8.80954e+57
          1298.67420	         7.75218e+57
          1299.48050	         9.83209e+57
          1300.28680	         1.03986e+58
          1301.09310	         8.90787e+57
          1301.89940	         4.94070e+57
          1302.70570	         5.41552e+57
          1303.51200	         7.12577e+57
          1304.31830	         1.06951e+58
          1305.12460	         9.86636e+57
          1305.93090	         1.00269e+58
          1306.73720	         1.17262e+58
          1307.54350	         1.33842e+58
          1308.34980	         1.56351e+58
          1309.15610	         1.65779e+58
          1309.96240	         1.67625e+58
          1310.76870	         1.35918e+58
          1311.57500	         1.09046e+58
          1312.38130	         1.25112e+58
          1313.18760	         1.45252e+58
          1313.99390	         1.41669e+58
          1314.80020	         1.42943e+58
          1315.60650	         1.38618e+58
          1316.41280	         1.24276e+58
          1317.21910	         1.23950e+58
          1318.02540	         1.33967e+58
          1318.83170	         1.32574e+58
          1319.63800	         1.04810e+58
          1320.44430	         1.08973e+58
          1321.25060	         1.30989e+58
          1322.05690	         1.18565e+58
          1322.86320	         1.07248e+58
          1323.66950	         1.14202e+58
          1324.47580	         9.92575e+57
          1325.28210	         9.56668e+57
          1326.08840	         1.08110e+58
          1326.89470	         1.27300e+58
          1327.70100	         1.01464e+58
          1328.50730	         8.33445e+57
          1329.31360	         9.69964e+57
          1330.11990	         1.02230e+58
          1330.92620	         9.37643e+57
          1331.73250	         1.09544e+58
          1332.53880	         1.00559e+58
          1333.34510	         8.71513e+57
          1334.15140	         7.94412e+57
          1334.95770	         8.47614e+57
          1335.76400	         1.10679e+58
          1336.57030	         1.18168e+58
          1337.37660	         1.18697e+58
          1338.18290	         1.03012e+58
          1338.98920	         9.60340e+57
          1339.79550	         1.08033e+58
          1340.60180	         1.17403e+58
          1341.40810	         1.16979e+58
          1342.21440	         1.13001e+58
          1343.02070	         1.23218e+58
          1343.82700	         1.38473e+58
          1344.63330	         1.38800e+58
          1345.43960	         1.44421e+58
          1346.24590	         1.14397e+58
          1347.05220	         9.80634e+57
          1347.85850	         1.16094e+58
          1348.66480	         1.34202e+58
          1349.47110	         1.27912e+58
          1350.27740	         1.04154e+58
          1351.08370	         1.15113e+58
          1351.89000	         1.24795e+58
          1352.69630	         1.25904e+58
          1353.50260	         1.05040e+58
          1354.30890	         1.03032e+58
          1355.11520	         1.14009e+58
          1355.92150	         1.07723e+58
          1356.72780	         1.03260e+58
          1357.53410	         1.09137e+58
          1358.34040	         1.09011e+58
          1359.14670	         1.05049e+58
          1359.95300	         1.22890e+58
          1360.75930	         1.40557e+58
          1361.56560	         1.15821e+58
          1362.37190	         1.11151e+58
          1363.17820	         9.84601e+57
          1363.98450	         1.20388e+58
          1364.79080	         1.34687e+58
          1365.59710	         1.21535e+58
          1366.40340	         1.18938e+58
          1367.20970	         1.11421e+58
          1368.01600	         1.05017e+58
          1368.82230	         8.96603e+57
          1369.62860	         1.11742e+58
          1370.43490	         1.11546e+58
          1371.24120	         9.41330e+57
          1372.04750	         9.94711e+57
          1372.85380	         1.13680e+58
          1373.66010	         1.10937e+58
          1374.46640	         1.10610e+58
          1375.27270	         1.11402e+58
          1376.07900	         9.89051e+57
          1376.88530	         8.88682e+57
          1377.69160	         9.64547e+57
          1378.49790	         8.01632e+57
          1379.30420	         6.50889e+57
          1380.11050	         8.74410e+57
          1380.91680	         8.94705e+57
          1381.72310	         7.79537e+57
          1382.52940	         7.16825e+57
          1383.33570	         8.47760e+57
          1384.14200	         1.11709e+58
          1384.94830	         1.20885e+58
          1385.75460	         1.18324e+58
          1386.56090	         1.16662e+58
          1387.36720	         1.01088e+58
          1388.17350	         1.10779e+58
          1388.97980	         9.93747e+57
          1389.78610	         8.62269e+57
          1390.59240	         8.17197e+57
          1391.39870	         7.16884e+57
          1392.20500	         8.84171e+57
          1393.01130	         8.78786e+57
          1393.81760	         7.83741e+57
          1394.62390	         7.92661e+57
          1395.43020	         6.55978e+57
          1396.23650	         6.57495e+57
          1397.04280	         8.11193e+57
          1397.84910	         8.05118e+57
          1398.65540	         7.62172e+57
          1399.46170	         8.60779e+57
          1400.26800	         7.57112e+57
          1401.07430	         8.16911e+57
          1401.88060	         8.91123e+57
          1402.68690	         1.01025e+58
          1403.49320	         9.55146e+57
          1404.29950	         8.77194e+57
          1405.10580	         9.96151e+57
          1405.91210	         1.07193e+58
          1406.71840	         1.15026e+58
          1407.52470	         1.05155e+58
          1408.33100	         1.04194e+58
          1409.13730	         1.18579e+58
          1409.94360	         1.18332e+58
          1410.74990	         1.24523e+58
          1411.55620	         1.10096e+58
          1412.36250	         9.57890e+57
          1413.16880	         9.08351e+57
          1413.97510	         7.92782e+57
          1414.78140	         8.39598e+57
          1415.58770	         1.08003e+58
          1416.39400	         1.05820e+58
          1417.20030	         1.09528e+58
          1418.00660	         1.10211e+58
          1418.81290	         1.14103e+58
          1419.61920	         1.04231e+58
          1420.42550	         1.10149e+58
          1421.23180	         1.32687e+58
          1422.03810	         1.27952e+58
          1422.84440	         1.20978e+58
          1423.65070	         1.32676e+58
          1424.45700	         1.20850e+58
          1425.26330	         8.18125e+57
          1426.06960	         8.16738e+57
          1426.87590	         9.18617e+57
          1427.68220	         1.03096e+58
          1428.48850	         1.02735e+58
          1429.29480	         9.68515e+57
          1430.10110	         9.23698e+57
          1430.90740	         9.48789e+57
          1431.71370	         8.74734e+57
          1432.52000	         8.97968e+57
          1433.32630	         8.94019e+57
          1434.13260	         8.76565e+57
          1434.93890	         8.09923e+57
          1435.74520	         8.49925e+57
          1436.55150	         9.10053e+57
          1437.35780	         8.87245e+57
          1438.16410	         8.47823e+57
          1438.97040	         8.51102e+57
          1439.77670	         9.71399e+57
          1440.58300	         9.47062e+57
          1441.38930	         9.38609e+57
          1442.19560	         9.92279e+57
          1443.00190	         1.03598e+58
          1443.80820	         1.20597e+58
          1444.61450	         1.03502e+58
          1445.42080	         8.94848e+57
          1446.22710	         1.09319e+58
          1447.03340	         1.07682e+58
          1447.83970	         1.04417e+58
          1448.64600	         1.07164e+58
          1449.45230	         1.03854e+58
          1450.25860	         9.96960e+57
          1451.06490	         8.22737e+57
          1451.87120	         7.74263e+57
          1452.67750	         8.52751e+57
          1453.48380	         9.29904e+57
          1454.29010	         8.82698e+57
          1455.09640	         8.09397e+57
          1455.90270	         8.59205e+57
          1456.70900	         9.10975e+57
          1457.51530	         1.05568e+58
          1458.32160	         1.20757e+58
          1459.12790	         1.13931e+58
          1459.93420	         9.81095e+57
          1460.74050	         8.02885e+57
          1461.54680	         8.05659e+57
          1462.35310	         8.24041e+57
          1463.15940	         9.10071e+57
          1463.96570	         1.01774e+58
          1464.77200	         1.18112e+58
          1465.57830	         1.16927e+58
          1466.38460	         9.46387e+57
          1467.19090	         8.04749e+57
          1467.99720	         8.46445e+57
          1468.80350	         8.67810e+57
          1469.60980	         9.30768e+57
          1470.41610	         1.12763e+58
          1471.22240	         1.04830e+58
          1472.02870	         9.71734e+57
          1472.83500	         9.32710e+57
          1473.64130	         8.45435e+57
          1474.44760	         8.78425e+57
          1475.25390	         9.77864e+57
          1476.06020	         9.55986e+57
          1476.86650	         9.08070e+57
          1477.67280	         8.21771e+57
          1478.47910	         7.36607e+57
          1479.28540	         7.75971e+57
          1480.09170	         9.58717e+57
          1480.89800	         8.74384e+57
          1481.70430	         7.80199e+57
          1482.51060	         9.02644e+57
          1483.31690	         8.88149e+57
          1484.12320	         7.98266e+57
          1484.92950	         7.67747e+57
          1485.73580	         8.68528e+57
          1486.54210	         8.58885e+57
          1487.34840	         9.29113e+57
          1488.15470	         9.20883e+57
          1488.96100	         9.50197e+57
          1489.76730	         9.59813e+57
