#sample_218_stacked_spectrum_rest_UV-bands_median_H-alpha_noDC.txt
#median Lum: 1.71529e+42
#Rest-frame wavelength (A) | Luminosity (erg/s/A)
#
          1110.00000	         0.00000e+00
          1110.80630	        -3.69035e+59
          1111.61260	         2.07482e+59
          1112.41890	         3.56225e+59
          1113.22520	        -3.75810e+58
          1114.03150	        -1.05436e+59
          1114.83780	         1.72927e+59
          1115.64410	         5.17712e+58
          1116.45040	         1.08497e+59
          1117.25670	         1.29924e+59
          1118.06300	         1.21679e+58
          1118.86930	         2.31250e+58
          1119.67560	         2.09998e+59
          1120.48190	         8.75387e+58
          1121.28820	        -3.34081e+58
          1122.09450	         2.42892e+58
          1122.90080	         2.88820e+58
          1123.70710	         3.04008e+58
          1124.51340	         7.28265e+58
          1125.31970	         4.68034e+58
          1126.12600	         6.40366e+56
          1126.93230	        -4.96004e+58
          1127.73860	        -6.56000e+58
          1128.54490	        -7.08786e+57
          1129.35120	         2.82323e+57
          1130.15750	        -3.82646e+58
          1130.96380	        -3.08989e+58
          1131.77010	         4.89918e+58
          1132.57640	         5.29229e+58
          1133.38270	         2.70782e+58
          1134.18900	        -1.14088e+58
          1134.99530	         3.69285e+58
          1135.80160	         1.10360e+58
          1136.60790	         3.41874e+58
          1137.41420	         1.30979e+58
          1138.22050	         6.57538e+57
          1139.02680	         9.24188e+57
          1139.83310	         1.77298e+58
          1140.63940	         1.28018e+58
          1141.44570	        -2.99703e+58
          1142.25200	        -4.66167e+57
          1143.05830	         7.99463e+57
          1143.86460	         1.85368e+58
          1144.67090	         4.00192e+58
          1145.47720	         4.59454e+57
          1146.28350	        -6.27644e+57
          1147.08980	         6.96631e+57
          1147.89610	         2.09900e+58
          1148.70240	         2.45039e+58
          1149.50870	         1.75593e+58
          1150.31500	         1.82503e+58
          1151.12130	         2.16760e+58
          1151.92760	         1.05927e+58
          1152.73390	         1.35218e+57
          1153.54020	         1.04800e+58
          1154.34650	         3.06734e+58
          1155.15280	         2.45790e+58
          1155.95910	         1.46058e+58
          1156.76540	         1.58822e+57
          1157.57170	        -2.15440e+56
          1158.37800	         6.60039e+56
          1159.18430	         3.09794e+57
          1159.99060	         1.81889e+58
          1160.79690	         6.61748e+57
          1161.60320	         1.99095e+58
          1162.40950	         1.82793e+58
          1163.21580	         1.32746e+58
          1164.02210	         1.63410e+58
          1164.82840	         4.38285e+57
          1165.63470	         1.97949e+58
          1166.44100	         2.58650e+58
          1167.24730	         1.83094e+58
          1168.05360	         1.16912e+58
          1168.85990	         5.05449e+57
          1169.66620	         5.01386e+57
          1170.47250	         4.61876e+57
          1171.27880	         5.73931e+57
          1172.08510	         1.27304e+58
          1172.89140	         6.58582e+57
          1173.69770	         2.83916e+57
          1174.50400	         8.34186e+57
          1175.31030	         1.37504e+58
          1176.11660	         1.62327e+58
          1176.92290	         1.81446e+58
          1177.72920	         1.45556e+58
          1178.53550	         7.79435e+57
          1179.34180	         4.60335e+57
          1180.14810	         4.94037e+57
          1180.95440	         7.61482e+57
          1181.76070	         5.77817e+57
          1182.56700	         6.44057e+57
          1183.37330	         5.20118e+57
          1184.17960	         9.02821e+57
          1184.98590	         1.06794e+58
          1185.79220	         7.41712e+57
          1186.59850	         1.08023e+58
          1187.40480	         1.20253e+58
          1188.21110	         1.88804e+58
          1189.01740	         1.07182e+58
          1189.82370	         7.04429e+57
          1190.63000	         1.20262e+58
          1191.43630	         1.82222e+58
          1192.24260	         1.19514e+58
          1193.04890	         1.52765e+58
          1193.85520	         9.55055e+57
          1194.66150	         6.68072e+57
          1195.46780	         1.20379e+58
          1196.27410	         1.30615e+58
          1197.08040	         1.10673e+58
          1197.88670	         1.06701e+58
          1198.69300	         1.19192e+58
          1199.49930	         1.40484e+58
          1200.30560	         1.14068e+58
          1201.11190	         1.53728e+58
          1201.91820	         1.13083e+58
          1202.72450	         7.43604e+57
          1203.53080	         1.61299e+58
          1204.33710	         1.06179e+58
          1205.14340	         3.84693e+57
          1205.94970	         5.99064e+57
          1206.75600	         6.22134e+57
          1207.56230	         4.16015e+57
          1208.36860	         7.02936e+57
          1209.17490	         2.73475e+57
          1209.98120	         6.91997e+57
          1210.78750	         8.29190e+57
          1211.59380	         1.04445e+58
          1212.40010	         1.75380e+58
          1213.20640	         2.06708e+58
          1214.01270	         2.04919e+58
          1214.81900	         2.27209e+58
          1215.62530	         4.50101e+58
          1216.43160	         9.18573e+58
          1217.23790	         1.49642e+59
          1218.04420	         1.21279e+59
          1218.85050	         8.84981e+58
          1219.65680	         5.47065e+58
          1220.46310	         3.37385e+58
          1221.26940	         2.32212e+58
          1222.07570	         1.14908e+58
          1222.88200	         9.33839e+57
          1223.68830	         1.07073e+58
          1224.49460	         7.02986e+57
          1225.30090	         2.94568e+57
          1226.10720	         3.18263e+57
          1226.91350	         5.93337e+57
          1227.71980	         7.33568e+57
          1228.52610	         1.49350e+58
          1229.33240	         9.22866e+57
          1230.13870	         8.33156e+57
          1230.94500	         1.10121e+58
          1231.75130	         5.73408e+57
          1232.55760	         7.09318e+57
          1233.36390	         9.34827e+57
          1234.17020	         9.74617e+57
          1234.97650	         6.27051e+57
          1235.78280	         7.10096e+57
          1236.58910	         8.52390e+57
          1237.39540	         1.04634e+58
          1238.20170	         1.13281e+58
          1239.00800	         1.27442e+58
          1239.81430	         1.58673e+58
          1240.62060	         1.30346e+58
          1241.42690	         9.27542e+57
          1242.23320	         1.34787e+58
          1243.03950	         1.07312e+58
          1243.84580	         7.69904e+57
          1244.65210	         1.18881e+58
          1245.45840	         1.36679e+58
          1246.26470	         1.05120e+58
          1247.07100	         8.19934e+57
          1247.87730	         5.25963e+57
          1248.68360	         6.44438e+57
          1249.48990	         6.66341e+57
          1250.29620	         6.98574e+57
          1251.10250	         6.08357e+57
          1251.90880	         6.35129e+57
          1252.71510	         4.75571e+57
          1253.52140	         6.31070e+57
          1254.32770	         7.57623e+57
          1255.13400	         1.01536e+58
          1255.94030	         1.14821e+58
          1256.74660	         1.21041e+58
          1257.55290	         1.26668e+58
          1258.35920	         9.83412e+57
          1259.16550	         5.63286e+57
          1259.97180	         5.23483e+57
          1260.77810	         7.83712e+57
          1261.58440	         1.20989e+58
          1262.39070	         9.28214e+57
          1263.19700	         9.73006e+57
          1264.00330	         1.29187e+58
          1264.80960	         1.35169e+58
          1265.61590	         1.28061e+58
          1266.42220	         1.03706e+58
          1267.22850	         8.39870e+57
          1268.03480	         1.30362e+58
          1268.84110	         1.57876e+58
          1269.64740	         1.46354e+58
          1270.45370	         1.32147e+58
          1271.26000	         1.29213e+58
          1272.06630	         1.37856e+58
          1272.87260	         1.34194e+58
          1273.67890	         1.35931e+58
          1274.48520	         1.31728e+58
          1275.29150	         1.29091e+58
          1276.09780	         1.02684e+58
          1276.90410	         1.42844e+58
          1277.71040	         1.45891e+58
          1278.51670	         1.26455e+58
          1279.32300	         1.53160e+58
          1280.12930	         1.38398e+58
          1280.93560	         1.14431e+58
          1281.74190	         1.24765e+58
          1282.54820	         1.40694e+58
          1283.35450	         1.06487e+58
          1284.16080	         1.06924e+58
          1284.96710	         1.43795e+58
          1285.77340	         1.03331e+58
          1286.57970	         1.08678e+58
          1287.38600	         1.50307e+58
          1288.19230	         1.74451e+58
          1288.99860	         1.49621e+58
          1289.80490	         1.14467e+58
          1290.61120	         1.42167e+58
          1291.41750	         1.50703e+58
          1292.22380	         1.07576e+58
          1293.03010	         9.95133e+57
          1293.83640	         1.15983e+58
          1294.64270	         1.02706e+58
          1295.44900	         6.02193e+57
          1296.25530	         6.71388e+57
          1297.06160	         8.97369e+57
          1297.86790	         1.02101e+58
          1298.67420	         1.16360e+58
          1299.48050	         1.06394e+58
          1300.28680	         1.01886e+58
          1301.09310	         8.52138e+57
          1301.89940	         4.96242e+57
          1302.70570	         7.50941e+57
          1303.51200	         8.53004e+57
          1304.31830	         9.55253e+57
          1305.12460	         1.15520e+58
          1305.93090	         1.40161e+58
          1306.73720	         1.47980e+58
          1307.54350	         1.51802e+58
          1308.34980	         1.52456e+58
          1309.15610	         1.67352e+58
          1309.96240	         1.73397e+58
          1310.76870	         1.50690e+58
          1311.57500	         1.19665e+58
          1312.38130	         1.22507e+58
          1313.18760	         1.44222e+58
          1313.99390	         1.54560e+58
          1314.80020	         1.61969e+58
          1315.60650	         1.54749e+58
          1316.41280	         1.23170e+58
          1317.21910	         9.75880e+57
          1318.02540	         1.03739e+58
          1318.83170	         1.15022e+58
          1319.63800	         1.22973e+58
          1320.44430	         1.17331e+58
          1321.25060	         1.29942e+58
          1322.05690	         1.30902e+58
          1322.86320	         1.28715e+58
          1323.66950	         1.25427e+58
          1324.47580	         1.14360e+58
          1325.28210	         1.09026e+58
          1326.08840	         1.18253e+58
          1326.89470	         1.39060e+58
          1327.70100	         1.17037e+58
          1328.50730	         7.93007e+57
          1329.31360	         9.06590e+57
          1330.11990	         1.02116e+58
          1330.92620	         1.02017e+58
          1331.73250	         1.12492e+58
          1332.53880	         1.08921e+58
          1333.34510	         1.05090e+58
          1334.15140	         1.04432e+58
          1334.95770	         9.16507e+57
          1335.76400	         9.80695e+57
          1336.57030	         1.10294e+58
          1337.37660	         1.11642e+58
          1338.18290	         1.10224e+58
          1338.98920	         1.23378e+58
          1339.79550	         1.22219e+58
          1340.60180	         1.31836e+58
          1341.40810	         1.48125e+58
          1342.21440	         1.12305e+58
          1343.02070	         1.14984e+58
          1343.82700	         1.32314e+58
          1344.63330	         1.43240e+58
          1345.43960	         1.50633e+58
          1346.24590	         1.13566e+58
          1347.05220	         1.27310e+58
          1347.85850	         9.81625e+57
          1348.66480	         1.16294e+58
          1349.47110	         1.38807e+58
          1350.27740	         1.28928e+58
          1351.08370	         1.18002e+58
          1351.89000	         1.23270e+58
          1352.69630	         1.21845e+58
          1353.50260	         1.21128e+58
          1354.30890	         1.18483e+58
          1355.11520	         1.12796e+58
          1355.92150	         1.14100e+58
          1356.72780	         9.77054e+57
          1357.53410	         9.67816e+57
          1358.34040	         1.18394e+58
          1359.14670	         1.17793e+58
          1359.95300	         1.14843e+58
          1360.75930	         1.09301e+58
          1361.56560	         1.10237e+58
          1362.37190	         1.22560e+58
          1363.17820	         1.19446e+58
          1363.98450	         1.20047e+58
          1364.79080	         1.27564e+58
          1365.59710	         1.32565e+58
          1366.40340	         1.19166e+58
          1367.20970	         1.03026e+58
          1368.01600	         1.02357e+58
          1368.82230	         1.11583e+58
          1369.62860	         1.14503e+58
          1370.43490	         8.51144e+57
          1371.24120	         8.51553e+57
          1372.04750	         8.47969e+57
          1372.85380	         9.29779e+57
          1373.66010	         9.72417e+57
          1374.46640	         1.04284e+58
          1375.27270	         1.11879e+58
          1376.07900	         9.14331e+57
          1376.88530	         9.78256e+57
          1377.69160	         1.00935e+58
          1378.49790	         8.38854e+57
          1379.30420	         7.92148e+57
          1380.11050	         9.20740e+57
          1380.91680	         7.88552e+57
          1381.72310	         7.13280e+57
          1382.52940	         8.16521e+57
          1383.33570	         8.41674e+57
          1384.14200	         8.60352e+57
          1384.94830	         1.13197e+58
          1385.75460	         1.20829e+58
          1386.56090	         1.07583e+58
          1387.36720	         1.14810e+58
          1388.17350	         1.30068e+58
          1388.97980	         1.15037e+58
          1389.78610	         8.91412e+57
          1390.59240	         8.46342e+57
          1391.39870	         8.84569e+57
          1392.20500	         9.89222e+57
          1393.01130	         7.87200e+57
          1393.81760	         7.39966e+57
          1394.62390	         8.37785e+57
          1395.43020	         7.04364e+57
          1396.23650	         7.19423e+57
          1397.04280	         8.24546e+57
          1397.84910	         8.78092e+57
          1398.65540	         9.14631e+57
          1399.46170	         1.02677e+58
          1400.26800	         9.65062e+57
          1401.07430	         8.19358e+57
          1401.88060	         8.14427e+57
          1402.68690	         9.47938e+57
          1403.49320	         9.44723e+57
          1404.29950	         9.53523e+57
          1405.10580	         1.15647e+58
          1405.91210	         1.25628e+58
          1406.71840	         1.23795e+58
          1407.52470	         1.11708e+58
          1408.33100	         9.98247e+57
          1409.13730	         1.07103e+58
          1409.94360	         1.06417e+58
          1410.74990	         1.10714e+58
          1411.55620	         1.05315e+58
          1412.36250	         9.12537e+57
          1413.16880	         9.65248e+57
          1413.97510	         8.49720e+57
          1414.78140	         9.10323e+57
          1415.58770	         1.07374e+58
          1416.39400	         1.19855e+58
          1417.20030	         1.11017e+58
          1418.00660	         1.13221e+58
          1418.81290	         1.21716e+58
          1419.61920	         1.15337e+58
          1420.42550	         1.16024e+58
          1421.23180	         1.43896e+58
          1422.03810	         1.26145e+58
          1422.84440	         1.19792e+58
          1423.65070	         1.50938e+58
          1424.45700	         1.28105e+58
          1425.26330	         1.01556e+58
          1426.06960	         1.00319e+58
          1426.87590	         1.01876e+58
          1427.68220	         9.81979e+57
          1428.48850	         1.08959e+58
          1429.29480	         1.15179e+58
          1430.10110	         1.10149e+58
          1430.90740	         8.94338e+57
          1431.71370	         9.06372e+57
          1432.52000	         9.48931e+57
          1433.32630	         8.80249e+57
          1434.13260	         7.48887e+57
          1434.93890	         8.80364e+57
          1435.74520	         9.90487e+57
          1436.55150	         1.03385e+58
          1437.35780	         8.85772e+57
          1438.16410	         9.07646e+57
          1438.97040	         1.08462e+58
          1439.77670	         1.09796e+58
          1440.58300	         9.84675e+57
          1441.38930	         9.39200e+57
          1442.19560	         9.94972e+57
          1443.00190	         1.04806e+58
          1443.80820	         1.16867e+58
          1444.61450	         9.30184e+57
          1445.42080	         7.69247e+57
          1446.22710	         1.05944e+58
          1447.03340	         1.00859e+58
          1447.83970	         1.03256e+58
          1448.64600	         1.12142e+58
          1449.45230	         1.04950e+58
          1450.25860	         9.57656e+57
          1451.06490	         9.36821e+57
          1451.87120	         7.97735e+57
          1452.67750	         8.00816e+57
          1453.48380	         1.00078e+58
          1454.29010	         9.05018e+57
          1455.09640	         7.82473e+57
          1455.90270	         8.78430e+57
          1456.70900	         8.35328e+57
          1457.51530	         8.93799e+57
          1458.32160	         1.17786e+58
          1459.12790	         1.17101e+58
          1459.93420	         1.03247e+58
          1460.74050	         8.47215e+57
          1461.54680	         8.35427e+57
          1462.35310	         9.15114e+57
          1463.15940	         1.13343e+58
          1463.96570	         1.29538e+58
          1464.77200	         1.29492e+58
          1465.57830	         1.13397e+58
          1466.38460	         1.00143e+58
          1467.19090	         8.75030e+57
          1467.99720	         9.52451e+57
          1468.80350	         1.06549e+58
          1469.60980	         1.02877e+58
          1470.41610	         1.03875e+58
          1471.22240	         1.02527e+58
          1472.02870	         1.00397e+58
          1472.83500	         1.02403e+58
          1473.64130	         1.03280e+58
          1474.44760	         9.52662e+57
          1475.25390	         9.15174e+57
          1476.06020	         9.75668e+57
          1476.86650	         9.29453e+57
          1477.67280	         7.79030e+57
          1478.47910	         7.61268e+57
          1479.28540	         7.04498e+57
          1480.09170	         8.66524e+57
          1480.89800	         8.84938e+57
          1481.70430	         7.97789e+57
          1482.51060	         8.30500e+57
          1483.31690	         8.34474e+57
          1484.12320	         7.26710e+57
          1484.92950	         7.62147e+57
          1485.73580	         8.32879e+57
          1486.54210	         8.36901e+57
          1487.34840	         8.49922e+57
          1488.15470	         8.10545e+57
          1488.96100	         8.66035e+57
          1489.76730	         9.26398e+57
