#sample_120_stacked_spectrum_rest_UV-bands_median_H-alpha_noDC.txt
#median Lum: 1.70195e+42
#Rest-frame wavelength (A) | Luminosity (erg/s/A)
#
          1110.00000	         0.00000e+00
          1110.80630	        -2.98792e+59
          1111.61260	         4.16134e+59
          1112.41890	         2.90924e+59
          1113.22520	        -8.34123e+58
          1114.03150	        -1.04913e+57
          1114.83780	         2.75799e+59
          1115.64410	         1.81914e+59
          1116.45040	         1.22858e+59
          1117.25670	        -1.63274e+59
          1118.06300	         9.47460e+58
          1118.86930	        -1.01445e+59
          1119.67560	         6.88719e+58
          1120.48190	        -5.20754e+58
          1121.28820	        -1.58575e+59
          1122.09450	         1.42865e+58
          1122.90080	         1.20018e+58
          1123.70710	         1.14981e+58
          1124.51340	         6.65195e+58
          1125.31970	        -2.31359e+58
          1126.12600	        -1.60749e+58
          1126.93230	        -3.17731e+58
          1127.73860	        -6.15314e+58
          1128.54490	        -6.54752e+57
          1129.35120	        -2.24372e+58
          1130.15750	        -6.05804e+57
          1130.96380	        -3.56689e+58
          1131.77010	         8.58174e+58
          1132.57640	         2.82729e+57
          1133.38270	        -6.09803e+57
          1134.18900	        -5.28931e+57
          1134.99530	         1.68661e+58
          1135.80160	         1.67455e+58
          1136.60790	         3.68903e+58
          1137.41420	         9.86683e+57
          1138.22050	         4.29127e+58
          1139.02680	         2.03418e+58
          1139.83310	         2.32273e+58
          1140.63940	         1.21561e+58
          1141.44570	        -1.58237e+58
          1142.25200	        -1.12540e+58
          1143.05830	         2.61411e+58
          1143.86460	         3.79905e+58
          1144.67090	         4.66384e+58
          1145.47720	         2.40910e+58
          1146.28350	         3.12425e+57
          1147.08980	         1.24845e+58
          1147.89610	         1.53116e+58
          1148.70240	         3.39777e+58
          1149.50870	         3.74906e+58
          1150.31500	         2.18619e+58
          1151.12130	         4.71517e+57
          1151.92760	        -1.43772e+57
          1152.73390	         2.70888e+57
          1153.54020	         5.72594e+57
          1154.34650	         2.35798e+58
          1155.15280	         2.20271e+58
          1155.95910	         1.34149e+58
          1156.76540	         3.27581e+57
          1157.57170	        -1.18119e+58
          1158.37800	        -1.38264e+58
          1159.18430	        -8.32001e+56
          1159.99060	         5.96374e+57
          1160.79690	         5.59280e+56
          1161.60320	         1.04221e+58
          1162.40950	         7.29049e+57
          1163.21580	         1.52689e+58
          1164.02210	         1.43409e+58
          1164.82840	         9.34004e+57
          1165.63470	         2.86679e+58
          1166.44100	         2.66533e+58
          1167.24730	         1.67551e+58
          1168.05360	         9.45582e+57
          1168.85990	         6.36913e+57
          1169.66620	         9.11864e+57
          1170.47250	         1.44912e+58
          1171.27880	         1.10190e+58
          1172.08510	         1.23293e+58
          1172.89140	         1.24956e+58
          1173.69770	         5.52524e+57
          1174.50400	         9.37747e+57
          1175.31030	         1.45287e+58
          1176.11660	         1.88820e+58
          1176.92290	         1.34637e+58
          1177.72920	         1.26993e+58
          1178.53550	         9.21967e+57
          1179.34180	         1.92699e+57
          1180.14810	         1.01998e+58
          1180.95440	         1.37712e+58
          1181.76070	         1.14162e+58
          1182.56700	         1.11557e+58
          1183.37330	         9.25709e+57
          1184.17960	         1.25545e+58
          1184.98590	         1.37052e+58
          1185.79220	         7.67130e+57
          1186.59850	         9.33050e+57
          1187.40480	         9.97744e+57
          1188.21110	         1.73951e+58
          1189.01740	         1.38450e+58
          1189.82370	         1.53332e+58
          1190.63000	         1.50667e+58
          1191.43630	         1.45450e+58
          1192.24260	         1.40070e+58
          1193.04890	         1.27782e+58
          1193.85520	         1.26927e+58
          1194.66150	         5.40287e+57
          1195.46780	         9.91493e+57
          1196.27410	         1.52498e+58
          1197.08040	         1.04250e+58
          1197.88670	         1.39653e+58
          1198.69300	         1.70224e+58
          1199.49930	         1.74617e+58
          1200.30560	         1.08504e+58
          1201.11190	         9.35723e+57
          1201.91820	         1.11264e+58
          1202.72450	         8.58632e+57
          1203.53080	         1.54817e+58
          1204.33710	         8.45480e+57
          1205.14340	         9.57093e+57
          1205.94970	         7.88805e+57
          1206.75600	         8.52243e+57
          1207.56230	         6.58093e+57
          1208.36860	         9.67604e+57
          1209.17490	         5.96871e+57
          1209.98120	         4.85384e+57
          1210.78750	         8.69438e+57
          1211.59380	         1.24173e+58
          1212.40010	         1.81283e+58
          1213.20640	         2.11055e+58
          1214.01270	         2.03705e+58
          1214.81900	         2.45898e+58
          1215.62530	         4.77049e+58
          1216.43160	         9.36960e+58
          1217.23790	         1.53862e+59
          1218.04420	         1.14936e+59
          1218.85050	         8.52357e+58
          1219.65680	         5.88911e+58
          1220.46310	         3.73953e+58
          1221.26940	         2.05603e+58
          1222.07570	         8.69416e+57
          1222.88200	         1.04636e+58
          1223.68830	         6.28078e+57
          1224.49460	         4.50204e+57
          1225.30090	         6.86362e+57
          1226.10720	         5.66680e+57
          1226.91350	         6.39629e+57
          1227.71980	         8.30159e+57
          1228.52610	         1.47973e+58
          1229.33240	         1.34618e+58
          1230.13870	         8.11532e+57
          1230.94500	         6.52590e+57
          1231.75130	         5.43076e+57
          1232.55760	         7.12021e+57
          1233.36390	         6.24371e+57
          1234.17020	         6.19057e+57
          1234.97650	         6.62830e+57
          1235.78280	         7.97472e+57
          1236.58910	         9.80877e+57
          1237.39540	         1.01417e+58
          1238.20170	         9.55811e+57
          1239.00800	         1.08555e+58
          1239.81430	         1.25850e+58
          1240.62060	         9.26416e+57
          1241.42690	         1.01399e+58
          1242.23320	         1.17116e+58
          1243.03950	         1.02793e+58
          1243.84580	         1.03435e+58
          1244.65210	         1.03457e+58
          1245.45840	         1.12901e+58
          1246.26470	         1.13932e+58
          1247.07100	         7.91041e+57
          1247.87730	         6.28195e+57
          1248.68360	         4.81550e+57
          1249.48990	         6.87014e+57
          1250.29620	         1.07605e+58
          1251.10250	         1.05718e+58
          1251.90880	         7.29591e+57
          1252.71510	         6.71804e+57
          1253.52140	         6.71531e+57
          1254.32770	         9.71929e+57
          1255.13400	         1.37688e+58
          1255.94030	         9.61591e+57
          1256.74660	         7.66997e+57
          1257.55290	         1.11204e+58
          1258.35920	         1.06427e+58
          1259.16550	         7.85645e+57
          1259.97180	         6.29767e+57
          1260.77810	         8.33975e+57
          1261.58440	         1.05991e+58
          1262.39070	         8.07655e+57
          1263.19700	         7.25790e+57
          1264.00330	         8.16180e+57
          1264.80960	         1.08803e+58
          1265.61590	         1.26619e+58
          1266.42220	         1.32178e+58
          1267.22850	         1.20555e+58
          1268.03480	         1.33679e+58
          1268.84110	         1.29933e+58
          1269.64740	         1.12352e+58
          1270.45370	         1.25621e+58
          1271.26000	         9.83959e+57
          1272.06630	         9.91519e+57
          1272.87260	         1.34322e+58
          1273.67890	         1.39044e+58
          1274.48520	         1.43662e+58
          1275.29150	         1.31591e+58
          1276.09780	         1.24431e+58
          1276.90410	         1.49454e+58
          1277.71040	         1.45109e+58
          1278.51670	         1.31640e+58
          1279.32300	         1.36244e+58
          1280.12930	         1.22571e+58
          1280.93560	         1.04453e+58
          1281.74190	         1.18012e+58
          1282.54820	         1.15936e+58
          1283.35450	         9.90554e+57
          1284.16080	         1.07784e+58
          1284.96710	         1.08649e+58
          1285.77340	         9.65894e+57
          1286.57970	         1.13500e+58
          1287.38600	         1.62561e+58
          1288.19230	         1.91424e+58
          1288.99860	         1.69739e+58
          1289.80490	         1.23484e+58
          1290.61120	         1.44041e+58
          1291.41750	         1.44432e+58
          1292.22380	         1.23377e+58
          1293.03010	         1.17895e+58
          1293.83640	         1.11597e+58
          1294.64270	         8.14144e+57
          1295.44900	         5.93065e+57
          1296.25530	         6.80282e+57
          1297.06160	         1.03233e+58
          1297.86790	         1.09657e+58
          1298.67420	         8.08125e+57
          1299.48050	         6.29704e+57
          1300.28680	         9.37928e+57
          1301.09310	         8.69251e+57
          1301.89940	         4.78162e+57
          1302.70570	         6.38488e+57
          1303.51200	         8.24867e+57
          1304.31830	         9.63893e+57
          1305.12460	         1.16090e+58
          1305.93090	         1.24309e+58
          1306.73720	         1.25855e+58
          1307.54350	         1.24519e+58
          1308.34980	         1.25334e+58
          1309.15610	         1.48803e+58
          1309.96240	         1.31854e+58
          1310.76870	         1.01126e+58
          1311.57500	         1.04541e+58
          1312.38130	         9.93629e+57
          1313.18760	         1.16176e+58
          1313.99390	         1.63334e+58
          1314.80020	         1.56883e+58
          1315.60650	         1.19422e+58
          1316.41280	         1.10029e+58
          1317.21910	         1.11421e+58
          1318.02540	         1.18718e+58
          1318.83170	         1.34097e+58
          1319.63800	         1.20488e+58
          1320.44430	         9.65552e+57
          1321.25060	         1.16146e+58
          1322.05690	         1.38511e+58
          1322.86320	         1.26305e+58
          1323.66950	         1.06123e+58
          1324.47580	         9.73595e+57
          1325.28210	         9.94843e+57
          1326.08840	         1.06625e+58
          1326.89470	         1.13940e+58
          1327.70100	         9.37741e+57
          1328.50730	         8.30642e+57
          1329.31360	         9.66722e+57
          1330.11990	         9.51677e+57
          1330.92620	         9.05130e+57
          1331.73250	         1.12712e+58
          1332.53880	         1.06134e+58
          1333.34510	         9.22946e+57
          1334.15140	         9.30187e+57
          1334.95770	         9.27431e+57
          1335.76400	         1.09369e+58
          1336.57030	         1.12651e+58
          1337.37660	         1.04508e+58
          1338.18290	         1.16973e+58
          1338.98920	         1.19834e+58
          1339.79550	         1.10691e+58
          1340.60180	         1.36197e+58
          1341.40810	         1.50150e+58
          1342.21440	         1.15725e+58
          1343.02070	         1.23922e+58
          1343.82700	         1.34294e+58
          1344.63330	         1.23133e+58
          1345.43960	         1.17425e+58
          1346.24590	         1.05985e+58
          1347.05220	         1.24829e+58
          1347.85850	         1.16064e+58
          1348.66480	         9.87716e+57
          1349.47110	         1.02427e+58
          1350.27740	         1.06292e+58
          1351.08370	         1.10922e+58
          1351.89000	         1.03743e+58
          1352.69630	         1.07404e+58
          1353.50260	         1.14635e+58
          1354.30890	         1.16579e+58
          1355.11520	         1.06493e+58
          1355.92150	         1.01594e+58
          1356.72780	         1.08957e+58
          1357.53410	         1.12409e+58
          1358.34040	         1.12546e+58
          1359.14670	         1.17092e+58
          1359.95300	         1.26967e+58
          1360.75930	         1.18277e+58
          1361.56560	         1.07882e+58
          1362.37190	         1.19181e+58
          1363.17820	         1.06523e+58
          1363.98450	         1.05399e+58
          1364.79080	         1.22175e+58
          1365.59710	         1.27467e+58
          1366.40340	         1.17181e+58
          1367.20970	         1.05166e+58
          1368.01600	         1.03024e+58
          1368.82230	         8.87437e+57
          1369.62860	         9.39803e+57
          1370.43490	         8.72826e+57
          1371.24120	         9.23905e+57
          1372.04750	         8.70522e+57
          1372.85380	         1.15432e+58
          1373.66010	         1.10692e+58
          1374.46640	         9.45124e+57
          1375.27270	         9.99085e+57
          1376.07900	         9.41374e+57
          1376.88530	         9.23029e+57
          1377.69160	         9.49896e+57
          1378.49790	         7.17972e+57
          1379.30420	         7.48980e+57
          1380.11050	         9.02742e+57
          1380.91680	         7.80619e+57
          1381.72310	         7.22425e+57
          1382.52940	         7.92055e+57
          1383.33570	         7.90960e+57
          1384.14200	         9.36053e+57
          1384.94830	         1.15642e+58
          1385.75460	         1.04481e+58
          1386.56090	         1.13575e+58
          1387.36720	         1.24442e+58
          1388.17350	         1.35263e+58
          1388.97980	         1.16222e+58
          1389.78610	         1.00273e+58
          1390.59240	         8.48809e+57
          1391.39870	         7.47319e+57
          1392.20500	         7.50764e+57
          1393.01130	         7.60414e+57
          1393.81760	         6.89286e+57
          1394.62390	         7.28993e+57
          1395.43020	         6.84428e+57
          1396.23650	         7.52967e+57
          1397.04280	         8.45426e+57
          1397.84910	         9.09648e+57
          1398.65540	         9.17958e+57
          1399.46170	         1.05686e+58
          1400.26800	         8.87359e+57
          1401.07430	         7.50151e+57
          1401.88060	         8.57660e+57
          1402.68690	         9.14812e+57
          1403.49320	         9.58901e+57
          1404.29950	         9.52086e+57
          1405.10580	         1.03556e+58
          1405.91210	         1.09148e+58
          1406.71840	         9.55660e+57
          1407.52470	         1.01019e+58
          1408.33100	         1.10806e+58
          1409.13730	         1.12175e+58
          1409.94360	         1.07469e+58
          1410.74990	         1.14751e+58
          1411.55620	         1.10939e+58
          1412.36250	         9.02574e+57
          1413.16880	         7.92314e+57
          1413.97510	         7.74011e+57
          1414.78140	         7.98792e+57
          1415.58770	         1.03084e+58
          1416.39400	         1.08802e+58
          1417.20030	         1.07591e+58
          1418.00660	         1.04759e+58
          1418.81290	         1.13185e+58
          1419.61920	         1.15109e+58
          1420.42550	         1.19276e+58
          1421.23180	         1.28251e+58
          1422.03810	         1.21936e+58
          1422.84440	         1.15416e+58
          1423.65070	         1.24980e+58
          1424.45700	         1.20699e+58
          1425.26330	         9.61928e+57
          1426.06960	         8.90770e+57
          1426.87590	         9.37169e+57
          1427.68220	         1.00203e+58
          1428.48850	         1.10448e+58
          1429.29480	         1.05259e+58
          1430.10110	         9.58383e+57
          1430.90740	         8.44927e+57
          1431.71370	         9.30233e+57
          1432.52000	         8.92257e+57
          1433.32630	         7.26178e+57
          1434.13260	         7.24224e+57
          1434.93890	         7.88043e+57
          1435.74520	         8.39076e+57
          1436.55150	         8.86863e+57
          1437.35780	         8.49305e+57
          1438.16410	         9.91067e+57
          1438.97040	         9.68855e+57
          1439.77670	         9.15254e+57
          1440.58300	         9.39134e+57
          1441.38930	         8.45323e+57
          1442.19560	         8.44693e+57
          1443.00190	         9.08011e+57
          1443.80820	         1.09147e+58
          1444.61450	         1.04539e+58
          1445.42080	         9.22659e+57
          1446.22710	         1.03686e+58
          1447.03340	         9.59479e+57
          1447.83970	         1.08080e+58
          1448.64600	         1.10098e+58
          1449.45230	         9.91619e+57
          1450.25860	         9.47891e+57
          1451.06490	         8.09440e+57
          1451.87120	         7.30425e+57
          1452.67750	         7.34616e+57
          1453.48380	         8.82634e+57
          1454.29010	         8.40588e+57
          1455.09640	         7.67952e+57
          1455.90270	         9.43046e+57
          1456.70900	         9.93137e+57
          1457.51530	         1.06657e+58
          1458.32160	         1.27702e+58
          1459.12790	         1.19222e+58
          1459.93420	         8.82488e+57
          1460.74050	         6.79759e+57
          1461.54680	         7.71785e+57
          1462.35310	         7.96883e+57
          1463.15940	         9.25902e+57
          1463.96570	         1.12547e+58
          1464.77200	         1.24984e+58
          1465.57830	         1.16774e+58
          1466.38460	         8.99801e+57
          1467.19090	         7.92620e+57
          1467.99720	         9.56061e+57
          1468.80350	         1.04323e+58
          1469.60980	         1.01216e+58
          1470.41610	         1.07739e+58
          1471.22240	         1.00185e+58
          1472.02870	         9.20160e+57
          1472.83500	         8.74139e+57
          1473.64130	         9.01021e+57
          1474.44760	         8.44301e+57
          1475.25390	         7.68808e+57
          1476.06020	         7.88428e+57
          1476.86650	         7.48943e+57
          1477.67280	         7.14293e+57
          1478.47910	         6.17417e+57
          1479.28540	         6.64932e+57
          1480.09170	         7.15551e+57
          1480.89800	         6.51781e+57
          1481.70430	         7.77415e+57
          1482.51060	         8.39737e+57
          1483.31690	         7.14466e+57
          1484.12320	         7.32090e+57
          1484.92950	         7.71812e+57
          1485.73580	         7.97263e+57
          1486.54210	         8.93647e+57
          1487.34840	         1.00789e+58
          1488.15470	         8.96914e+57
          1488.96100	         9.36146e+57
          1489.76730	         9.27379e+57
