#sample_386_stacked_spectrum_rest_UV-bands_median_H-alpha_noDC.txt
#median Lum: 1.70748e+42
#Rest-frame wavelength (A) | Luminosity (erg/s/A)
#
          1110.00000	         0.00000e+00
          1110.80630	         1.85640e+59
          1111.61260	         1.41204e+59
          1112.41890	         2.09079e+59
          1113.22520	        -5.13310e+58
          1114.03150	        -1.87482e+59
          1114.83780	         4.25252e+58
          1115.64410	         2.33497e+58
          1116.45040	         2.05036e+59
          1117.25670	         1.67455e+59
          1118.06300	         2.17020e+59
          1118.86930	         1.95134e+58
          1119.67560	        -1.78666e+58
          1120.48190	        -5.05314e+58
          1121.28820	        -1.25472e+59
          1122.09450	        -4.56063e+57
          1122.90080	         3.78361e+58
          1123.70710	         7.31619e+58
          1124.51340	         5.62373e+58
          1125.31970	        -4.57863e+58
          1126.12600	         4.30049e+58
          1126.93230	         9.54271e+56
          1127.73860	        -9.36735e+58
          1128.54490	        -3.40688e+58
          1129.35120	         3.65583e+58
          1130.15750	        -5.35349e+58
          1130.96380	        -5.59301e+57
          1131.77010	         5.66171e+58
          1132.57640	         7.18236e+58
          1133.38270	         5.39809e+58
          1134.18900	         2.51364e+58
          1134.99530	         3.92447e+58
          1135.80160	         1.89691e+58
          1136.60790	         1.46607e+58
          1137.41420	         1.78429e+57
          1138.22050	         4.73673e+58
          1139.02680	         2.11911e+58
          1139.83310	         2.14966e+58
          1140.63940	         2.67739e+58
          1141.44570	         2.19779e+57
          1142.25200	        -1.58866e+58
          1143.05830	         2.03808e+58
          1143.86460	         3.83417e+58
          1144.67090	         2.61041e+58
          1145.47720	         2.13111e+58
          1146.28350	         2.34119e+58
          1147.08980	         1.72483e+58
          1147.89610	         8.89385e+57
          1148.70240	         1.11772e+58
          1149.50870	         2.63066e+58
          1150.31500	         1.57002e+58
          1151.12130	         7.98939e+57
          1151.92760	        -2.25939e+57
          1152.73390	        -3.26518e+57
          1153.54020	         3.92987e+57
          1154.34650	         2.74190e+58
          1155.15280	         2.78441e+58
          1155.95910	         1.32003e+58
          1156.76540	        -1.07848e+57
          1157.57170	        -1.04224e+58
          1158.37800	         1.20053e+58
          1159.18430	         7.17272e+57
          1159.99060	         1.57921e+58
          1160.79690	         8.30094e+57
          1161.60320	         1.44863e+58
          1162.40950	         1.66866e+58
          1163.21580	         2.39304e+58
          1164.02210	         9.21574e+57
          1164.82840	         7.73024e+57
          1165.63470	         1.80129e+58
          1166.44100	         2.99212e+58
          1167.24730	         2.20020e+58
          1168.05360	         8.56386e+57
          1168.85990	         6.88629e+57
          1169.66620	         7.12426e+57
          1170.47250	         7.60064e+57
          1171.27880	         9.31339e+57
          1172.08510	         1.74455e+58
          1172.89140	         1.35692e+58
          1173.69770	         8.76070e+57
          1174.50400	         9.62635e+57
          1175.31030	         9.65987e+57
          1176.11660	         1.14841e+58
          1176.92290	         1.58768e+58
          1177.72920	         1.27578e+58
          1178.53550	         4.85592e+57
          1179.34180	         4.06303e+57
          1180.14810	         8.93023e+57
          1180.95440	         7.31276e+57
          1181.76070	         1.67111e+57
          1182.56700	         6.99872e+57
          1183.37330	         6.91658e+57
          1184.17960	         8.76680e+57
          1184.98590	         9.34254e+57
          1185.79220	         4.16605e+57
          1186.59850	         9.29647e+57
          1187.40480	         9.58748e+57
          1188.21110	         1.43337e+58
          1189.01740	         9.74843e+57
          1189.82370	         1.07266e+58
          1190.63000	         1.62764e+58
          1191.43630	         1.32157e+58
          1192.24260	         6.24142e+57
          1193.04890	         8.09263e+57
          1193.85520	         1.30403e+58
          1194.66150	         5.88035e+57
          1195.46780	         1.06223e+58
          1196.27410	         1.48777e+58
          1197.08040	         7.09303e+57
          1197.88670	         1.35891e+58
          1198.69300	         1.65163e+58
          1199.49930	         1.37102e+58
          1200.30560	         8.50698e+57
          1201.11190	         9.59607e+57
          1201.91820	         1.29409e+58
          1202.72450	         9.39692e+57
          1203.53080	         1.43748e+58
          1204.33710	         5.80613e+57
          1205.14340	         6.43094e+57
          1205.94970	         8.07860e+57
          1206.75600	         9.55452e+57
          1207.56230	         4.92315e+57
          1208.36860	         2.94449e+57
          1209.17490	         5.31901e+57
          1209.98120	         6.61400e+57
          1210.78750	         5.67097e+57
          1211.59380	         7.49662e+57
          1212.40010	         1.87393e+58
          1213.20640	         2.10798e+58
          1214.01270	         2.45527e+58
          1214.81900	         3.03576e+58
          1215.62530	         4.86442e+58
          1216.43160	         9.39400e+58
          1217.23790	         1.52654e+59
          1218.04420	         1.14982e+59
          1218.85050	         8.62003e+58
          1219.65680	         5.36064e+58
          1220.46310	         3.02379e+58
          1221.26940	         2.46300e+58
          1222.07570	         1.83140e+58
          1222.88200	         1.25089e+58
          1223.68830	         9.17399e+57
          1224.49460	         7.84359e+57
          1225.30090	         8.18889e+57
          1226.10720	         6.04959e+57
          1226.91350	         6.20973e+57
          1227.71980	         9.85689e+57
          1228.52610	         1.37155e+58
          1229.33240	         8.18299e+57
          1230.13870	         7.48686e+57
          1230.94500	         8.15984e+57
          1231.75130	         7.57307e+57
          1232.55760	         8.30548e+57
          1233.36390	         8.54863e+57
          1234.17020	         9.92676e+57
          1234.97650	         7.48095e+57
          1235.78280	         9.46220e+57
          1236.58910	         1.13949e+58
          1237.39540	         1.05413e+58
          1238.20170	         1.04820e+58
          1239.00800	         1.26280e+58
          1239.81430	         1.53685e+58
          1240.62060	         1.17164e+58
          1241.42690	         8.61766e+57
          1242.23320	         8.74138e+57
          1243.03950	         7.31041e+57
          1243.84580	         9.06634e+57
          1244.65210	         1.10204e+58
          1245.45840	         9.94733e+57
          1246.26470	         9.24415e+57
          1247.07100	         8.82807e+57
          1247.87730	         8.14756e+57
          1248.68360	         4.66273e+57
          1249.48990	         7.96700e+57
          1250.29620	         1.07973e+58
          1251.10250	         1.00452e+58
          1251.90880	         4.30276e+57
          1252.71510	         4.01114e+57
          1253.52140	         7.40071e+57
          1254.32770	         1.07509e+58
          1255.13400	         1.40467e+58
          1255.94030	         1.34910e+58
          1256.74660	         1.02271e+58
          1257.55290	         1.02179e+58
          1258.35920	         7.48491e+57
          1259.16550	         4.93719e+57
          1259.97180	         4.18898e+57
          1260.77810	         6.09436e+57
          1261.58440	         1.02549e+58
          1262.39070	         1.02675e+58
          1263.19700	         9.85715e+57
          1264.00330	         9.42577e+57
          1264.80960	         1.16648e+58
          1265.61590	         1.31214e+58
          1266.42220	         1.19039e+58
          1267.22850	         1.04409e+58
          1268.03480	         1.29713e+58
          1268.84110	         1.36715e+58
          1269.64740	         1.34486e+58
          1270.45370	         1.51986e+58
          1271.26000	         1.52157e+58
          1272.06630	         1.41359e+58
          1272.87260	         1.09156e+58
          1273.67890	         1.16642e+58
          1274.48520	         1.19946e+58
          1275.29150	         1.24530e+58
          1276.09780	         1.27700e+58
          1276.90410	         1.60896e+58
          1277.71040	         1.38121e+58
          1278.51670	         9.98221e+57
          1279.32300	         1.17889e+58
          1280.12930	         1.17130e+58
          1280.93560	         1.03276e+58
          1281.74190	         1.11798e+58
          1282.54820	         1.31633e+58
          1283.35450	         1.25651e+58
          1284.16080	         1.18108e+58
          1284.96710	         1.32628e+58
          1285.77340	         1.10926e+58
          1286.57970	         1.03100e+58
          1287.38600	         1.54930e+58
          1288.19230	         1.51777e+58
          1288.99860	         1.33644e+58
          1289.80490	         1.22575e+58
          1290.61120	         1.28764e+58
          1291.41750	         1.25812e+58
          1292.22380	         1.16619e+58
          1293.03010	         1.07366e+58
          1293.83640	         1.19920e+58
          1294.64270	         1.03219e+58
          1295.44900	         6.10199e+57
          1296.25530	         6.08820e+57
          1297.06160	         1.00188e+58
          1297.86790	         9.25919e+57
          1298.67420	         7.71204e+57
          1299.48050	         9.80765e+57
          1300.28680	         1.02450e+58
          1301.09310	         7.91001e+57
          1301.89940	         4.34158e+57
          1302.70570	         5.44241e+57
          1303.51200	         7.34572e+57
          1304.31830	         8.29843e+57
          1305.12460	         9.96322e+57
          1305.93090	         1.04575e+58
          1306.73720	         1.23908e+58
          1307.54350	         1.44706e+58
          1308.34980	         1.44122e+58
          1309.15610	         1.48677e+58
          1309.96240	         1.30592e+58
          1310.76870	         9.93409e+57
          1311.57500	         9.73725e+57
          1312.38130	         8.85851e+57
          1313.18760	         9.05378e+57
          1313.99390	         1.28008e+58
          1314.80020	         1.59304e+58
          1315.60650	         1.48501e+58
          1316.41280	         1.13473e+58
          1317.21910	         1.25747e+58
          1318.02540	         1.22924e+58
          1318.83170	         1.19096e+58
          1319.63800	         1.16578e+58
          1320.44430	         1.06331e+58
          1321.25060	         1.15250e+58
          1322.05690	         1.10076e+58
          1322.86320	         1.11577e+58
          1323.66950	         1.08129e+58
          1324.47580	         8.46388e+57
          1325.28210	         9.37248e+57
          1326.08840	         1.18718e+58
          1326.89470	         1.25429e+58
          1327.70100	         1.03108e+58
          1328.50730	         9.81624e+57
          1329.31360	         1.01029e+58
          1330.11990	         9.25220e+57
          1330.92620	         8.16033e+57
          1331.73250	         1.04159e+58
          1332.53880	         9.89391e+57
          1333.34510	         9.48643e+57
          1334.15140	         8.80985e+57
          1334.95770	         7.95343e+57
          1335.76400	         9.43933e+57
          1336.57030	         1.07396e+58
          1337.37660	         1.17472e+58
          1338.18290	         1.10206e+58
          1338.98920	         9.59729e+57
          1339.79550	         1.01203e+58
          1340.60180	         1.11743e+58
          1341.40810	         1.21632e+58
          1342.21440	         1.21639e+58
          1343.02070	         1.23816e+58
          1343.82700	         1.43367e+58
          1344.63330	         1.36959e+58
          1345.43960	         1.27452e+58
          1346.24590	         1.16746e+58
          1347.05220	         1.13650e+58
          1347.85850	         9.05551e+57
          1348.66480	         1.17921e+58
          1349.47110	         1.32773e+58
          1350.27740	         1.10821e+58
          1351.08370	         1.13711e+58
          1351.89000	         1.11912e+58
          1352.69630	         1.04665e+58
          1353.50260	         9.62452e+57
          1354.30890	         1.08406e+58
          1355.11520	         1.21139e+58
          1355.92150	         1.14093e+58
          1356.72780	         1.04916e+58
          1357.53410	         9.65151e+57
          1358.34040	         9.62636e+57
          1359.14670	         9.84961e+57
          1359.95300	         9.84060e+57
          1360.75930	         1.04521e+58
          1361.56560	         1.08560e+58
          1362.37190	         1.09351e+58
          1363.17820	         1.10645e+58
          1363.98450	         1.14575e+58
          1364.79080	         1.30228e+58
          1365.59710	         1.30193e+58
          1366.40340	         1.10853e+58
          1367.20970	         9.47703e+57
          1368.01600	         9.08551e+57
          1368.82230	         9.41900e+57
          1369.62860	         1.12748e+58
          1370.43490	         1.04310e+58
          1371.24120	         8.82524e+57
          1372.04750	         8.69326e+57
          1372.85380	         9.79029e+57
          1373.66010	         9.55364e+57
          1374.46640	         9.07874e+57
          1375.27270	         1.00255e+58
          1376.07900	         8.31399e+57
          1376.88530	         7.45246e+57
          1377.69160	         7.52089e+57
          1378.49790	         7.89358e+57
          1379.30420	         7.75028e+57
          1380.11050	         8.84767e+57
          1380.91680	         8.04136e+57
          1381.72310	         6.37834e+57
          1382.52940	         6.71504e+57
          1383.33570	         7.43858e+57
          1384.14200	         8.61920e+57
          1384.94830	         1.02192e+58
          1385.75460	         1.08808e+58
          1386.56090	         1.08473e+58
          1387.36720	         9.38721e+57
          1388.17350	         1.06536e+58
          1388.97980	         9.83576e+57
          1389.78610	         8.85671e+57
          1390.59240	         8.24772e+57
          1391.39870	         7.57727e+57
          1392.20500	         8.25397e+57
          1393.01130	         8.47065e+57
          1393.81760	         6.06061e+57
          1394.62390	         6.92866e+57
          1395.43020	         7.62381e+57
          1396.23650	         6.10401e+57
          1397.04280	         5.61146e+57
          1397.84910	         7.57657e+57
          1398.65540	         8.12371e+57
          1399.46170	         8.20777e+57
          1400.26800	         8.62646e+57
          1401.07430	         7.23156e+57
          1401.88060	         8.06531e+57
          1402.68690	         9.50879e+57
          1403.49320	         9.41011e+57
          1404.29950	         9.39504e+57
          1405.10580	         1.06601e+58
          1405.91210	         1.07421e+58
          1406.71840	         9.90011e+57
          1407.52470	         1.08317e+58
          1408.33100	         1.10754e+58
          1409.13730	         1.17394e+58
          1409.94360	         1.06740e+58
          1410.74990	         1.08277e+58
          1411.55620	         1.00697e+58
          1412.36250	         8.63486e+57
          1413.16880	         8.83551e+57
          1413.97510	         7.71295e+57
          1414.78140	         8.03881e+57
          1415.58770	         9.78642e+57
          1416.39400	         1.00216e+58
          1417.20030	         1.03175e+58
          1418.00660	         9.62294e+57
          1418.81290	         1.08545e+58
          1419.61920	         1.08638e+58
          1420.42550	         1.09797e+58
          1421.23180	         1.19988e+58
          1422.03810	         1.20002e+58
          1422.84440	         1.27198e+58
          1423.65070	         1.44353e+58
          1424.45700	         1.21355e+58
          1425.26330	         8.83775e+57
          1426.06960	         9.00841e+57
          1426.87590	         9.26218e+57
          1427.68220	         9.71837e+57
          1428.48850	         1.07769e+58
          1429.29480	         9.71230e+57
          1430.10110	         9.29715e+57
          1430.90740	         8.28621e+57
          1431.71370	         9.60879e+57
          1432.52000	         9.75416e+57
          1433.32630	         8.43839e+57
          1434.13260	         7.90929e+57
          1434.93890	         7.85228e+57
          1435.74520	         8.83648e+57
          1436.55150	         8.55185e+57
          1437.35780	         8.36563e+57
          1438.16410	         8.58712e+57
          1438.97040	         8.19006e+57
          1439.77670	         8.35045e+57
          1440.58300	         9.21394e+57
          1441.38930	         9.63462e+57
          1442.19560	         9.57708e+57
          1443.00190	         9.34735e+57
          1443.80820	         1.07679e+58
          1444.61450	         9.93916e+57
          1445.42080	         7.87360e+57
          1446.22710	         9.61050e+57
          1447.03340	         9.84436e+57
          1447.83970	         1.06759e+58
          1448.64600	         1.07918e+58
          1449.45230	         8.70350e+57
          1450.25860	         9.25289e+57
          1451.06490	         9.26454e+57
          1451.87120	         7.10767e+57
          1452.67750	         7.14441e+57
          1453.48380	         9.14894e+57
          1454.29010	         8.00325e+57
          1455.09640	         7.47216e+57
          1455.90270	         8.46980e+57
          1456.70900	         8.30267e+57
          1457.51530	         8.61391e+57
          1458.32160	         1.17530e+58
          1459.12790	         1.14004e+58
          1459.93420	         9.82906e+57
          1460.74050	         8.89322e+57
          1461.54680	         7.54595e+57
          1462.35310	         7.86676e+57
          1463.15940	         9.46306e+57
          1463.96570	         1.12975e+58
          1464.77200	         1.14370e+58
          1465.57830	         9.23716e+57
          1466.38460	         7.92331e+57
          1467.19090	         8.60922e+57
          1467.99720	         8.43348e+57
          1468.80350	         8.01736e+57
          1469.60980	         9.15814e+57
          1470.41610	         1.03928e+58
          1471.22240	         1.01194e+58
          1472.02870	         9.28159e+57
          1472.83500	         8.78186e+57
          1473.64130	         7.74781e+57
          1474.44760	         8.22321e+57
          1475.25390	         8.71508e+57
          1476.06020	         8.40393e+57
          1476.86650	         7.29497e+57
          1477.67280	         7.12911e+57
          1478.47910	         6.99082e+57
          1479.28540	         6.91944e+57
          1480.09170	         8.61012e+57
          1480.89800	         9.54658e+57
          1481.70430	         9.37930e+57
          1482.51060	         8.56706e+57
          1483.31690	         7.72360e+57
          1484.12320	         8.15405e+57
          1484.92950	         7.31415e+57
          1485.73580	         7.35210e+57
          1486.54210	         9.00069e+57
          1487.34840	         9.74955e+57
          1488.15470	         9.18195e+57
          1488.96100	         8.29907e+57
          1489.76730	         9.05365e+57
