#sample_500_stacked_spectrum_rest_UV-bands_median_H-alpha_noDC.txt
#median Lum: 1.67000e+42
#Rest-frame wavelength (A) | Luminosity (erg/s/A)
#
          1110.00000	         0.00000e+00
          1110.80630	        -1.75969e+59
          1111.61260	         9.87487e+58
          1112.41890	         1.26190e+59
          1113.22520	         9.09263e+58
          1114.03150	        -1.33553e+58
          1114.83780	        -7.52106e+58
          1115.64410	         1.82214e+59
          1116.45040	         1.04909e+59
          1117.25670	         7.00976e+58
          1118.06300	         2.89467e+58
          1118.86930	        -9.63000e+58
          1119.67560	         2.64365e+58
          1120.48190	         9.14195e+57
          1121.28820	        -1.50492e+59
          1122.09450	         5.72962e+57
          1122.90080	         6.63093e+58
          1123.70710	         1.03558e+59
          1124.51340	         9.18776e+58
          1125.31970	         5.65681e+58
          1126.12600	         1.87658e+58
          1126.93230	        -2.86064e+58
          1127.73860	        -7.67085e+57
          1128.54490	         5.81398e+57
          1129.35120	         3.95551e+58
          1130.15750	        -5.70297e+58
          1130.96380	        -2.96327e+58
          1131.77010	         5.97559e+58
          1132.57640	         4.52246e+58
          1133.38270	         5.08564e+57
          1134.18900	         3.06449e+57
          1134.99530	         9.44794e+57
          1135.80160	         3.17383e+58
          1136.60790	         1.47008e+58
          1137.41420	         2.84747e+58
          1138.22050	         4.20249e+58
          1139.02680	         3.84161e+58
          1139.83310	         4.50533e+58
          1140.63940	         2.05465e+58
          1141.44570	         2.21174e+58
          1142.25200	         1.46256e+58
          1143.05830	         1.13112e+58
          1143.86460	         1.85687e+58
          1144.67090	         5.29132e+57
          1145.47720	         4.89715e+57
          1146.28350	         2.10474e+58
          1147.08980	         1.23202e+58
          1147.89610	         1.22422e+58
          1148.70240	         2.14830e+58
          1149.50870	         2.06974e+58
          1150.31500	         1.22557e+58
          1151.12130	         9.29979e+57
          1151.92760	        -4.36014e+57
          1152.73390	         6.78221e+57
          1153.54020	         1.10025e+58
          1154.34650	         2.67330e+58
          1155.15280	         2.08187e+58
          1155.95910	         8.51226e+57
          1156.76540	         1.03486e+58
          1157.57170	         4.71190e+57
          1158.37800	         9.28779e+57
          1159.18430	         1.34128e+57
          1159.99060	         1.03626e+58
          1160.79690	         1.22086e+58
          1161.60320	         1.44964e+58
          1162.40950	         1.07148e+58
          1163.21580	         1.25505e+58
          1164.02210	         1.18772e+58
          1164.82840	         1.41583e+58
          1165.63470	         2.43291e+58
          1166.44100	         3.54270e+58
          1167.24730	         2.08066e+58
          1168.05360	         8.12242e+57
          1168.85990	         9.44570e+57
          1169.66620	         4.60063e+57
          1170.47250	         1.03677e+58
          1171.27880	         1.66329e+58
          1172.08510	         1.01409e+58
          1172.89140	         8.02703e+57
          1173.69770	         3.56054e+57
          1174.50400	         1.31650e+58
          1175.31030	         1.42007e+58
          1176.11660	         1.77649e+58
          1176.92290	         1.50204e+58
          1177.72920	         1.42792e+58
          1178.53550	         3.76678e+57
          1179.34180	         1.94013e+57
          1180.14810	         6.07886e+57
          1180.95440	         7.78969e+57
          1181.76070	         3.74224e+57
          1182.56700	         4.77774e+57
          1183.37330	         5.31900e+57
          1184.17960	         1.59810e+58
          1184.98590	         1.98736e+58
          1185.79220	         7.37261e+57
          1186.59850	         9.64827e+57
          1187.40480	         1.35622e+58
          1188.21110	         2.08440e+58
          1189.01740	         8.94934e+57
          1189.82370	         7.28346e+57
          1190.63000	         1.37331e+58
          1191.43630	         1.66209e+58
          1192.24260	         9.89965e+57
          1193.04890	         1.19390e+58
          1193.85520	         1.35442e+58
          1194.66150	         7.10365e+57
          1195.46780	         1.11749e+58
          1196.27410	         1.01866e+58
          1197.08040	         7.31288e+57
          1197.88670	         1.43935e+58
          1198.69300	         1.56268e+58
          1199.49930	         1.54223e+58
          1200.30560	         1.42124e+58
          1201.11190	         1.11747e+58
          1201.91820	         7.24820e+57
          1202.72450	         1.05287e+58
          1203.53080	         1.81509e+58
          1204.33710	         1.34107e+58
          1205.14340	         7.52454e+57
          1205.94970	         5.92886e+57
          1206.75600	         6.02860e+57
          1207.56230	         6.80007e+57
          1208.36860	         9.53590e+57
          1209.17490	         2.75691e+57
          1209.98120	         5.30194e+57
          1210.78750	         1.04927e+58
          1211.59380	         1.23656e+58
          1212.40010	         1.89271e+58
          1213.20640	         2.20147e+58
          1214.01270	         2.18766e+58
          1214.81900	         2.51449e+58
          1215.62530	         4.60625e+58
          1216.43160	         8.92101e+58
          1217.23790	         1.48325e+59
          1218.04420	         1.16942e+59
          1218.85050	         8.45068e+58
          1219.65680	         5.71347e+58
          1220.46310	         3.65062e+58
          1221.26940	         2.56462e+58
          1222.07570	         1.16745e+58
          1222.88200	         8.02021e+57
          1223.68830	         9.94524e+57
          1224.49460	         8.66648e+57
          1225.30090	         6.59308e+57
          1226.10720	         9.13448e+57
          1226.91350	         7.97372e+57
          1227.71980	         5.91722e+57
          1228.52610	         1.31931e+58
          1229.33240	         5.91879e+57
          1230.13870	         5.90307e+57
          1230.94500	         6.48417e+57
          1231.75130	         5.02465e+57
          1232.55760	         9.42123e+57
          1233.36390	         8.87614e+57
          1234.17020	         9.08785e+57
          1234.97650	         8.69988e+57
          1235.78280	         7.37928e+57
          1236.58910	         7.32039e+57
          1237.39540	         1.02897e+58
          1238.20170	         9.71826e+57
          1239.00800	         9.15114e+57
          1239.81430	         1.40395e+58
          1240.62060	         1.41303e+58
          1241.42690	         1.24103e+58
          1242.23320	         1.15279e+58
          1243.03950	         8.48315e+57
          1243.84580	         9.72139e+57
          1244.65210	         1.15852e+58
          1245.45840	         1.03829e+58
          1246.26470	         9.43033e+57
          1247.07100	         7.49095e+57
          1247.87730	         5.99417e+57
          1248.68360	         5.79672e+57
          1249.48990	         7.57832e+57
          1250.29620	         8.61946e+57
          1251.10250	         9.36796e+57
          1251.90880	         7.05221e+57
          1252.71510	         7.93927e+57
          1253.52140	         8.12285e+57
          1254.32770	         7.95920e+57
          1255.13400	         1.10064e+58
          1255.94030	         9.52888e+57
          1256.74660	         8.68429e+57
          1257.55290	         1.10843e+58
          1258.35920	         8.75769e+57
          1259.16550	         5.96940e+57
          1259.97180	         6.15384e+57
          1260.77810	         8.64554e+57
          1261.58440	         9.81580e+57
          1262.39070	         8.10408e+57
          1263.19700	         9.75336e+57
          1264.00330	         1.06426e+58
          1264.80960	         1.11040e+58
          1265.61590	         1.35120e+58
          1266.42220	         1.26683e+58
          1267.22850	         1.05232e+58
          1268.03480	         1.40513e+58
          1268.84110	         1.35340e+58
          1269.64740	         1.04022e+58
          1270.45370	         1.09617e+58
          1271.26000	         1.09559e+58
          1272.06630	         1.19313e+58
          1272.87260	         1.15556e+58
          1273.67890	         1.28119e+58
          1274.48520	         1.33198e+58
          1275.29150	         1.23752e+58
          1276.09780	         1.14451e+58
          1276.90410	         1.20084e+58
          1277.71040	         1.14310e+58
          1278.51670	         1.17497e+58
          1279.32300	         1.36786e+58
          1280.12930	         1.38415e+58
          1280.93560	         1.18097e+58
          1281.74190	         1.28209e+58
          1282.54820	         1.48192e+58
          1283.35450	         1.30758e+58
          1284.16080	         1.28993e+58
          1284.96710	         1.40486e+58
          1285.77340	         1.08147e+58
          1286.57970	         9.64885e+57
          1287.38600	         1.36351e+58
          1288.19230	         1.73106e+58
          1288.99860	         1.76761e+58
          1289.80490	         1.31290e+58
          1290.61120	         1.34212e+58
          1291.41750	         1.40593e+58
          1292.22380	         1.13999e+58
          1293.03010	         9.11191e+57
          1293.83640	         1.03859e+58
          1294.64270	         1.13864e+58
          1295.44900	         8.53715e+57
          1296.25530	         8.86208e+57
          1297.06160	         1.17235e+58
          1297.86790	         1.01592e+58
          1298.67420	         9.30314e+57
          1299.48050	         9.53896e+57
          1300.28680	         1.01601e+58
          1301.09310	         8.94308e+57
          1301.89940	         4.56298e+57
          1302.70570	         6.56795e+57
          1303.51200	         7.78437e+57
          1304.31830	         8.59754e+57
          1305.12460	         1.01665e+58
          1305.93090	         1.24965e+58
          1306.73720	         1.26820e+58
          1307.54350	         1.34701e+58
          1308.34980	         1.49746e+58
          1309.15610	         1.56604e+58
          1309.96240	         1.61213e+58
          1310.76870	         1.38887e+58
          1311.57500	         1.23292e+58
          1312.38130	         1.36414e+58
          1313.18760	         1.47817e+58
          1313.99390	         1.62966e+58
          1314.80020	         1.64550e+58
          1315.60650	         1.60255e+58
          1316.41280	         1.18054e+58
          1317.21910	         7.81996e+57
          1318.02540	         9.65383e+57
          1318.83170	         1.18718e+58
          1319.63800	         1.15402e+58
          1320.44430	         1.24793e+58
          1321.25060	         1.19221e+58
          1322.05690	         1.12212e+58
          1322.86320	         1.12335e+58
          1323.66950	         1.03348e+58
          1324.47580	         9.96867e+57
          1325.28210	         1.06107e+58
          1326.08840	         1.23801e+58
          1326.89470	         1.33693e+58
          1327.70100	         1.03816e+58
          1328.50730	         6.69567e+57
          1329.31360	         8.42780e+57
          1330.11990	         8.50611e+57
          1330.92620	         9.33685e+57
          1331.73250	         1.18157e+58
          1332.53880	         1.07875e+58
          1333.34510	         9.11717e+57
          1334.15140	         9.04805e+57
          1334.95770	         1.03567e+58
          1335.76400	         1.15601e+58
          1336.57030	         1.18896e+58
          1337.37660	         1.14635e+58
          1338.18290	         1.16813e+58
          1338.98920	         1.18983e+58
          1339.79550	         1.12579e+58
          1340.60180	         1.15103e+58
          1341.40810	         1.25612e+58
          1342.21440	         1.07716e+58
          1343.02070	         1.17630e+58
          1343.82700	         1.40195e+58
          1344.63330	         1.39251e+58
          1345.43960	         1.30086e+58
          1346.24590	         1.09760e+58
          1347.05220	         1.23089e+58
          1347.85850	         1.16841e+58
          1348.66480	         1.35892e+58
          1349.47110	         1.40076e+58
          1350.27740	         1.21119e+58
          1351.08370	         1.18458e+58
          1351.89000	         1.08430e+58
          1352.69630	         1.23678e+58
          1353.50260	         1.37536e+58
          1354.30890	         1.24728e+58
          1355.11520	         1.04666e+58
          1355.92150	         1.01151e+58
          1356.72780	         8.49931e+57
          1357.53410	         9.31261e+57
          1358.34040	         1.19411e+58
          1359.14670	         1.12524e+58
          1359.95300	         1.14344e+58
          1360.75930	         1.20139e+58
          1361.56560	         1.06981e+58
          1362.37190	         1.04583e+58
          1363.17820	         1.22498e+58
          1363.98450	         1.39084e+58
          1364.79080	         1.32956e+58
          1365.59710	         1.24742e+58
          1366.40340	         1.35184e+58
          1367.20970	         1.16405e+58
          1368.01600	         9.28818e+57
          1368.82230	         8.44298e+57
          1369.62860	         8.87074e+57
          1370.43490	         7.86377e+57
          1371.24120	         8.16220e+57
          1372.04750	         7.98061e+57
          1372.85380	         1.12600e+58
          1373.66010	         1.21891e+58
          1374.46640	         1.09242e+58
          1375.27270	         1.03746e+58
          1376.07900	         9.17642e+57
          1376.88530	         9.20533e+57
          1377.69160	         8.79234e+57
          1378.49790	         7.89077e+57
          1379.30420	         7.28732e+57
          1380.11050	         8.21448e+57
          1380.91680	         8.72649e+57
          1381.72310	         8.72486e+57
          1382.52940	         8.22493e+57
          1383.33570	         9.94226e+57
          1384.14200	         1.09153e+58
          1384.94830	         9.94254e+57
          1385.75460	         1.12133e+58
          1386.56090	         1.10757e+58
          1387.36720	         8.97095e+57
          1388.17350	         1.25060e+58
          1388.97980	         1.12980e+58
          1389.78610	         1.00787e+58
          1390.59240	         8.98870e+57
          1391.39870	         6.54771e+57
          1392.20500	         9.26926e+57
          1393.01130	         8.05688e+57
          1393.81760	         6.35403e+57
          1394.62390	         6.82520e+57
          1395.43020	         5.89039e+57
          1396.23650	         6.43417e+57
          1397.04280	         7.98934e+57
          1397.84910	         8.62397e+57
          1398.65540	         8.81860e+57
          1399.46170	         8.92570e+57
          1400.26800	         8.42047e+57
          1401.07430	         7.84086e+57
          1401.88060	         9.19145e+57
          1402.68690	         9.33012e+57
          1403.49320	         8.05357e+57
          1404.29950	         8.38561e+57
          1405.10580	         9.59054e+57
          1405.91210	         1.05769e+58
          1406.71840	         1.07665e+58
          1407.52470	         1.01897e+58
          1408.33100	         1.00754e+58
          1409.13730	         1.10849e+58
          1409.94360	         1.15480e+58
          1410.74990	         1.15861e+58
          1411.55620	         1.10607e+58
          1412.36250	         1.05289e+58
          1413.16880	         9.19252e+57
          1413.97510	         8.00623e+57
          1414.78140	         9.40479e+57
          1415.58770	         1.06264e+58
          1416.39400	         1.07588e+58
          1417.20030	         1.03068e+58
          1418.00660	         1.01650e+58
          1418.81290	         9.69529e+57
          1419.61920	         1.02512e+58
          1420.42550	         1.32227e+58
          1421.23180	         1.38300e+58
          1422.03810	         1.32730e+58
          1422.84440	         1.26744e+58
          1423.65070	         1.35680e+58
          1424.45700	         1.23257e+58
          1425.26330	         9.16505e+57
          1426.06960	         8.45750e+57
          1426.87590	         1.03952e+58
          1427.68220	         1.11688e+58
          1428.48850	         1.00880e+58
          1429.29480	         9.55683e+57
          1430.10110	         9.95881e+57
          1430.90740	         8.88041e+57
          1431.71370	         9.64386e+57
          1432.52000	         9.40206e+57
          1433.32630	         8.28267e+57
          1434.13260	         8.32626e+57
          1434.93890	         8.59472e+57
          1435.74520	         9.60724e+57
          1436.55150	         1.02442e+58
          1437.35780	         9.66593e+57
          1438.16410	         9.73327e+57
          1438.97040	         8.76670e+57
          1439.77670	         8.75573e+57
          1440.58300	         8.88964e+57
          1441.38930	         9.70550e+57
          1442.19560	         9.43316e+57
          1443.00190	         9.24623e+57
          1443.80820	         1.06888e+58
          1444.61450	         1.01664e+58
          1445.42080	         7.74045e+57
          1446.22710	         9.43815e+57
          1447.03340	         1.04700e+58
          1447.83970	         1.11790e+58
          1448.64600	         1.05725e+58
          1449.45230	         9.88920e+57
          1450.25860	         1.06898e+58
          1451.06490	         9.83076e+57
          1451.87120	         8.40578e+57
          1452.67750	         8.27274e+57
          1453.48380	         8.14886e+57
          1454.29010	         7.92769e+57
          1455.09640	         8.61787e+57
          1455.90270	         9.24247e+57
          1456.70900	         9.04945e+57
          1457.51530	         1.02287e+58
          1458.32160	         1.27918e+58
          1459.12790	         1.23626e+58
          1459.93420	         1.04461e+58
          1460.74050	         8.24340e+57
          1461.54680	         8.54921e+57
          1462.35310	         8.02123e+57
          1463.15940	         9.91245e+57
          1463.96570	         1.12826e+58
          1464.77200	         1.04817e+58
          1465.57830	         1.00699e+58
          1466.38460	         1.00120e+58
          1467.19090	         9.36600e+57
          1467.99720	         8.46530e+57
          1468.80350	         9.82394e+57
          1469.60980	         1.00404e+58
          1470.41610	         9.70188e+57
          1471.22240	         9.22805e+57
          1472.02870	         9.12944e+57
          1472.83500	         9.63604e+57
          1473.64130	         1.00437e+58
          1474.44760	         9.12465e+57
          1475.25390	         8.83758e+57
          1476.06020	         8.98644e+57
          1476.86650	         9.56753e+57
          1477.67280	         7.83656e+57
          1478.47910	         7.18112e+57
          1479.28540	         8.00889e+57
          1480.09170	         8.69126e+57
          1480.89800	         8.47446e+57
          1481.70430	         8.53915e+57
          1482.51060	         8.35575e+57
          1483.31690	         6.92585e+57
          1484.12320	         7.15348e+57
          1484.92950	         7.78385e+57
          1485.73580	         9.33271e+57
          1486.54210	         9.32636e+57
          1487.34840	         8.10168e+57
          1488.15470	         6.97254e+57
          1488.96100	         8.39803e+57
          1489.76730	         9.01812e+57
