#sample_195_stacked_spectrum_rest_UV-bands_median_H-alpha_noDC.txt
#median Lum: 1.68700e+42
#Rest-frame wavelength (A) | Luminosity (erg/s/A)
#
          1110.00000	         0.00000e+00
          1110.80630	         4.07536e+59
          1111.61260	         3.90154e+58
          1112.41890	         1.55339e+59
          1113.22520	        -1.53283e+59
          1114.03150	        -1.30555e+59
          1114.83780	         1.97886e+59
          1115.64410	         1.26766e+58
          1116.45040	         4.52458e+58
          1117.25670	         8.75342e+57
          1118.06300	         1.35931e+59
          1118.86930	         4.63565e+58
          1119.67560	         1.48267e+59
          1120.48190	         8.56567e+57
          1121.28820	        -1.02254e+59
          1122.09450	         1.72964e+58
          1122.90080	         6.90790e+57
          1123.70710	         5.22294e+58
          1124.51340	         1.08081e+59
          1125.31970	        -3.34431e+58
          1126.12600	        -3.06536e+58
          1126.93230	        -4.48463e+58
          1127.73860	        -4.75248e+58
          1128.54490	        -3.11429e+58
          1129.35120	        -3.65330e+56
          1130.15750	        -2.75540e+57
          1130.96380	        -1.31154e+58
          1131.77010	         6.57092e+58
          1132.57640	         2.30732e+58
          1133.38270	         5.40232e+57
          1134.18900	         5.01646e+57
          1134.99530	        -1.46820e+58
          1135.80160	         1.39846e+58
          1136.60790	         1.43975e+58
          1137.41420	        -1.76567e+58
          1138.22050	         4.34805e+58
          1139.02680	         2.34068e+58
          1139.83310	         2.01375e+58
          1140.63940	         9.25681e+57
          1141.44570	        -1.71596e+58
          1142.25200	        -2.13740e+58
          1143.05830	         6.60495e+57
          1143.86460	         1.09203e+58
          1144.67090	         2.38964e+58
          1145.47720	         2.64987e+58
          1146.28350	         2.30421e+58
          1147.08980	         6.22340e+57
          1147.89610	         1.94914e+58
          1148.70240	         2.85543e+58
          1149.50870	         1.31674e+58
          1150.31500	         6.55690e+57
          1151.12130	         4.33121e+57
          1151.92760	         1.53379e+58
          1152.73390	         1.96502e+58
          1153.54020	         8.12309e+57
          1154.34650	         2.35390e+58
          1155.15280	         1.42643e+58
          1155.95910	         9.83911e+57
          1156.76540	         6.51207e+57
          1157.57170	        -5.10924e+57
          1158.37800	         9.01394e+57
          1159.18430	         5.81955e+57
          1159.99060	         8.38415e+57
          1160.79690	        -1.98760e+56
          1161.60320	         1.46472e+58
          1162.40950	         1.25224e+58
          1163.21580	         1.41905e+58
          1164.02210	         1.23447e+58
          1164.82840	         3.61679e+57
          1165.63470	         8.85964e+57
          1166.44100	         2.98322e+58
          1167.24730	         2.43560e+58
          1168.05360	         1.04602e+58
          1168.85990	         6.23199e+57
          1169.66620	         4.70231e+57
          1170.47250	         7.36256e+57
          1171.27880	         4.57627e+57
          1172.08510	         1.37896e+58
          1172.89140	         7.66367e+57
          1173.69770	         4.89090e+57
          1174.50400	         1.10928e+58
          1175.31030	         1.83446e+58
          1176.11660	         1.61545e+58
          1176.92290	         1.24015e+58
          1177.72920	         9.80421e+57
          1178.53550	         9.56102e+57
          1179.34180	         9.32138e+57
          1180.14810	         7.79194e+57
          1180.95440	         5.50397e+57
          1181.76070	        -6.87660e+56
          1182.56700	         5.12005e+57
          1183.37330	         9.01159e+57
          1184.17960	         1.34610e+58
          1184.98590	         8.66934e+57
          1185.79220	         8.03183e+57
          1186.59850	         1.47812e+58
          1187.40480	         1.04577e+58
          1188.21110	         1.61456e+58
          1189.01740	         1.52311e+58
          1189.82370	         1.21285e+58
          1190.63000	         7.85209e+57
          1191.43630	         1.11861e+58
          1192.24260	         1.20513e+58
          1193.04890	         1.28894e+58
          1193.85520	         1.44134e+58
          1194.66150	         1.00843e+58
          1195.46780	         1.21835e+58
          1196.27410	         1.32203e+58
          1197.08040	         9.15103e+57
          1197.88670	         1.30583e+58
          1198.69300	         1.35396e+58
          1199.49930	         1.52307e+58
          1200.30560	         1.28746e+58
          1201.11190	         7.21255e+57
          1201.91820	         8.17042e+57
          1202.72450	         5.97099e+57
          1203.53080	         1.40747e+58
          1204.33710	         1.03844e+58
          1205.14340	         5.55648e+57
          1205.94970	         7.95384e+57
          1206.75600	         9.37288e+57
          1207.56230	         7.65650e+57
          1208.36860	         9.86437e+57
          1209.17490	         4.68448e+57
          1209.98120	         6.14036e+57
          1210.78750	         1.58586e+58
          1211.59380	         1.57318e+58
          1212.40010	         1.83937e+58
          1213.20640	         2.12674e+58
          1214.01270	         2.18063e+58
          1214.81900	         2.24307e+58
          1215.62530	         4.38937e+58
          1216.43160	         9.42603e+58
          1217.23790	         1.52925e+59
          1218.04420	         1.14620e+59
          1218.85050	         8.53910e+58
          1219.65680	         5.51835e+58
          1220.46310	         3.12309e+58
          1221.26940	         2.24127e+58
          1222.07570	         1.42921e+58
          1222.88200	         9.37228e+57
          1223.68830	         9.85619e+57
          1224.49460	         8.21863e+57
          1225.30090	         5.85814e+57
          1226.10720	         4.55614e+57
          1226.91350	         4.84894e+57
          1227.71980	         9.69720e+57
          1228.52610	         1.25408e+58
          1229.33240	         7.59134e+57
          1230.13870	         7.52481e+57
          1230.94500	         7.38918e+57
          1231.75130	         6.49147e+57
          1232.55760	         1.01523e+58
          1233.36390	         9.08790e+57
          1234.17020	         8.37287e+57
          1234.97650	         8.66054e+57
          1235.78280	         8.58929e+57
          1236.58910	         9.47856e+57
          1237.39540	         1.16430e+58
          1238.20170	         1.15620e+58
          1239.00800	         1.15787e+58
          1239.81430	         1.43305e+58
          1240.62060	         1.28674e+58
          1241.42690	         9.12931e+57
          1242.23320	         9.00507e+57
          1243.03950	         8.70249e+57
          1243.84580	         9.32442e+57
          1244.65210	         9.42617e+57
          1245.45840	         1.04898e+58
          1246.26470	         1.00522e+58
          1247.07100	         7.27568e+57
          1247.87730	         9.30542e+57
          1248.68360	         5.01323e+57
          1249.48990	         6.81043e+57
          1250.29620	         8.92330e+57
          1251.10250	         5.36433e+57
          1251.90880	         3.29450e+57
          1252.71510	         7.08541e+57
          1253.52140	         8.42741e+57
          1254.32770	         1.00008e+58
          1255.13400	         1.14097e+58
          1255.94030	         9.30554e+57
          1256.74660	         9.64683e+57
          1257.55290	         1.20845e+58
          1258.35920	         1.04622e+58
          1259.16550	         6.25269e+57
          1259.97180	         4.80054e+57
          1260.77810	         8.18390e+57
          1261.58440	         1.03839e+58
          1262.39070	         8.66441e+57
          1263.19700	         7.61640e+57
          1264.00330	         8.26414e+57
          1264.80960	         8.99049e+57
          1265.61590	         1.08896e+58
          1266.42220	         1.15927e+58
          1267.22850	         1.15510e+58
          1268.03480	         1.49912e+58
          1268.84110	         1.59135e+58
          1269.64740	         1.42770e+58
          1270.45370	         1.03384e+58
          1271.26000	         7.89145e+57
          1272.06630	         7.89583e+57
          1272.87260	         1.08671e+58
          1273.67890	         1.23693e+58
          1274.48520	         1.44205e+58
          1275.29150	         1.49272e+58
          1276.09780	         1.22257e+58
          1276.90410	         1.48239e+58
          1277.71040	         1.41182e+58
          1278.51670	         1.38906e+58
          1279.32300	         1.58589e+58
          1280.12930	         1.36400e+58
          1280.93560	         1.12444e+58
          1281.74190	         1.31887e+58
          1282.54820	         1.47784e+58
          1283.35450	         1.11268e+58
          1284.16080	         1.05172e+58
          1284.96710	         1.45200e+58
          1285.77340	         1.07679e+58
          1286.57970	         9.53782e+57
          1287.38600	         1.47274e+58
          1288.19230	         1.76298e+58
          1288.99860	         1.58955e+58
          1289.80490	         9.95829e+57
          1290.61120	         1.19589e+58
          1291.41750	         1.32868e+58
          1292.22380	         1.10807e+58
          1293.03010	         1.07832e+58
          1293.83640	         1.19535e+58
          1294.64270	         1.03561e+58
          1295.44900	         7.95648e+57
          1296.25530	         8.26474e+57
          1297.06160	         9.12064e+57
          1297.86790	         8.85416e+57
          1298.67420	         7.58771e+57
          1299.48050	         9.84222e+57
          1300.28680	         1.09192e+58
          1301.09310	         7.76467e+57
          1301.89940	         3.92665e+57
          1302.70570	         5.68652e+57
          1303.51200	         8.12675e+57
          1304.31830	         1.08149e+58
          1305.12460	         1.21468e+58
          1305.93090	         1.20290e+58
          1306.73720	         1.17947e+58
          1307.54350	         1.25553e+58
          1308.34980	         1.37630e+58
          1309.15610	         1.56248e+58
          1309.96240	         1.55467e+58
          1310.76870	         1.38445e+58
          1311.57500	         1.40694e+58
          1312.38130	         1.18365e+58
          1313.18760	         1.08889e+58
          1313.99390	         1.47378e+58
          1314.80020	         1.73683e+58
          1315.60650	         1.68054e+58
          1316.41280	         1.29442e+58
          1317.21910	         1.05172e+58
          1318.02540	         1.10875e+58
          1318.83170	         1.31273e+58
          1319.63800	         1.25993e+58
          1320.44430	         1.23484e+58
          1321.25060	         1.42436e+58
          1322.05690	         1.18171e+58
          1322.86320	         1.11428e+58
          1323.66950	         1.13634e+58
          1324.47580	         8.67269e+57
          1325.28210	         9.21419e+57
          1326.08840	         1.09449e+58
          1326.89470	         1.09481e+58
          1327.70100	         8.39418e+57
          1328.50730	         8.24429e+57
          1329.31360	         1.03358e+58
          1330.11990	         1.03477e+58
          1330.92620	         9.21786e+57
          1331.73250	         9.98554e+57
          1332.53880	         7.83183e+57
          1333.34510	         7.78517e+57
          1334.15140	         8.47614e+57
          1334.95770	         8.59961e+57
          1335.76400	         1.08360e+58
          1336.57030	         1.11563e+58
          1337.37660	         1.06439e+58
          1338.18290	         1.11864e+58
          1338.98920	         1.19279e+58
          1339.79550	         1.10313e+58
          1340.60180	         1.12387e+58
          1341.40810	         1.24737e+58
          1342.21440	         1.11058e+58
          1343.02070	         1.12382e+58
          1343.82700	         1.38886e+58
          1344.63330	         1.46151e+58
          1345.43960	         1.29316e+58
          1346.24590	         8.87386e+57
          1347.05220	         1.07850e+58
          1347.85850	         1.18254e+58
          1348.66480	         1.17677e+58
          1349.47110	         1.15122e+58
          1350.27740	         1.14403e+58
          1351.08370	         1.20746e+58
          1351.89000	         1.32956e+58
          1352.69630	         1.24456e+58
          1353.50260	         1.09119e+58
          1354.30890	         1.18562e+58
          1355.11520	         1.19539e+58
          1355.92150	         1.05767e+58
          1356.72780	         1.01764e+58
          1357.53410	         1.18633e+58
          1358.34040	         1.19990e+58
          1359.14670	         1.01943e+58
          1359.95300	         1.08745e+58
          1360.75930	         1.15157e+58
          1361.56560	         1.15466e+58
          1362.37190	         1.21042e+58
          1363.17820	         1.22267e+58
          1363.98450	         1.28681e+58
          1364.79080	         1.34884e+58
          1365.59710	         1.26713e+58
          1366.40340	         1.13562e+58
          1367.20970	         9.48230e+57
          1368.01600	         9.93499e+57
          1368.82230	         1.03338e+58
          1369.62860	         1.12436e+58
          1370.43490	         1.05746e+58
          1371.24120	         1.02963e+58
          1372.04750	         9.71484e+57
          1372.85380	         1.12676e+58
          1373.66010	         1.16476e+58
          1374.46640	         1.09205e+58
          1375.27270	         1.02380e+58
          1376.07900	         8.32382e+57
          1376.88530	         8.48386e+57
          1377.69160	         8.94641e+57
          1378.49790	         6.85983e+57
          1379.30420	         7.40689e+57
          1380.11050	         9.30193e+57
          1380.91680	         9.16059e+57
          1381.72310	         9.75525e+57
          1382.52940	         9.85819e+57
          1383.33570	         8.30603e+57
          1384.14200	         8.95387e+57
          1384.94830	         1.17575e+58
          1385.75460	         1.01195e+58
          1386.56090	         8.35331e+57
          1387.36720	         9.77271e+57
          1388.17350	         1.30492e+58
          1388.97980	         1.17189e+58
          1389.78610	         9.09394e+57
          1390.59240	         8.79463e+57
          1391.39870	         8.33272e+57
          1392.20500	         8.83415e+57
          1393.01130	         7.80663e+57
          1393.81760	         7.22321e+57
          1394.62390	         6.91006e+57
          1395.43020	         6.90217e+57
          1396.23650	         7.53532e+57
          1397.04280	         7.68207e+57
          1397.84910	         7.73236e+57
          1398.65540	         8.42250e+57
          1399.46170	         9.75238e+57
          1400.26800	         8.65497e+57
          1401.07430	         6.97657e+57
          1401.88060	         6.98585e+57
          1402.68690	         8.67771e+57
          1403.49320	         8.85190e+57
          1404.29950	         8.68235e+57
          1405.10580	         9.67389e+57
          1405.91210	         1.17839e+58
          1406.71840	         1.18186e+58
          1407.52470	         1.08672e+58
          1408.33100	         9.66026e+57
          1409.13730	         1.03012e+58
          1409.94360	         1.09616e+58
          1410.74990	         1.08291e+58
          1411.55620	         9.73867e+57
          1412.36250	         9.69981e+57
          1413.16880	         9.76129e+57
          1413.97510	         9.05473e+57
          1414.78140	         9.10471e+57
          1415.58770	         1.00921e+58
          1416.39400	         9.49478e+57
          1417.20030	         9.68661e+57
          1418.00660	         9.34882e+57
          1418.81290	         1.02706e+58
          1419.61920	         1.09595e+58
          1420.42550	         1.19018e+58
          1421.23180	         1.29804e+58
          1422.03810	         1.21604e+58
          1422.84440	         9.98356e+57
          1423.65070	         1.22519e+58
          1424.45700	         1.20932e+58
          1425.26330	         9.07197e+57
          1426.06960	         8.48894e+57
          1426.87590	         9.61335e+57
          1427.68220	         9.46508e+57
          1428.48850	         1.14453e+58
          1429.29480	         1.15372e+58
          1430.10110	         9.68784e+57
          1430.90740	         8.76411e+57
          1431.71370	         8.88106e+57
          1432.52000	         8.63918e+57
          1433.32630	         7.83965e+57
          1434.13260	         8.38132e+57
          1434.93890	         8.89626e+57
          1435.74520	         9.72372e+57
          1436.55150	         9.25905e+57
          1437.35780	         8.63117e+57
          1438.16410	         8.67493e+57
          1438.97040	         9.06608e+57
          1439.77670	         8.39165e+57
          1440.58300	         8.35201e+57
          1441.38930	         9.23622e+57
          1442.19560	         9.68775e+57
          1443.00190	         1.00120e+58
          1443.80820	         1.08914e+58
          1444.61450	         9.56147e+57
          1445.42080	         8.52191e+57
          1446.22710	         1.00280e+58
          1447.03340	         9.74934e+57
          1447.83970	         1.03164e+58
          1448.64600	         1.04228e+58
          1449.45230	         9.68627e+57
          1450.25860	         9.65153e+57
          1451.06490	         8.64780e+57
          1451.87120	         7.72774e+57
          1452.67750	         6.86311e+57
          1453.48380	         8.27566e+57
          1454.29010	         8.49438e+57
          1455.09640	         7.84335e+57
          1455.90270	         8.42144e+57
          1456.70900	         8.27107e+57
          1457.51530	         9.37252e+57
          1458.32160	         1.16762e+58
          1459.12790	         1.11594e+58
          1459.93420	         1.04286e+58
          1460.74050	         8.42975e+57
          1461.54680	         8.20732e+57
          1462.35310	         8.53108e+57
          1463.15940	         9.50144e+57
          1463.96570	         1.11266e+58
          1464.77200	         1.18498e+58
          1465.57830	         1.07583e+58
          1466.38460	         9.04819e+57
          1467.19090	         8.18174e+57
          1467.99720	         8.26506e+57
          1468.80350	         9.37431e+57
          1469.60980	         1.02521e+58
          1470.41610	         1.02293e+58
          1471.22240	         9.22497e+57
          1472.02870	         1.07100e+58
          1472.83500	         1.06854e+58
          1473.64130	         9.23368e+57
          1474.44760	         9.20502e+57
          1475.25390	         9.70127e+57
          1476.06020	         7.70934e+57
          1476.86650	         7.57214e+57
          1477.67280	         7.80915e+57
          1478.47910	         6.66882e+57
          1479.28540	         6.77179e+57
          1480.09170	         8.00347e+57
          1480.89800	         9.29022e+57
          1481.70430	         8.87191e+57
          1482.51060	         7.44615e+57
          1483.31690	         7.68256e+57
          1484.12320	         8.66040e+57
          1484.92950	         8.60465e+57
          1485.73580	         8.48261e+57
          1486.54210	         8.15447e+57
          1487.34840	         9.13034e+57
          1488.15470	         9.38493e+57
          1488.96100	         9.45413e+57
          1489.76730	         1.03061e+58
