#sample_305_stacked_spectrum_rest_UV-bands_median_H-alpha_noDC.txt
#median Lum: 1.70527e+42
#Rest-frame wavelength (A) | Luminosity (erg/s/A)
#
          1110.00000	         0.00000e+00
          1110.80630	         2.94205e+59
          1111.61260	         2.82767e+59
          1112.41890	        -5.13057e+56
          1113.22520	         3.54603e+58
          1114.03150	         4.77042e+58
          1114.83780	         3.15025e+59
          1115.64410	         5.67659e+58
          1116.45040	         1.00386e+59
          1117.25670	        -1.29856e+58
          1118.06300	         5.64363e+58
          1118.86930	        -2.33071e+58
          1119.67560	         1.18996e+59
          1120.48190	         2.75693e+58
          1121.28820	        -7.30467e+58
          1122.09450	         2.87194e+57
          1122.90080	         3.75358e+57
          1123.70710	         3.37025e+58
          1124.51340	         1.12357e+59
          1125.31970	         4.06894e+58
          1126.12600	         2.28190e+58
          1126.93230	        -3.65569e+57
          1127.73860	        -5.48503e+58
          1128.54490	         1.87461e+58
          1129.35120	        -1.00708e+58
          1130.15750	        -3.77027e+58
          1130.96380	        -1.36568e+58
          1131.77010	         9.97164e+58
          1132.57640	         4.16509e+58
          1133.38270	         1.51433e+58
          1134.18900	         6.26536e+57
          1134.99530	         3.61184e+58
          1135.80160	         4.09696e+58
          1136.60790	         8.43090e+57
          1137.41420	        -1.21580e+58
          1138.22050	         4.56205e+58
          1139.02680	         3.13175e+58
          1139.83310	         2.26589e+58
          1140.63940	         2.36448e+58
          1141.44570	        -1.94548e+57
          1142.25200	         7.00818e+57
          1143.05830	         1.68145e+58
          1143.86460	         1.24854e+58
          1144.67090	         2.44356e+58
          1145.47720	         1.50365e+58
          1146.28350	         2.60884e+58
          1147.08980	         9.90339e+57
          1147.89610	         1.23075e+58
          1148.70240	         3.08949e+58
          1149.50870	         1.16668e+58
          1150.31500	         5.60406e+57
          1151.12130	         6.86627e+57
          1151.92760	         1.24643e+58
          1152.73390	         4.90377e+57
          1153.54020	         1.00252e+57
          1154.34650	         2.70288e+58
          1155.15280	         2.44722e+58
          1155.95910	         1.24365e+58
          1156.76540	         1.01083e+58
          1157.57170	        -4.40470e+57
          1158.37800	        -1.03698e+58
          1159.18430	        -4.84064e+57
          1159.99060	         5.21834e+57
          1160.79690	         3.06557e+57
          1161.60320	         7.87011e+57
          1162.40950	         2.17660e+58
          1163.21580	         3.07554e+58
          1164.02210	         2.49044e+57
          1164.82840	         6.42035e+57
          1165.63470	         1.70607e+58
          1166.44100	         2.97710e+58
          1167.24730	         1.97000e+58
          1168.05360	         1.11136e+58
          1168.85990	         6.39016e+57
          1169.66620	         7.99528e+57
          1170.47250	         9.05324e+57
          1171.27880	         7.90861e+57
          1172.08510	         1.94374e+58
          1172.89140	         1.49427e+58
          1173.69770	         3.50285e+57
          1174.50400	         6.25169e+57
          1175.31030	         1.53480e+58
          1176.11660	         1.54107e+58
          1176.92290	         1.70127e+58
          1177.72920	         1.09607e+58
          1178.53550	         5.45346e+57
          1179.34180	         3.33712e+57
          1180.14810	         2.31861e+57
          1180.95440	         6.99536e+57
          1181.76070	         6.41657e+57
          1182.56700	         5.10402e+57
          1183.37330	         2.41180e+57
          1184.17960	         8.64166e+57
          1184.98590	         1.24619e+58
          1185.79220	         8.41650e+57
          1186.59850	         1.40231e+58
          1187.40480	         9.03514e+57
          1188.21110	         1.66863e+58
          1189.01740	         8.67691e+57
          1189.82370	         3.51904e+57
          1190.63000	         6.09575e+57
          1191.43630	         1.40171e+58
          1192.24260	         9.21835e+57
          1193.04890	         1.14832e+58
          1193.85520	         1.51747e+58
          1194.66150	         3.00138e+57
          1195.46780	         5.65696e+57
          1196.27410	         1.56295e+58
          1197.08040	         6.71387e+57
          1197.88670	         8.78648e+57
          1198.69300	         1.35710e+58
          1199.49930	         1.53841e+58
          1200.30560	         9.97719e+57
          1201.11190	         8.26490e+57
          1201.91820	         1.23856e+58
          1202.72450	         7.45274e+57
          1203.53080	         1.68948e+58
          1204.33710	         8.80866e+57
          1205.14340	         7.08011e+57
          1205.94970	         6.29922e+57
          1206.75600	         5.88765e+57
          1207.56230	         6.66652e+57
          1208.36860	         8.88545e+57
          1209.17490	         3.63271e+57
          1209.98120	         2.84266e+57
          1210.78750	         6.24493e+57
          1211.59380	         7.40124e+57
          1212.40010	         1.41288e+58
          1213.20640	         1.93719e+58
          1214.01270	         1.93786e+58
          1214.81900	         2.49291e+58
          1215.62530	         4.50454e+58
          1216.43160	         9.22011e+58
          1217.23790	         1.54110e+59
          1218.04420	         1.14192e+59
          1218.85050	         8.63558e+58
          1219.65680	         6.01048e+58
          1220.46310	         3.56951e+58
          1221.26940	         2.24708e+58
          1222.07570	         1.26450e+58
          1222.88200	         1.18810e+58
          1223.68830	         1.40474e+58
          1224.49460	         7.70330e+57
          1225.30090	         6.91325e+57
          1226.10720	         5.87036e+57
          1226.91350	         8.54781e+57
          1227.71980	         9.23337e+57
          1228.52610	         1.10784e+58
          1229.33240	         1.05309e+58
          1230.13870	         8.10108e+57
          1230.94500	         8.61788e+57
          1231.75130	         7.81602e+57
          1232.55760	         8.58747e+57
          1233.36390	         8.57082e+57
          1234.17020	         8.35289e+57
          1234.97650	         8.12434e+57
          1235.78280	         7.80664e+57
          1236.58910	         8.34983e+57
          1237.39540	         1.24098e+58
          1238.20170	         1.08530e+58
          1239.00800	         9.69952e+57
          1239.81430	         1.38031e+58
          1240.62060	         1.08495e+58
          1241.42690	         7.56074e+57
          1242.23320	         9.19826e+57
          1243.03950	         1.01260e+58
          1243.84580	         1.03321e+58
          1244.65210	         1.05437e+58
          1245.45840	         1.00908e+58
          1246.26470	         6.65893e+57
          1247.07100	         7.12039e+57
          1247.87730	         8.44193e+57
          1248.68360	         8.06378e+57
          1249.48990	         8.76456e+57
          1250.29620	         7.82458e+57
          1251.10250	         7.15868e+57
          1251.90880	         6.33136e+57
          1252.71510	         6.55887e+57
          1253.52140	         6.92123e+57
          1254.32770	         9.45869e+57
          1255.13400	         1.15052e+58
          1255.94030	         1.17573e+58
          1256.74660	         1.07022e+58
          1257.55290	         1.13968e+58
          1258.35920	         9.91539e+57
          1259.16550	         7.79313e+57
          1259.97180	         4.99034e+57
          1260.77810	         7.17942e+57
          1261.58440	         1.32794e+58
          1262.39070	         1.11252e+58
          1263.19700	         8.99382e+57
          1264.00330	         1.00514e+58
          1264.80960	         1.28442e+58
          1265.61590	         1.25131e+58
          1266.42220	         1.11550e+58
          1267.22850	         1.06593e+58
          1268.03480	         1.35217e+58
          1268.84110	         1.55004e+58
          1269.64740	         1.51809e+58
          1270.45370	         1.47431e+58
          1271.26000	         1.34506e+58
          1272.06630	         1.32098e+58
          1272.87260	         1.15986e+58
          1273.67890	         1.40709e+58
          1274.48520	         1.41520e+58
          1275.29150	         1.30556e+58
          1276.09780	         1.34115e+58
          1276.90410	         1.34823e+58
          1277.71040	         1.29908e+58
          1278.51670	         1.22874e+58
          1279.32300	         1.39600e+58
          1280.12930	         1.19945e+58
          1280.93560	         1.03053e+58
          1281.74190	         1.21399e+58
          1282.54820	         1.47406e+58
          1283.35450	         1.33415e+58
          1284.16080	         1.11589e+58
          1284.96710	         1.39168e+58
          1285.77340	         1.40870e+58
          1286.57970	         1.35976e+58
          1287.38600	         1.73642e+58
          1288.19230	         1.75077e+58
          1288.99860	         1.64850e+58
          1289.80490	         1.27525e+58
          1290.61120	         1.36042e+58
          1291.41750	         1.46986e+58
          1292.22380	         1.16098e+58
          1293.03010	         1.09776e+58
          1293.83640	         1.21682e+58
          1294.64270	         1.04049e+58
          1295.44900	         7.74724e+57
          1296.25530	         8.85248e+57
          1297.06160	         1.09886e+58
          1297.86790	         1.11727e+58
          1298.67420	         8.97343e+57
          1299.48050	         1.03408e+58
          1300.28680	         1.19225e+58
          1301.09310	         9.97022e+57
          1301.89940	         4.72465e+57
          1302.70570	         6.19859e+57
          1303.51200	         8.67237e+57
          1304.31830	         9.85143e+57
          1305.12460	         1.05462e+58
          1305.93090	         1.06008e+58
          1306.73720	         1.15217e+58
          1307.54350	         1.44325e+58
          1308.34980	         1.43901e+58
          1309.15610	         1.51852e+58
          1309.96240	         1.68722e+58
          1310.76870	         1.46929e+58
          1311.57500	         1.15248e+58
          1312.38130	         1.24338e+58
          1313.18760	         1.39456e+58
          1313.99390	         1.46229e+58
          1314.80020	         1.40792e+58
          1315.60650	         1.44987e+58
          1316.41280	         1.41530e+58
          1317.21910	         1.23506e+58
          1318.02540	         1.18794e+58
          1318.83170	         1.43468e+58
          1319.63800	         1.31335e+58
          1320.44430	         1.15627e+58
          1321.25060	         1.15224e+58
          1322.05690	         1.24163e+58
          1322.86320	         1.10784e+58
          1323.66950	         1.04167e+58
          1324.47580	         9.88116e+57
          1325.28210	         1.09192e+58
          1326.08840	         1.33609e+58
          1326.89470	         1.32447e+58
          1327.70100	         1.06908e+58
          1328.50730	         9.39784e+57
          1329.31360	         8.71418e+57
          1330.11990	         8.79684e+57
          1330.92620	         1.01655e+58
          1331.73250	         1.19926e+58
          1332.53880	         9.55817e+57
          1333.34510	         8.09873e+57
          1334.15140	         9.09214e+57
          1334.95770	         9.30676e+57
          1335.76400	         1.05599e+58
          1336.57030	         1.14591e+58
          1337.37660	         9.97917e+57
          1338.18290	         9.62991e+57
          1338.98920	         1.12646e+58
          1339.79550	         1.17843e+58
          1340.60180	         1.24992e+58
          1341.40810	         1.29999e+58
          1342.21440	         1.26428e+58
          1343.02070	         1.33046e+58
          1343.82700	         1.45621e+58
          1344.63330	         1.48377e+58
          1345.43960	         1.49367e+58
          1346.24590	         1.10860e+58
          1347.05220	         1.11606e+58
          1347.85850	         9.76973e+57
          1348.66480	         1.08916e+58
          1349.47110	         1.31509e+58
          1350.27740	         1.20413e+58
          1351.08370	         1.19100e+58
          1351.89000	         1.22805e+58
          1352.69630	         1.13449e+58
          1353.50260	         1.16005e+58
          1354.30890	         1.19570e+58
          1355.11520	         1.23127e+58
          1355.92150	         1.15507e+58
          1356.72780	         1.07105e+58
          1357.53410	         1.11751e+58
          1358.34040	         1.07049e+58
          1359.14670	         1.07073e+58
          1359.95300	         1.25170e+58
          1360.75930	         1.15862e+58
          1361.56560	         1.02426e+58
          1362.37190	         1.09990e+58
          1363.17820	         1.17743e+58
          1363.98450	         1.20100e+58
          1364.79080	         1.32560e+58
          1365.59710	         1.40491e+58
          1366.40340	         1.22386e+58
          1367.20970	         9.93817e+57
          1368.01600	         1.06966e+58
          1368.82230	         9.14613e+57
          1369.62860	         9.04829e+57
          1370.43490	         9.03573e+57
          1371.24120	         9.25743e+57
          1372.04750	         9.49176e+57
          1372.85380	         1.05550e+58
          1373.66010	         1.08831e+58
          1374.46640	         1.08838e+58
          1375.27270	         1.02859e+58
          1376.07900	         9.98011e+57
          1376.88530	         9.06110e+57
          1377.69160	         8.41686e+57
          1378.49790	         6.93864e+57
          1379.30420	         7.64973e+57
          1380.11050	         1.03793e+58
          1380.91680	         8.10304e+57
          1381.72310	         7.43526e+57
          1382.52940	         9.19520e+57
          1383.33570	         9.58516e+57
          1384.14200	         1.08913e+58
          1384.94830	         1.09086e+58
          1385.75460	         9.73578e+57
          1386.56090	         1.12119e+58
          1387.36720	         1.20486e+58
          1388.17350	         1.35998e+58
          1388.97980	         1.12984e+58
          1389.78610	         8.38617e+57
          1390.59240	         7.84357e+57
          1391.39870	         7.07018e+57
          1392.20500	         7.42337e+57
          1393.01130	         6.20905e+57
          1393.81760	         7.15295e+57
          1394.62390	         6.64198e+57
          1395.43020	         4.74065e+57
          1396.23650	         5.98006e+57
          1397.04280	         6.62838e+57
          1397.84910	         8.58261e+57
          1398.65540	         8.74802e+57
          1399.46170	         1.01308e+58
          1400.26800	         8.84670e+57
          1401.07430	         7.14905e+57
          1401.88060	         8.28310e+57
          1402.68690	         8.92172e+57
          1403.49320	         9.02879e+57
          1404.29950	         9.04174e+57
          1405.10580	         1.05957e+58
          1405.91210	         1.16106e+58
          1406.71840	         1.12786e+58
          1407.52470	         1.06157e+58
          1408.33100	         9.97196e+57
          1409.13730	         1.11522e+58
          1409.94360	         1.11107e+58
          1410.74990	         1.19967e+58
          1411.55620	         1.06239e+58
          1412.36250	         8.57320e+57
          1413.16880	         7.67792e+57
          1413.97510	         9.28915e+57
          1414.78140	         1.03829e+58
          1415.58770	         9.92948e+57
          1416.39400	         9.54367e+57
          1417.20030	         9.62109e+57
          1418.00660	         8.41639e+57
          1418.81290	         1.02364e+58
          1419.61920	         1.15677e+58
          1420.42550	         1.29205e+58
          1421.23180	         1.45368e+58
          1422.03810	         1.37494e+58
          1422.84440	         1.17077e+58
          1423.65070	         1.17421e+58
          1424.45700	         1.21196e+58
          1425.26330	         9.36567e+57
          1426.06960	         8.08466e+57
          1426.87590	         8.94276e+57
          1427.68220	         1.02918e+58
          1428.48850	         1.13440e+58
          1429.29480	         1.01972e+58
          1430.10110	         9.97014e+57
          1430.90740	         8.64984e+57
          1431.71370	         7.73100e+57
          1432.52000	         7.93070e+57
          1433.32630	         7.59302e+57
          1434.13260	         8.03539e+57
          1434.93890	         7.99815e+57
          1435.74520	         8.06549e+57
          1436.55150	         8.21052e+57
          1437.35780	         8.44371e+57
          1438.16410	         8.67427e+57
          1438.97040	         9.42778e+57
          1439.77670	         1.00116e+58
          1440.58300	         9.11562e+57
          1441.38930	         8.69472e+57
          1442.19560	         9.72327e+57
          1443.00190	         1.03391e+58
          1443.80820	         1.08773e+58
          1444.61450	         9.76041e+57
          1445.42080	         9.63542e+57
          1446.22710	         1.03133e+58
          1447.03340	         9.13115e+57
          1447.83970	         1.04912e+58
          1448.64600	         1.07273e+58
          1449.45230	         9.87082e+57
          1450.25860	         9.71831e+57
          1451.06490	         9.33274e+57
          1451.87120	         8.05008e+57
          1452.67750	         7.83025e+57
          1453.48380	         8.95778e+57
          1454.29010	         7.50203e+57
          1455.09640	         7.26331e+57
          1455.90270	         1.05175e+58
          1456.70900	         1.01377e+58
          1457.51530	         1.07312e+58
          1458.32160	         1.27641e+58
          1459.12790	         1.24919e+58
          1459.93420	         1.05687e+58
          1460.74050	         8.13070e+57
          1461.54680	         6.71456e+57
          1462.35310	         6.87786e+57
          1463.15940	         8.74131e+57
          1463.96570	         1.02790e+58
          1464.77200	         1.12945e+58
          1465.57830	         1.03529e+58
          1466.38460	         9.01257e+57
          1467.19090	         8.42892e+57
          1467.99720	         8.69687e+57
          1468.80350	         9.05836e+57
          1469.60980	         9.38647e+57
          1470.41610	         1.01601e+58
          1471.22240	         9.84360e+57
          1472.02870	         1.05953e+58
          1472.83500	         1.01432e+58
          1473.64130	         1.11643e+58
          1474.44760	         1.12169e+58
          1475.25390	         9.79842e+57
          1476.06020	         9.05634e+57
          1476.86650	         8.40965e+57
          1477.67280	         7.71809e+57
          1478.47910	         6.87490e+57
          1479.28540	         8.39293e+57
          1480.09170	         9.63950e+57
          1480.89800	         8.39768e+57
          1481.70430	         8.83722e+57
          1482.51060	         8.26027e+57
          1483.31690	         7.19210e+57
          1484.12320	         8.79935e+57
          1484.92950	         8.68596e+57
          1485.73580	         8.02787e+57
          1486.54210	         8.91689e+57
          1487.34840	         8.52381e+57
          1488.15470	         8.24859e+57
          1488.96100	         8.73431e+57
          1489.76730	         9.03361e+57
