#sample_1_stacked_spectrum_rest_UV-bands_median_H-alpha_noDC.txt
#median Lum: 1.72116e+42
#Rest-frame wavelength (A) | Luminosity (erg/s/A)
#
          1110.00000	         0.00000e+00
          1110.80630	        -2.63708e+59
          1111.61260	         7.57028e+58
          1112.41890	         1.41902e+59
          1113.22520	        -1.93501e+59
          1114.03150	        -2.73998e+59
          1114.83780	        -3.28486e+58
          1115.64410	         1.53450e+59
          1116.45040	         2.64652e+59
          1117.25670	         7.01892e+58
          1118.06300	         6.72269e+58
          1118.86930	         2.46814e+58
          1119.67560	         1.27974e+59
          1120.48190	        -9.16959e+58
          1121.28820	        -1.49764e+59
          1122.09450	         2.72000e+58
          1122.90080	        -1.26165e+59
          1123.70710	        -3.76433e+57
          1124.51340	         6.92122e+58
          1125.31970	        -7.58375e+58
          1126.12600	        -3.45106e+58
          1126.93230	        -5.95085e+58
          1127.73860	        -7.41848e+57
          1128.54490	         4.09310e+58
          1129.35120	        -9.93565e+57
          1130.15750	        -2.11362e+58
          1130.96380	        -5.90149e+58
          1131.77010	         3.57785e+58
          1132.57640	         5.17311e+58
          1133.38270	         3.45076e+58
          1134.18900	         2.89618e+58
          1134.99530	         2.91939e+58
          1135.80160	         3.48807e+58
          1136.60790	         2.56322e+58
          1137.41420	        -3.93226e+57
          1138.22050	         3.51572e+58
          1139.02680	         2.41110e+58
          1139.83310	         2.22846e+58
          1140.63940	         1.21406e+58
          1141.44570	        -1.30174e+58
          1142.25200	         6.98008e+57
          1143.05830	         2.90701e+58
          1143.86460	         2.37414e+58
          1144.67090	         3.46532e+58
          1145.47720	         2.02608e+58
          1146.28350	         1.66606e+58
          1147.08980	         8.76148e+57
          1147.89610	         2.09170e+58
          1148.70240	         2.18837e+58
          1149.50870	         1.89547e+58
          1150.31500	         2.31456e+58
          1151.12130	         1.15176e+58
          1151.92760	         9.09542e+57
          1152.73390	         4.68087e+57
          1153.54020	         8.83118e+57
          1154.34650	         2.31124e+58
          1155.15280	         2.50886e+58
          1155.95910	         1.48895e+58
          1156.76540	         1.36730e+58
          1157.57170	         3.05963e+57
          1158.37800	         7.69322e+57
          1159.18430	         5.01850e+57
          1159.99060	         9.07707e+57
          1160.79690	        -2.57535e+57
          1161.60320	         1.18431e+58
          1162.40950	         1.08826e+58
          1163.21580	         1.58745e+58
          1164.02210	         9.33953e+57
          1164.82840	         1.04937e+58
          1165.63470	         1.67255e+58
          1166.44100	         3.01396e+58
          1167.24730	         2.28528e+58
          1168.05360	         6.41160e+57
          1168.85990	         4.14855e+57
          1169.66620	         6.08746e+57
          1170.47250	         1.23742e+58
          1171.27880	         3.36292e+57
          1172.08510	         1.10888e+58
          1172.89140	         1.73762e+58
          1173.69770	         7.16227e+57
          1174.50400	         1.42588e+58
          1175.31030	         1.92964e+58
          1176.11660	         1.46047e+58
          1176.92290	         1.42587e+58
          1177.72920	         1.71447e+58
          1178.53550	         8.85896e+57
          1179.34180	         8.42428e+57
          1180.14810	         7.34335e+57
          1180.95440	         8.13854e+57
          1181.76070	         8.10495e+57
          1182.56700	         1.34762e+58
          1183.37330	         7.38710e+57
          1184.17960	         9.18383e+57
          1184.98590	         1.10889e+58
          1185.79220	         1.26492e+58
          1186.59850	         1.62730e+58
          1187.40480	         1.19021e+58
          1188.21110	         1.56056e+58
          1189.01740	         5.55509e+57
          1189.82370	         7.17785e+57
          1190.63000	         9.87473e+57
          1191.43630	         1.81300e+58
          1192.24260	         1.35693e+58
          1193.04890	         1.19712e+58
          1193.85520	         1.14053e+58
          1194.66150	         6.51161e+57
          1195.46780	         1.29295e+58
          1196.27410	         1.79343e+58
          1197.08040	         1.23217e+58
          1197.88670	         1.28155e+58
          1198.69300	         1.22406e+58
          1199.49930	         1.66483e+58
          1200.30560	         1.32369e+58
          1201.11190	         1.11277e+58
          1201.91820	         8.50129e+57
          1202.72450	         7.46956e+57
          1203.53080	         1.22769e+58
          1204.33710	         7.72578e+57
          1205.14340	         1.00808e+58
          1205.94970	         8.74344e+57
          1206.75600	         7.48837e+57
          1207.56230	         3.64167e+57
          1208.36860	         2.68660e+57
          1209.17490	         3.64632e+57
          1209.98120	         4.47671e+57
          1210.78750	         7.49682e+57
          1211.59380	         8.64172e+57
          1212.40010	         1.36797e+58
          1213.20640	         1.79811e+58
          1214.01270	         2.01341e+58
          1214.81900	         2.65067e+58
          1215.62530	         4.74792e+58
          1216.43160	         9.53606e+58
          1217.23790	         1.56180e+59
          1218.04420	         1.18144e+59
          1218.85050	         8.62389e+58
          1219.65680	         5.75962e+58
          1220.46310	         3.83448e+58
          1221.26940	         2.86836e+58
          1222.07570	         1.91950e+58
          1222.88200	         1.51503e+58
          1223.68830	         1.29006e+58
          1224.49460	         8.89615e+57
          1225.30090	         4.62827e+57
          1226.10720	         4.64995e+57
          1226.91350	         6.07670e+57
          1227.71980	         8.52242e+57
          1228.52610	         1.06829e+58
          1229.33240	         8.01516e+57
          1230.13870	         1.07089e+58
          1230.94500	         1.00771e+58
          1231.75130	         1.06474e+58
          1232.55760	         1.08604e+58
          1233.36390	         9.20053e+57
          1234.17020	         8.91891e+57
          1234.97650	         7.44258e+57
          1235.78280	         6.16847e+57
          1236.58910	         7.89080e+57
          1237.39540	         9.95026e+57
          1238.20170	         8.69999e+57
          1239.00800	         1.32050e+58
          1239.81430	         1.79400e+58
          1240.62060	         1.48078e+58
          1241.42690	         1.05981e+58
          1242.23320	         1.07530e+58
          1243.03950	         8.38210e+57
          1243.84580	         7.35829e+57
          1244.65210	         7.09740e+57
          1245.45840	         8.81685e+57
          1246.26470	         1.00841e+58
          1247.07100	         7.94855e+57
          1247.87730	         4.38620e+57
          1248.68360	         3.24346e+57
          1249.48990	         4.93934e+57
          1250.29620	         1.03563e+58
          1251.10250	         8.76212e+57
          1251.90880	         6.78388e+57
          1252.71510	         5.55457e+57
          1253.52140	         6.64340e+57
          1254.32770	         9.93121e+57
          1255.13400	         1.47838e+58
          1255.94030	         1.38596e+58
          1256.74660	         1.22606e+58
          1257.55290	         1.11039e+58
          1258.35920	         7.37531e+57
          1259.16550	         5.88911e+57
          1259.97180	         6.71514e+57
          1260.77810	         9.24414e+57
          1261.58440	         1.02065e+58
          1262.39070	         8.44769e+57
          1263.19700	         8.50936e+57
          1264.00330	         8.50881e+57
          1264.80960	         8.59994e+57
          1265.61590	         1.11624e+58
          1266.42220	         1.36833e+58
          1267.22850	         1.30826e+58
          1268.03480	         1.43725e+58
          1268.84110	         1.54620e+58
          1269.64740	         1.36816e+58
          1270.45370	         1.35055e+58
          1271.26000	         1.22502e+58
          1272.06630	         1.16103e+58
          1272.87260	         1.12858e+58
          1273.67890	         1.10532e+58
          1274.48520	         1.25170e+58
          1275.29150	         1.21980e+58
          1276.09780	         1.14764e+58
          1276.90410	         1.64091e+58
          1277.71040	         1.43668e+58
          1278.51670	         1.24460e+58
          1279.32300	         1.55602e+58
          1280.12930	         1.60171e+58
          1280.93560	         1.42235e+58
          1281.74190	         1.31897e+58
          1282.54820	         1.38645e+58
          1283.35450	         1.20935e+58
          1284.16080	         1.22297e+58
          1284.96710	         1.40180e+58
          1285.77340	         1.02272e+58
          1286.57970	         1.09167e+58
          1287.38600	         1.62390e+58
          1288.19230	         1.68443e+58
          1288.99860	         1.46768e+58
          1289.80490	         1.06956e+58
          1290.61120	         1.41405e+58
          1291.41750	         1.46459e+58
          1292.22380	         1.17603e+58
          1293.03010	         1.07552e+58
          1293.83640	         1.33385e+58
          1294.64270	         1.15762e+58
          1295.44900	         8.03186e+57
          1296.25530	         7.98757e+57
          1297.06160	         9.58726e+57
          1297.86790	         1.00310e+58
          1298.67420	         1.04276e+58
          1299.48050	         9.87694e+57
          1300.28680	         1.07243e+58
          1301.09310	         1.03881e+58
          1301.89940	         4.94045e+57
          1302.70570	         5.77711e+57
          1303.51200	         8.08414e+57
          1304.31830	         1.02743e+58
          1305.12460	         1.05725e+58
          1305.93090	         1.00049e+58
          1306.73720	         1.16694e+58
          1307.54350	         1.26136e+58
          1308.34980	         1.47957e+58
          1309.15610	         1.59286e+58
          1309.96240	         1.61380e+58
          1310.76870	         1.43619e+58
          1311.57500	         1.31501e+58
          1312.38130	         1.01133e+58
          1313.18760	         1.29990e+58
          1313.99390	         1.76839e+58
          1314.80020	         1.80987e+58
          1315.60650	         1.64846e+58
          1316.41280	         1.35254e+58
          1317.21910	         1.29198e+58
          1318.02540	         1.36139e+58
          1318.83170	         1.29481e+58
          1319.63800	         1.28467e+58
          1320.44430	         1.15788e+58
          1321.25060	         1.25808e+58
          1322.05690	         1.29316e+58
          1322.86320	         1.18886e+58
          1323.66950	         1.03561e+58
          1324.47580	         8.31685e+57
          1325.28210	         8.75546e+57
          1326.08840	         1.01944e+58
          1326.89470	         1.23600e+58
          1327.70100	         1.19479e+58
          1328.50730	         8.53941e+57
          1329.31360	         8.91831e+57
          1330.11990	         9.79614e+57
          1330.92620	         8.68050e+57
          1331.73250	         9.34057e+57
          1332.53880	         9.82663e+57
          1333.34510	         1.01142e+58
          1334.15140	         9.17387e+57
          1334.95770	         9.03043e+57
          1335.76400	         1.07807e+58
          1336.57030	         1.13306e+58
          1337.37660	         1.12351e+58
          1338.18290	         1.05194e+58
          1338.98920	         9.91232e+57
          1339.79550	         1.21446e+58
          1340.60180	         1.38427e+58
          1341.40810	         1.23778e+58
          1342.21440	         9.32450e+57
          1343.02070	         1.20659e+58
          1343.82700	         1.46666e+58
          1344.63330	         1.28928e+58
          1345.43960	         1.20405e+58
          1346.24590	         9.09185e+57
          1347.05220	         1.04253e+58
          1347.85850	         1.02782e+58
          1348.66480	         1.23559e+58
          1349.47110	         1.30006e+58
          1350.27740	         1.20222e+58
          1351.08370	         1.17523e+58
          1351.89000	         1.16308e+58
          1352.69630	         1.20972e+58
          1353.50260	         1.04860e+58
          1354.30890	         1.01377e+58
          1355.11520	         1.21450e+58
          1355.92150	         1.12865e+58
          1356.72780	         1.08188e+58
          1357.53410	         1.03565e+58
          1358.34040	         1.04066e+58
          1359.14670	         1.09315e+58
          1359.95300	         1.11522e+58
          1360.75930	         1.24796e+58
          1361.56560	         1.18832e+58
          1362.37190	         1.13614e+58
          1363.17820	         1.03015e+58
          1363.98450	         1.10943e+58
          1364.79080	         1.21681e+58
          1365.59710	         1.23256e+58
          1366.40340	         1.32370e+58
          1367.20970	         1.16026e+58
          1368.01600	         1.12282e+58
          1368.82230	         9.65680e+57
          1369.62860	         9.28236e+57
          1370.43490	         9.30696e+57
          1371.24120	         9.41771e+57
          1372.04750	         9.95172e+57
          1372.85380	         1.14065e+58
          1373.66010	         1.11836e+58
          1374.46640	         1.09177e+58
          1375.27270	         1.24619e+58
          1376.07900	         1.09584e+58
          1376.88530	         8.74560e+57
          1377.69160	         9.44036e+57
          1378.49790	         8.90922e+57
          1379.30420	         7.77358e+57
          1380.11050	         9.22143e+57
          1380.91680	         9.28900e+57
          1381.72310	         7.13490e+57
          1382.52940	         8.22834e+57
          1383.33570	         7.37421e+57
          1384.14200	         8.74575e+57
          1384.94830	         1.08935e+58
          1385.75460	         1.12163e+58
          1386.56090	         1.15758e+58
          1387.36720	         1.15423e+58
          1388.17350	         1.19187e+58
          1388.97980	         8.63362e+57
          1389.78610	         6.95119e+57
          1390.59240	         7.92483e+57
          1391.39870	         7.72641e+57
          1392.20500	         7.92429e+57
          1393.01130	         8.95041e+57
          1393.81760	         7.38929e+57
          1394.62390	         5.98186e+57
          1395.43020	         6.53696e+57
          1396.23650	         6.24783e+57
          1397.04280	         5.98091e+57
          1397.84910	         8.88546e+57
          1398.65540	         1.00380e+58
          1399.46170	         9.58493e+57
          1400.26800	         8.37536e+57
          1401.07430	         7.10104e+57
          1401.88060	         7.49988e+57
          1402.68690	         9.58529e+57
          1403.49320	         1.08537e+58
          1404.29950	         9.36366e+57
          1405.10580	         1.05749e+58
          1405.91210	         1.14199e+58
          1406.71840	         1.04230e+58
          1407.52470	         1.00956e+58
          1408.33100	         9.65691e+57
          1409.13730	         1.14048e+58
          1409.94360	         1.23107e+58
          1410.74990	         1.22180e+58
          1411.55620	         1.24768e+58
          1412.36250	         1.04801e+58
          1413.16880	         8.23743e+57
          1413.97510	         6.78740e+57
          1414.78140	         6.64458e+57
          1415.58770	         8.65213e+57
          1416.39400	         1.01922e+58
          1417.20030	         1.04759e+58
          1418.00660	         9.29530e+57
          1418.81290	         9.63525e+57
          1419.61920	         1.17594e+58
          1420.42550	         1.24253e+58
          1421.23180	         1.31936e+58
          1422.03810	         1.27371e+58
          1422.84440	         1.04272e+58
          1423.65070	         1.15082e+58
          1424.45700	         1.09265e+58
          1425.26330	         8.65756e+57
          1426.06960	         9.10946e+57
          1426.87590	         1.00781e+58
          1427.68220	         1.00046e+58
          1428.48850	         1.03086e+58
          1429.29480	         9.27924e+57
          1430.10110	         9.53080e+57
          1430.90740	         9.65599e+57
          1431.71370	         9.06172e+57
          1432.52000	         9.02921e+57
          1433.32630	         8.36428e+57
          1434.13260	         6.83208e+57
          1434.93890	         6.57753e+57
          1435.74520	         8.67317e+57
          1436.55150	         1.02619e+58
          1437.35780	         9.16942e+57
          1438.16410	         8.88362e+57
          1438.97040	         9.41091e+57
          1439.77670	         8.81639e+57
          1440.58300	         8.82234e+57
          1441.38930	         9.58881e+57
          1442.19560	         9.35823e+57
          1443.00190	         8.62076e+57
          1443.80820	         1.10024e+58
          1444.61450	         1.10659e+58
          1445.42080	         8.79779e+57
          1446.22710	         1.05786e+58
          1447.03340	         8.91159e+57
          1447.83970	         9.55949e+57
          1448.64600	         1.09916e+58
          1449.45230	         1.13212e+58
          1450.25860	         1.08315e+58
          1451.06490	         8.92420e+57
          1451.87120	         7.72130e+57
          1452.67750	         6.94480e+57
          1453.48380	         8.29072e+57
          1454.29010	         8.97161e+57
          1455.09640	         8.16232e+57
          1455.90270	         9.67123e+57
          1456.70900	         1.01694e+58
          1457.51530	         1.07816e+58
          1458.32160	         1.19543e+58
          1459.12790	         1.23989e+58
          1459.93420	         1.10254e+58
          1460.74050	         8.45151e+57
          1461.54680	         8.57376e+57
          1462.35310	         7.58945e+57
          1463.15940	         9.72728e+57
          1463.96570	         1.26928e+58
          1464.77200	         1.23024e+58
          1465.57830	         1.04822e+58
          1466.38460	         1.00439e+58
          1467.19090	         9.13603e+57
          1467.99720	         9.41648e+57
          1468.80350	         9.66118e+57
          1469.60980	         1.01131e+58
          1470.41610	         1.14517e+58
          1471.22240	         1.09675e+58
          1472.02870	         1.03543e+58
          1472.83500	         1.00715e+58
          1473.64130	         1.02636e+58
          1474.44760	         1.10130e+58
          1475.25390	         9.65781e+57
          1476.06020	         8.83891e+57
          1476.86650	         9.07306e+57
          1477.67280	         8.16471e+57
          1478.47910	         6.71172e+57
          1479.28540	         6.73851e+57
          1480.09170	         7.38550e+57
          1480.89800	         7.84070e+57
          1481.70430	         8.12724e+57
          1482.51060	         7.89754e+57
          1483.31690	         8.16515e+57
          1484.12320	         8.84305e+57
          1484.92950	         8.56666e+57
          1485.73580	         8.28824e+57
          1486.54210	         7.77992e+57
          1487.34840	         8.36196e+57
          1488.15470	         9.12887e+57
          1488.96100	         9.16082e+57
          1489.76730	         8.41741e+57
