#sample_356_stacked_spectrum_rest_UV-bands_median_H-alpha_noDC.txt
#median Lum: 1.70165e+42
#Rest-frame wavelength (A) | Luminosity (erg/s/A)
#
          1110.00000	         0.00000e+00
          1110.80630	         5.38939e+58
          1111.61260	         1.48195e+59
          1112.41890	         1.11846e+59
          1113.22520	        -7.63304e+57
          1114.03150	        -2.19126e+59
          1114.83780	         2.33434e+59
          1115.64410	         1.65247e+59
          1116.45040	        -8.93740e+58
          1117.25670	         4.83226e+58
          1118.06300	         1.22732e+59
          1118.86930	        -8.01879e+58
          1119.67560	        -3.11724e+58
          1120.48190	        -5.28118e+58
          1121.28820	        -7.85449e+58
          1122.09450	         4.71811e+58
          1122.90080	         3.59282e+58
          1123.70710	         6.60137e+58
          1124.51340	         9.04054e+58
          1125.31970	         2.45050e+58
          1126.12600	        -9.38372e+57
          1126.93230	         9.42740e+57
          1127.73860	        -6.68888e+58
          1128.54490	        -1.65096e+58
          1129.35120	         3.31070e+58
          1130.15750	         1.45213e+58
          1130.96380	         1.81633e+58
          1131.77010	         5.94177e+58
          1132.57640	         3.43401e+58
          1133.38270	         1.74908e+58
          1134.18900	         1.58155e+58
          1134.99530	         2.32985e+58
          1135.80160	         1.08320e+58
          1136.60790	         1.98224e+58
          1137.41420	         2.65191e+58
          1138.22050	         5.31591e+58
          1139.02680	         5.14550e+58
          1139.83310	         3.31322e+58
          1140.63940	         3.15148e+58
          1141.44570	        -2.87631e+58
          1142.25200	        -2.74245e+58
          1143.05830	         1.20194e+58
          1143.86460	         3.01073e+58
          1144.67090	         9.21242e+57
          1145.47720	         2.68905e+57
          1146.28350	         1.35329e+58
          1147.08980	         1.23388e+58
          1147.89610	         1.62106e+58
          1148.70240	         2.27803e+58
          1149.50870	         2.56250e+58
          1150.31500	         8.46847e+57
          1151.12130	         4.73817e+57
          1151.92760	         5.02029e+57
          1152.73390	         7.33794e+57
          1153.54020	         5.58773e+57
          1154.34650	         1.90406e+58
          1155.15280	         1.76752e+58
          1155.95910	         5.96777e+57
          1156.76540	         6.53265e+57
          1157.57170	        -6.48045e+57
          1158.37800	         6.78392e+57
          1159.18430	         2.78809e+57
          1159.99060	         9.81711e+57
          1160.79690	         1.28541e+58
          1161.60320	         1.94959e+58
          1162.40950	         1.59482e+58
          1163.21580	         1.85861e+58
          1164.02210	         1.18995e+58
          1164.82840	         1.08111e+58
          1165.63470	         2.40577e+58
          1166.44100	         3.12669e+58
          1167.24730	         2.12561e+58
          1168.05360	         1.70816e+58
          1168.85990	         1.15913e+58
          1169.66620	         1.12207e+58
          1170.47250	         9.23081e+57
          1171.27880	         3.66224e+57
          1172.08510	         6.91022e+57
          1172.89140	         5.26627e+57
          1173.69770	         6.40637e+57
          1174.50400	         7.64467e+57
          1175.31030	         1.53685e+58
          1176.11660	         1.71544e+58
          1176.92290	         1.12487e+58
          1177.72920	         1.26632e+58
          1178.53550	         6.51625e+57
          1179.34180	         4.19921e+57
          1180.14810	         5.19751e+57
          1180.95440	         6.74718e+57
          1181.76070	         6.13067e+57
          1182.56700	         4.19002e+57
          1183.37330	         8.20013e+57
          1184.17960	         1.89665e+58
          1184.98590	         1.11736e+58
          1185.79220	         5.87263e+57
          1186.59850	         9.27548e+57
          1187.40480	         7.88023e+57
          1188.21110	         1.25198e+58
          1189.01740	         7.86606e+57
          1189.82370	         8.53316e+57
          1190.63000	         1.24500e+58
          1191.43630	         1.77726e+58
          1192.24260	         1.04939e+58
          1193.04890	         9.47856e+57
          1193.85520	         1.27175e+58
          1194.66150	         4.20025e+57
          1195.46780	         9.18430e+57
          1196.27410	         1.32075e+58
          1197.08040	         5.92466e+57
          1197.88670	         1.26586e+58
          1198.69300	         1.90254e+58
          1199.49930	         1.98091e+58
          1200.30560	         1.13351e+58
          1201.11190	         1.00496e+58
          1201.91820	         7.70354e+57
          1202.72450	         1.18074e+58
          1203.53080	         1.99968e+58
          1204.33710	         1.18766e+58
          1205.14340	         1.10601e+58
          1205.94970	         8.99528e+57
          1206.75600	         4.62575e+57
          1207.56230	         4.15764e+57
          1208.36860	         6.54866e+57
          1209.17490	         4.66563e+57
          1209.98120	         6.45254e+57
          1210.78750	         5.99021e+57
          1211.59380	         9.75776e+57
          1212.40010	         1.88556e+58
          1213.20640	         2.04363e+58
          1214.01270	         2.16083e+58
          1214.81900	         2.40407e+58
          1215.62530	         4.30064e+58
          1216.43160	         8.76779e+58
          1217.23790	         1.53576e+59
          1218.04420	         1.19543e+59
          1218.85050	         8.72951e+58
          1219.65680	         6.10959e+58
          1220.46310	         3.66990e+58
          1221.26940	         2.25135e+58
          1222.07570	         1.40192e+58
          1222.88200	         1.10488e+58
          1223.68830	         9.36456e+57
          1224.49460	         5.96384e+57
          1225.30090	         4.72281e+57
          1226.10720	         4.64516e+57
          1226.91350	         4.87167e+57
          1227.71980	         7.25345e+57
          1228.52610	         1.35522e+58
          1229.33240	         8.37021e+57
          1230.13870	         7.82317e+57
          1230.94500	         8.15214e+57
          1231.75130	         5.36733e+57
          1232.55760	         8.15867e+57
          1233.36390	         8.73522e+57
          1234.17020	         1.05266e+58
          1234.97650	         7.36314e+57
          1235.78280	         8.49182e+57
          1236.58910	         9.15659e+57
          1237.39540	         7.52896e+57
          1238.20170	         8.61033e+57
          1239.00800	         1.19578e+58
          1239.81430	         1.62727e+58
          1240.62060	         1.32596e+58
          1241.42690	         1.02256e+58
          1242.23320	         1.30808e+58
          1243.03950	         8.80047e+57
          1243.84580	         8.01841e+57
          1244.65210	         1.02391e+58
          1245.45840	         9.54855e+57
          1246.26470	         7.71082e+57
          1247.07100	         6.36140e+57
          1247.87730	         8.17099e+57
          1248.68360	         6.19857e+57
          1249.48990	         7.76268e+57
          1250.29620	         9.43468e+57
          1251.10250	         7.97426e+57
          1251.90880	         6.17825e+57
          1252.71510	         7.05123e+57
          1253.52140	         7.16420e+57
          1254.32770	         8.80456e+57
          1255.13400	         1.04911e+58
          1255.94030	         1.03794e+58
          1256.74660	         1.11357e+58
          1257.55290	         1.24798e+58
          1258.35920	         1.11537e+58
          1259.16550	         6.70812e+57
          1259.97180	         5.46318e+57
          1260.77810	         8.91656e+57
          1261.58440	         1.25155e+58
          1262.39070	         9.41583e+57
          1263.19700	         7.61372e+57
          1264.00330	         9.07613e+57
          1264.80960	         1.18398e+58
          1265.61590	         1.36182e+58
          1266.42220	         1.15109e+58
          1267.22850	         1.13279e+58
          1268.03480	         1.47756e+58
          1268.84110	         1.49571e+58
          1269.64740	         1.34705e+58
          1270.45370	         1.53338e+58
          1271.26000	         1.38338e+58
          1272.06630	         1.28536e+58
          1272.87260	         1.23639e+58
          1273.67890	         1.25720e+58
          1274.48520	         1.25272e+58
          1275.29150	         1.03800e+58
          1276.09780	         1.03482e+58
          1276.90410	         1.33141e+58
          1277.71040	         1.25623e+58
          1278.51670	         1.06136e+58
          1279.32300	         1.19370e+58
          1280.12930	         1.10134e+58
          1280.93560	         1.06777e+58
          1281.74190	         1.25156e+58
          1282.54820	         1.26485e+58
          1283.35450	         1.05521e+58
          1284.16080	         1.06801e+58
          1284.96710	         1.32358e+58
          1285.77340	         1.18974e+58
          1286.57970	         1.03265e+58
          1287.38600	         1.40746e+58
          1288.19230	         1.94625e+58
          1288.99860	         1.79134e+58
          1289.80490	         1.23957e+58
          1290.61120	         1.33139e+58
          1291.41750	         1.52807e+58
          1292.22380	         1.36541e+58
          1293.03010	         1.07047e+58
          1293.83640	         1.15816e+58
          1294.64270	         1.00554e+58
          1295.44900	         5.74970e+57
          1296.25530	         8.27241e+57
          1297.06160	         9.08219e+57
          1297.86790	         8.63362e+57
          1298.67420	         8.90130e+57
          1299.48050	         9.95128e+57
          1300.28680	         1.08959e+58
          1301.09310	         8.93037e+57
          1301.89940	         5.07638e+57
          1302.70570	         6.21556e+57
          1303.51200	         7.60475e+57
          1304.31830	         8.63189e+57
          1305.12460	         9.77717e+57
          1305.93090	         1.15128e+58
          1306.73720	         1.17474e+58
          1307.54350	         1.34402e+58
          1308.34980	         1.51555e+58
          1309.15610	         1.65996e+58
          1309.96240	         1.59475e+58
          1310.76870	         1.39508e+58
          1311.57500	         1.11006e+58
          1312.38130	         1.06855e+58
          1313.18760	         1.26789e+58
          1313.99390	         1.23181e+58
          1314.80020	         1.33378e+58
          1315.60650	         1.51648e+58
          1316.41280	         1.37397e+58
          1317.21910	         1.07866e+58
          1318.02540	         1.10743e+58
          1318.83170	         1.28989e+58
          1319.63800	         1.24362e+58
          1320.44430	         1.18712e+58
          1321.25060	         1.32810e+58
          1322.05690	         1.30590e+58
          1322.86320	         1.27651e+58
          1323.66950	         1.14946e+58
          1324.47580	         8.13809e+57
          1325.28210	         9.62935e+57
          1326.08840	         1.26469e+58
          1326.89470	         1.24704e+58
          1327.70100	         1.08771e+58
          1328.50730	         8.18954e+57
          1329.31360	         8.63285e+57
          1330.11990	         1.03533e+58
          1330.92620	         9.52172e+57
          1331.73250	         1.02664e+58
          1332.53880	         9.70547e+57
          1333.34510	         8.16009e+57
          1334.15140	         8.26948e+57
          1334.95770	         9.01254e+57
          1335.76400	         1.06388e+58
          1336.57030	         1.11004e+58
          1337.37660	         1.07881e+58
          1338.18290	         1.08705e+58
          1338.98920	         1.15488e+58
          1339.79550	         1.20448e+58
          1340.60180	         1.46676e+58
          1341.40810	         1.51038e+58
          1342.21440	         1.28514e+58
          1343.02070	         1.29019e+58
          1343.82700	         1.23484e+58
          1344.63330	         1.25879e+58
          1345.43960	         1.47755e+58
          1346.24590	         1.07499e+58
          1347.05220	         1.09873e+58
          1347.85850	         1.07062e+58
          1348.66480	         1.14588e+58
          1349.47110	         1.23472e+58
          1350.27740	         1.11194e+58
          1351.08370	         1.01689e+58
          1351.89000	         1.07093e+58
          1352.69630	         1.19435e+58
          1353.50260	         1.14299e+58
          1354.30890	         1.21287e+58
          1355.11520	         1.25785e+58
          1355.92150	         1.17638e+58
          1356.72780	         1.06076e+58
          1357.53410	         1.05768e+58
          1358.34040	         1.02896e+58
          1359.14670	         1.07386e+58
          1359.95300	         1.15657e+58
          1360.75930	         1.04852e+58
          1361.56560	         8.83137e+57
          1362.37190	         9.08914e+57
          1363.17820	         8.71785e+57
          1363.98450	         1.11981e+58
          1364.79080	         1.34246e+58
          1365.59710	         1.44663e+58
          1366.40340	         1.23108e+58
          1367.20970	         9.02246e+57
          1368.01600	         9.79175e+57
          1368.82230	         1.10897e+58
          1369.62860	         1.28146e+58
          1370.43490	         1.13716e+58
          1371.24120	         9.39209e+57
          1372.04750	         8.35299e+57
          1372.85380	         1.04421e+58
          1373.66010	         1.09861e+58
          1374.46640	         9.63623e+57
          1375.27270	         9.08227e+57
          1376.07900	         8.40674e+57
          1376.88530	         8.31708e+57
          1377.69160	         8.92583e+57
          1378.49790	         7.36673e+57
          1379.30420	         6.29217e+57
          1380.11050	         9.67976e+57
          1380.91680	         1.02062e+58
          1381.72310	         8.02899e+57
          1382.52940	         8.53570e+57
          1383.33570	         7.67577e+57
          1384.14200	         7.59093e+57
          1384.94830	         9.07475e+57
          1385.75460	         1.08597e+58
          1386.56090	         1.19485e+58
          1387.36720	         1.02609e+58
          1388.17350	         1.10187e+58
          1388.97980	         1.12463e+58
          1389.78610	         9.01421e+57
          1390.59240	         7.42616e+57
          1391.39870	         7.47934e+57
          1392.20500	         8.47700e+57
          1393.01130	         7.68567e+57
          1393.81760	         5.69722e+57
          1394.62390	         5.37126e+57
          1395.43020	         6.18043e+57
          1396.23650	         6.03140e+57
          1397.04280	         6.74984e+57
          1397.84910	         8.88147e+57
          1398.65540	         9.31146e+57
          1399.46170	         1.07573e+58
          1400.26800	         8.50886e+57
          1401.07430	         6.17065e+57
          1401.88060	         7.45621e+57
          1402.68690	         8.97851e+57
          1403.49320	         8.59613e+57
          1404.29950	         8.60149e+57
          1405.10580	         1.03155e+58
          1405.91210	         1.07750e+58
          1406.71840	         1.12345e+58
          1407.52470	         1.18566e+58
          1408.33100	         1.05124e+58
          1409.13730	         1.17793e+58
          1409.94360	         1.31844e+58
          1410.74990	         1.30562e+58
          1411.55620	         1.05162e+58
          1412.36250	         9.51999e+57
          1413.16880	         9.88497e+57
          1413.97510	         9.52233e+57
          1414.78140	         9.59999e+57
          1415.58770	         1.07577e+58
          1416.39400	         1.01006e+58
          1417.20030	         1.02289e+58
          1418.00660	         9.03929e+57
          1418.81290	         1.03452e+58
          1419.61920	         1.09308e+58
          1420.42550	         1.20882e+58
          1421.23180	         1.42459e+58
          1422.03810	         1.26348e+58
          1422.84440	         1.13732e+58
          1423.65070	         1.27939e+58
          1424.45700	         1.12828e+58
          1425.26330	         7.88883e+57
          1426.06960	         7.98486e+57
          1426.87590	         1.04647e+58
          1427.68220	         1.01726e+58
          1428.48850	         1.01878e+58
          1429.29480	         9.54843e+57
          1430.10110	         9.05506e+57
          1430.90740	         8.13255e+57
          1431.71370	         8.37869e+57
          1432.52000	         9.23401e+57
          1433.32630	         7.42509e+57
          1434.13260	         7.08378e+57
          1434.93890	         7.88979e+57
          1435.74520	         8.52557e+57
          1436.55150	         9.04117e+57
          1437.35780	         8.97202e+57
          1438.16410	         9.48516e+57
          1438.97040	         8.23309e+57
          1439.77670	         8.61323e+57
          1440.58300	         9.08389e+57
          1441.38930	         9.12380e+57
          1442.19560	         9.10735e+57
          1443.00190	         1.02708e+58
          1443.80820	         1.15178e+58
          1444.61450	         9.76810e+57
          1445.42080	         7.85029e+57
          1446.22710	         8.90173e+57
          1447.03340	         8.48347e+57
          1447.83970	         9.86606e+57
          1448.64600	         1.05531e+58
          1449.45230	         1.03836e+58
          1450.25860	         1.07611e+58
          1451.06490	         9.15029e+57
          1451.87120	         8.65763e+57
          1452.67750	         7.29301e+57
          1453.48380	         7.06280e+57
          1454.29010	         7.26818e+57
          1455.09640	         7.52966e+57
          1455.90270	         9.70218e+57
          1456.70900	         9.94869e+57
          1457.51530	         1.04522e+58
          1458.32160	         1.34101e+58
          1459.12790	         1.19455e+58
          1459.93420	         9.78017e+57
          1460.74050	         8.36224e+57
          1461.54680	         9.54256e+57
          1462.35310	         8.24453e+57
          1463.15940	         8.50716e+57
          1463.96570	         1.13779e+58
          1464.77200	         1.15869e+58
          1465.57830	         1.06908e+58
          1466.38460	         9.39524e+57
          1467.19090	         7.72309e+57
          1467.99720	         9.06158e+57
          1468.80350	         9.77390e+57
          1469.60980	         1.02032e+58
          1470.41610	         1.04413e+58
          1471.22240	         1.03581e+58
          1472.02870	         9.70349e+57
          1472.83500	         9.55141e+57
          1473.64130	         1.01561e+58
          1474.44760	         1.10357e+58
          1475.25390	         1.00721e+58
          1476.06020	         8.22282e+57
          1476.86650	         8.09595e+57
          1477.67280	         6.95505e+57
          1478.47910	         6.51067e+57
          1479.28540	         6.13056e+57
          1480.09170	         7.73084e+57
          1480.89800	         9.12517e+57
          1481.70430	         8.78385e+57
          1482.51060	         8.36569e+57
          1483.31690	         8.02462e+57
          1484.12320	         7.86931e+57
          1484.92950	         7.27062e+57
          1485.73580	         7.98193e+57
          1486.54210	         8.19621e+57
          1487.34840	         8.39257e+57
          1488.15470	         8.66248e+57
          1488.96100	         7.79236e+57
          1489.76730	         8.79955e+57
