#sample_312_stacked_spectrum_rest_UV-bands_median_H-alpha_noDC.txt
#median Lum: 1.71047e+42
#Rest-frame wavelength (A) | Luminosity (erg/s/A)
#
          1110.00000	         0.00000e+00
          1110.80630	         5.11773e+59
          1111.61260	         4.07651e+59
          1112.41890	         1.12008e+59
          1113.22520	         1.32408e+58
          1114.03150	         2.75010e+58
          1114.83780	         2.45767e+59
          1115.64410	         1.13187e+59
          1116.45040	         1.63686e+59
          1117.25670	        -8.53634e+57
          1118.06300	         7.53644e+58
          1118.86930	         6.19498e+56
          1119.67560	         2.54155e+58
          1120.48190	        -1.20345e+56
          1121.28820	        -6.92738e+58
          1122.09450	         6.36312e+58
          1122.90080	         3.44427e+58
          1123.70710	        -4.51676e+57
          1124.51340	         3.44897e+58
          1125.31970	         2.12087e+58
          1126.12600	         1.32628e+58
          1126.93230	        -4.05004e+58
          1127.73860	        -1.14982e+59
          1128.54490	        -3.35850e+58
          1129.35120	         1.47959e+58
          1130.15750	        -2.87416e+58
          1130.96380	        -3.91879e+58
          1131.77010	         4.67700e+58
          1132.57640	         5.32524e+58
          1133.38270	         1.63948e+58
          1134.18900	         1.35337e+58
          1134.99530	        -1.58090e+58
          1135.80160	         2.21697e+58
          1136.60790	         1.59286e+58
          1137.41420	         2.10254e+58
          1138.22050	         6.79617e+58
          1139.02680	         4.61889e+58
          1139.83310	         8.83835e+57
          1140.63940	         2.78398e+58
          1141.44570	         2.33989e+57
          1142.25200	        -1.64950e+58
          1143.05830	         2.58593e+57
          1143.86460	         1.78574e+58
          1144.67090	         4.43015e+58
          1145.47720	         2.48331e+58
          1146.28350	         1.44632e+58
          1147.08980	         7.26914e+57
          1147.89610	         1.96367e+58
          1148.70240	         2.96457e+58
          1149.50870	         2.19073e+58
          1150.31500	         1.76390e+58
          1151.12130	         1.86576e+58
          1151.92760	         1.21907e+58
          1152.73390	         1.70977e+58
          1153.54020	         4.28543e+57
          1154.34650	         1.71919e+58
          1155.15280	         1.26860e+58
          1155.95910	         5.87651e+57
          1156.76540	        -9.69149e+57
          1157.57170	        -9.35321e+57
          1158.37800	         7.96799e+56
          1159.18430	        -2.07068e+57
          1159.99060	         5.60050e+57
          1160.79690	        -3.17570e+57
          1161.60320	         1.95264e+57
          1162.40950	         2.04549e+58
          1163.21580	         1.17927e+58
          1164.02210	         1.48559e+58
          1164.82840	         3.16994e+57
          1165.63470	         2.19289e+58
          1166.44100	         2.87460e+58
          1167.24730	         2.36154e+58
          1168.05360	         1.05511e+58
          1168.85990	         4.68903e+57
          1169.66620	         1.39759e+58
          1170.47250	         1.49622e+58
          1171.27880	         4.17944e+57
          1172.08510	         2.25202e+56
          1172.89140	         4.31848e+57
          1173.69770	         1.36503e+58
          1174.50400	         1.45134e+58
          1175.31030	         1.69336e+58
          1176.11660	         1.65549e+58
          1176.92290	         1.28950e+58
          1177.72920	         1.07107e+58
          1178.53550	         8.51062e+57
          1179.34180	         6.86243e+57
          1180.14810	         1.09032e+58
          1180.95440	         6.71292e+57
          1181.76070	         7.81812e+57
          1182.56700	         1.10845e+58
          1183.37330	         8.50524e+57
          1184.17960	         1.56053e+58
          1184.98590	         1.33674e+58
          1185.79220	         8.75322e+57
          1186.59850	         1.36100e+58
          1187.40480	         1.11858e+58
          1188.21110	         1.65568e+58
          1189.01740	         7.12242e+57
          1189.82370	         6.03269e+57
          1190.63000	         1.30143e+58
          1191.43630	         1.19688e+58
          1192.24260	         9.15852e+57
          1193.04890	         1.04835e+58
          1193.85520	         1.41382e+58
          1194.66150	         4.14084e+57
          1195.46780	         9.04079e+57
          1196.27410	         1.17310e+58
          1197.08040	         7.11272e+57
          1197.88670	         1.16098e+58
          1198.69300	         1.26661e+58
          1199.49930	         1.20373e+58
          1200.30560	         9.20822e+57
          1201.11190	         1.18016e+58
          1201.91820	         1.01664e+58
          1202.72450	         6.26971e+57
          1203.53080	         1.32035e+58
          1204.33710	         7.03477e+57
          1205.14340	         2.30914e+57
          1205.94970	         2.06964e+57
          1206.75600	         6.93726e+57
          1207.56230	         1.03179e+58
          1208.36860	         1.14751e+58
          1209.17490	         7.87628e+57
          1209.98120	         1.21299e+58
          1210.78750	         7.18360e+57
          1211.59380	         1.13621e+58
          1212.40010	         1.54539e+58
          1213.20640	         2.01559e+58
          1214.01270	         2.21030e+58
          1214.81900	         2.99583e+58
          1215.62530	         4.78354e+58
          1216.43160	         9.03833e+58
          1217.23790	         1.53451e+59
          1218.04420	         1.12919e+59
          1218.85050	         8.45539e+58
          1219.65680	         5.86615e+58
          1220.46310	         3.43067e+58
          1221.26940	         2.19084e+58
          1222.07570	         1.32034e+58
          1222.88200	         1.17188e+58
          1223.68830	         1.21198e+58
          1224.49460	         9.41561e+57
          1225.30090	         5.85287e+57
          1226.10720	         7.20409e+57
          1226.91350	         2.36564e+57
          1227.71980	         4.36406e+57
          1228.52610	         1.00728e+58
          1229.33240	         1.03232e+58
          1230.13870	         8.62475e+57
          1230.94500	         6.29765e+57
          1231.75130	         8.05007e+57
          1232.55760	         1.08369e+58
          1233.36390	         9.31105e+57
          1234.17020	         9.51541e+57
          1234.97650	         1.00290e+58
          1235.78280	         8.59183e+57
          1236.58910	         9.03612e+57
          1237.39540	         1.18765e+58
          1238.20170	         1.15596e+58
          1239.00800	         1.22363e+58
          1239.81430	         1.35155e+58
          1240.62060	         1.06500e+58
          1241.42690	         1.12557e+58
          1242.23320	         1.10928e+58
          1243.03950	         8.20271e+57
          1243.84580	         7.93525e+57
          1244.65210	         1.03239e+58
          1245.45840	         1.06114e+58
          1246.26470	         8.03559e+57
          1247.07100	         6.28037e+57
          1247.87730	         5.82893e+57
          1248.68360	         5.24425e+57
          1249.48990	         7.66692e+57
          1250.29620	         1.00249e+58
          1251.10250	         5.85469e+57
          1251.90880	         3.77758e+57
          1252.71510	         5.27847e+57
          1253.52140	         8.58834e+57
          1254.32770	         1.21265e+58
          1255.13400	         1.34637e+58
          1255.94030	         1.14692e+58
          1256.74660	         8.53054e+57
          1257.55290	         8.85058e+57
          1258.35920	         7.55792e+57
          1259.16550	         4.93763e+57
          1259.97180	         4.46988e+57
          1260.77810	         9.51495e+57
          1261.58440	         1.01477e+58
          1262.39070	         8.00337e+57
          1263.19700	         8.97771e+57
          1264.00330	         8.19590e+57
          1264.80960	         1.10552e+58
          1265.61590	         1.43728e+58
          1266.42220	         1.15832e+58
          1267.22850	         1.05886e+58
          1268.03480	         1.47569e+58
          1268.84110	         1.59445e+58
          1269.64740	         1.58066e+58
          1270.45370	         1.43262e+58
          1271.26000	         1.21983e+58
          1272.06630	         1.32259e+58
          1272.87260	         1.32436e+58
          1273.67890	         1.07007e+58
          1274.48520	         9.45482e+57
          1275.29150	         1.03080e+58
          1276.09780	         1.10241e+58
          1276.90410	         1.35374e+58
          1277.71040	         1.20739e+58
          1278.51670	         1.05615e+58
          1279.32300	         1.44338e+58
          1280.12930	         1.38594e+58
          1280.93560	         1.11158e+58
          1281.74190	         1.14435e+58
          1282.54820	         1.09519e+58
          1283.35450	         1.04790e+58
          1284.16080	         1.04195e+58
          1284.96710	         1.25578e+58
          1285.77340	         1.29202e+58
          1286.57970	         1.19163e+58
          1287.38600	         1.39805e+58
          1288.19230	         1.58067e+58
          1288.99860	         1.45754e+58
          1289.80490	         1.05437e+58
          1290.61120	         1.27170e+58
          1291.41750	         1.44366e+58
          1292.22380	         1.44312e+58
          1293.03010	         1.35815e+58
          1293.83640	         1.23434e+58
          1294.64270	         8.69950e+57
          1295.44900	         4.91844e+57
          1296.25530	         7.16189e+57
          1297.06160	         1.25379e+58
          1297.86790	         1.07917e+58
          1298.67420	         9.09415e+57
          1299.48050	         8.12011e+57
          1300.28680	         9.92193e+57
          1301.09310	         8.61916e+57
          1301.89940	         4.69750e+57
          1302.70570	         5.87493e+57
          1303.51200	         9.36277e+57
          1304.31830	         9.61255e+57
          1305.12460	         1.05029e+58
          1305.93090	         1.14607e+58
          1306.73720	         1.24313e+58
          1307.54350	         1.45008e+58
          1308.34980	         1.57587e+58
          1309.15610	         1.62499e+58
          1309.96240	         1.50754e+58
          1310.76870	         1.33270e+58
          1311.57500	         1.25878e+58
          1312.38130	         1.27588e+58
          1313.18760	         1.32360e+58
          1313.99390	         1.62008e+58
          1314.80020	         1.56250e+58
          1315.60650	         1.22486e+58
          1316.41280	         1.19844e+58
          1317.21910	         1.12238e+58
          1318.02540	         1.30054e+58
          1318.83170	         1.46702e+58
          1319.63800	         1.32533e+58
          1320.44430	         1.11052e+58
          1321.25060	         1.20489e+58
          1322.05690	         1.23470e+58
          1322.86320	         1.28697e+58
          1323.66950	         1.05726e+58
          1324.47580	         8.95079e+57
          1325.28210	         1.05517e+58
          1326.08840	         1.20713e+58
          1326.89470	         1.22613e+58
          1327.70100	         1.07578e+58
          1328.50730	         8.31337e+57
          1329.31360	         8.59415e+57
          1330.11990	         8.78401e+57
          1330.92620	         8.72446e+57
          1331.73250	         1.10672e+58
          1332.53880	         9.46933e+57
          1333.34510	         7.77460e+57
          1334.15140	         8.49393e+57
          1334.95770	         8.76348e+57
          1335.76400	         9.94199e+57
          1336.57030	         1.13235e+58
          1337.37660	         1.17690e+58
          1338.18290	         1.29621e+58
          1338.98920	         1.20893e+58
          1339.79550	         1.08850e+58
          1340.60180	         1.24121e+58
          1341.40810	         1.38594e+58
          1342.21440	         1.03433e+58
          1343.02070	         9.79917e+57
          1343.82700	         1.30787e+58
          1344.63330	         1.32358e+58
          1345.43960	         1.32591e+58
          1346.24590	         1.23070e+58
          1347.05220	         1.27667e+58
          1347.85850	         1.13330e+58
          1348.66480	         1.35627e+58
          1349.47110	         1.30459e+58
          1350.27740	         1.12608e+58
          1351.08370	         1.12921e+58
          1351.89000	         1.24866e+58
          1352.69630	         1.19221e+58
          1353.50260	         1.08610e+58
          1354.30890	         1.14977e+58
          1355.11520	         1.29636e+58
          1355.92150	         1.18024e+58
          1356.72780	         1.12173e+58
          1357.53410	         1.11668e+58
          1358.34040	         1.09469e+58
          1359.14670	         1.16517e+58
          1359.95300	         1.24835e+58
          1360.75930	         1.26452e+58
          1361.56560	         1.22399e+58
          1362.37190	         1.18535e+58
          1363.17820	         1.24930e+58
          1363.98450	         1.20231e+58
          1364.79080	         9.86765e+57
          1365.59710	         1.07778e+58
          1366.40340	         1.21841e+58
          1367.20970	         1.15443e+58
          1368.01600	         9.33116e+57
          1368.82230	         8.97966e+57
          1369.62860	         1.15176e+58
          1370.43490	         1.06216e+58
          1371.24120	         9.75052e+57
          1372.04750	         9.70100e+57
          1372.85380	         9.58265e+57
          1373.66010	         9.98928e+57
          1374.46640	         1.06873e+58
          1375.27270	         1.16811e+58
          1376.07900	         9.86240e+57
          1376.88530	         9.11197e+57
          1377.69160	         8.77263e+57
          1378.49790	         7.51168e+57
          1379.30420	         7.65884e+57
          1380.11050	         9.28780e+57
          1380.91680	         9.23443e+57
          1381.72310	         8.55328e+57
          1382.52940	         9.89258e+57
          1383.33570	         1.08110e+58
          1384.14200	         1.02574e+58
          1384.94830	         1.12894e+58
          1385.75460	         1.09868e+58
          1386.56090	         1.13623e+58
          1387.36720	         1.04123e+58
          1388.17350	         1.16355e+58
          1388.97980	         1.09012e+58
          1389.78610	         8.95637e+57
          1390.59240	         8.27674e+57
          1391.39870	         7.03878e+57
          1392.20500	         8.67869e+57
          1393.01130	         7.79745e+57
          1393.81760	         7.73829e+57
          1394.62390	         8.28833e+57
          1395.43020	         6.29965e+57
          1396.23650	         4.65869e+57
          1397.04280	         5.60115e+57
          1397.84910	         7.07019e+57
          1398.65540	         8.76359e+57
          1399.46170	         9.10643e+57
          1400.26800	         7.75993e+57
          1401.07430	         8.60140e+57
          1401.88060	         8.88445e+57
          1402.68690	         9.21951e+57
          1403.49320	         8.43113e+57
          1404.29950	         8.74167e+57
          1405.10580	         1.13664e+58
          1405.91210	         1.21283e+58
          1406.71840	         1.20471e+58
          1407.52470	         1.05627e+58
          1408.33100	         9.32651e+57
          1409.13730	         1.00238e+58
          1409.94360	         1.17913e+58
          1410.74990	         1.16958e+58
          1411.55620	         1.05263e+58
          1412.36250	         9.92468e+57
          1413.16880	         9.80590e+57
          1413.97510	         9.61313e+57
          1414.78140	         1.05841e+58
          1415.58770	         1.20437e+58
          1416.39400	         1.09747e+58
          1417.20030	         1.15256e+58
          1418.00660	         1.25130e+58
          1418.81290	         1.08712e+58
          1419.61920	         9.29800e+57
          1420.42550	         1.10562e+58
          1421.23180	         1.61555e+58
          1422.03810	         1.41695e+58
          1422.84440	         1.24714e+58
          1423.65070	         1.49575e+58
          1424.45700	         1.25830e+58
          1425.26330	         8.98582e+57
          1426.06960	         8.70031e+57
          1426.87590	         1.10496e+58
          1427.68220	         1.05409e+58
          1428.48850	         1.10837e+58
          1429.29480	         1.11872e+58
          1430.10110	         1.02776e+58
          1430.90740	         9.22780e+57
          1431.71370	         9.69706e+57
          1432.52000	         1.02960e+58
          1433.32630	         8.98126e+57
          1434.13260	         9.63302e+57
          1434.93890	         9.24732e+57
          1435.74520	         8.48531e+57
          1436.55150	         8.84396e+57
          1437.35780	         8.52776e+57
          1438.16410	         8.51722e+57
          1438.97040	         8.95979e+57
          1439.77670	         8.94925e+57
          1440.58300	         1.00751e+58
          1441.38930	         1.10231e+58
          1442.19560	         1.01857e+58
          1443.00190	         1.09928e+58
          1443.80820	         1.19528e+58
          1444.61450	         1.00515e+58
          1445.42080	         8.84737e+57
          1446.22710	         9.67686e+57
          1447.03340	         9.40904e+57
          1447.83970	         1.01373e+58
          1448.64600	         1.04116e+58
          1449.45230	         1.02263e+58
          1450.25860	         1.06352e+58
          1451.06490	         8.32307e+57
          1451.87120	         6.64607e+57
          1452.67750	         7.42543e+57
          1453.48380	         8.42167e+57
          1454.29010	         8.03258e+57
          1455.09640	         7.39159e+57
          1455.90270	         7.05529e+57
          1456.70900	         8.71518e+57
          1457.51530	         1.08326e+58
          1458.32160	         1.27634e+58
          1459.12790	         1.32839e+58
          1459.93420	         1.08511e+58
          1460.74050	         8.25939e+57
          1461.54680	         7.35606e+57
          1462.35310	         7.04539e+57
          1463.15940	         9.50071e+57
          1463.96570	         1.25884e+58
          1464.77200	         1.20030e+58
          1465.57830	         1.03528e+58
          1466.38460	         9.65594e+57
          1467.19090	         9.01813e+57
          1467.99720	         9.59553e+57
          1468.80350	         1.02527e+58
          1469.60980	         1.00168e+58
          1470.41610	         1.06827e+58
          1471.22240	         9.65084e+57
          1472.02870	         9.89397e+57
          1472.83500	         1.01090e+58
          1473.64130	         1.08940e+58
          1474.44760	         1.04618e+58
          1475.25390	         1.05758e+58
          1476.06020	         1.01876e+58
          1476.86650	         8.59362e+57
          1477.67280	         7.73056e+57
          1478.47910	         6.59678e+57
          1479.28540	         7.71498e+57
          1480.09170	         8.81399e+57
          1480.89800	         9.40077e+57
          1481.70430	         8.57780e+57
          1482.51060	         8.01369e+57
          1483.31690	         8.37589e+57
          1484.12320	         8.39438e+57
          1484.92950	         8.95735e+57
          1485.73580	         8.33157e+57
          1486.54210	         8.13415e+57
          1487.34840	         8.16253e+57
          1488.15470	         8.18474e+57
          1488.96100	         8.41509e+57
          1489.76730	         9.97111e+57
