#sample_405_stacked_spectrum_rest_UV-bands_median_H-alpha_noDC.txt
#median Lum: 1.71350e+42
#Rest-frame wavelength (A) | Luminosity (erg/s/A)
#
          1110.00000	         0.00000e+00
          1110.80630	        -3.46902e+59
          1111.61260	         1.15546e+59
          1112.41890	         1.47784e+59
          1113.22520	         2.45540e+58
          1114.03150	         1.01913e+59
          1114.83780	         2.22658e+59
          1115.64410	         1.18872e+59
          1116.45040	         1.23526e+59
          1117.25670	        -8.82435e+58
          1118.06300	         2.27623e+59
          1118.86930	         4.41519e+58
          1119.67560	         7.46925e+58
          1120.48190	        -3.62951e+58
          1121.28820	        -1.06252e+59
          1122.09450	         4.97830e+58
          1122.90080	         5.08035e+58
          1123.70710	         4.89125e+58
          1124.51340	         1.35383e+59
          1125.31970	         4.71354e+58
          1126.12600	         4.35577e+58
          1126.93230	         1.95930e+58
          1127.73860	        -2.68053e+58
          1128.54490	        -1.01522e+58
          1129.35120	         4.93924e+58
          1130.15750	        -3.78579e+58
          1130.96380	        -3.69652e+58
          1131.77010	         8.05609e+57
          1132.57640	         2.43846e+58
          1133.38270	         5.86602e+57
          1134.18900	         2.87083e+58
          1134.99530	         1.49016e+58
          1135.80160	         3.96407e+58
          1136.60790	         2.81549e+58
          1137.41420	         5.93066e+56
          1138.22050	         4.82496e+58
          1139.02680	         9.40097e+57
          1139.83310	         2.49487e+57
          1140.63940	         1.21577e+58
          1141.44570	        -3.17214e+58
          1142.25200	        -1.57149e+58
          1143.05830	         1.77261e+58
          1143.86460	         3.49901e+58
          1144.67090	         3.13814e+58
          1145.47720	         5.74439e+57
          1146.28350	         2.16650e+58
          1147.08980	         9.92042e+57
          1147.89610	         1.68509e+58
          1148.70240	         2.06844e+58
          1149.50870	         2.86666e+58
          1150.31500	         8.92772e+57
          1151.12130	         3.18895e+57
          1151.92760	        -7.91129e+57
          1152.73390	         5.23400e+57
          1153.54020	         5.04984e+57
          1154.34650	         1.46464e+58
          1155.15280	         1.06609e+58
          1155.95910	         6.83253e+57
          1156.76540	         1.45197e+57
          1157.57170	         6.84678e+57
          1158.37800	         5.69470e+57
          1159.18430	        -1.76168e+57
          1159.99060	        -1.18946e+57
          1160.79690	         6.86626e+57
          1161.60320	         1.56161e+58
          1162.40950	         1.89026e+58
          1163.21580	         1.90906e+58
          1164.02210	         1.32846e+58
          1164.82840	         3.63373e+57
          1165.63470	         6.53213e+57
          1166.44100	         2.50288e+58
          1167.24730	         2.33227e+58
          1168.05360	         8.62248e+57
          1168.85990	         1.02247e+58
          1169.66620	         5.04562e+57
          1170.47250	         1.19544e+58
          1171.27880	         1.27110e+58
          1172.08510	         1.75992e+58
          1172.89140	         1.38913e+58
          1173.69770	         7.83028e+57
          1174.50400	         1.64007e+58
          1175.31030	         1.77899e+58
          1176.11660	         1.81737e+58
          1176.92290	         1.30522e+58
          1177.72920	         9.81689e+57
          1178.53550	         9.33479e+57
          1179.34180	         6.05344e+57
          1180.14810	         9.80483e+57
          1180.95440	         1.49558e+58
          1181.76070	         1.13339e+58
          1182.56700	         9.24106e+57
          1183.37330	         8.98596e+57
          1184.17960	         7.45455e+57
          1184.98590	         1.30369e+58
          1185.79220	         1.18101e+58
          1186.59850	         1.11865e+58
          1187.40480	         1.12015e+58
          1188.21110	         1.71304e+58
          1189.01740	         7.83385e+57
          1189.82370	         1.17084e+58
          1190.63000	         1.61116e+58
          1191.43630	         1.15718e+58
          1192.24260	         5.28572e+57
          1193.04890	         8.25580e+57
          1193.85520	         9.62387e+57
          1194.66150	         6.37894e+57
          1195.46780	         8.17412e+57
          1196.27410	         1.31967e+58
          1197.08040	         1.29332e+58
          1197.88670	         1.35164e+58
          1198.69300	         1.23241e+58
          1199.49930	         1.64823e+58
          1200.30560	         1.57024e+58
          1201.11190	         1.07403e+58
          1201.91820	         8.58360e+57
          1202.72450	         6.93172e+57
          1203.53080	         1.35535e+58
          1204.33710	         1.26949e+58
          1205.14340	         6.52661e+57
          1205.94970	         5.96990e+57
          1206.75600	         5.44871e+57
          1207.56230	         5.49265e+57
          1208.36860	         9.32538e+57
          1209.17490	         4.67022e+57
          1209.98120	         6.88136e+57
          1210.78750	         1.18530e+58
          1211.59380	         1.17756e+58
          1212.40010	         1.86772e+58
          1213.20640	         2.09210e+58
          1214.01270	         2.03488e+58
          1214.81900	         2.31616e+58
          1215.62530	         4.10241e+58
          1216.43160	         8.76982e+58
          1217.23790	         1.49688e+59
          1218.04420	         1.14733e+59
          1218.85050	         8.25022e+58
          1219.65680	         5.14288e+58
          1220.46310	         3.15795e+58
          1221.26940	         1.93586e+58
          1222.07570	         1.13889e+58
          1222.88200	         9.96769e+57
          1223.68830	         9.63079e+57
          1224.49460	         7.59538e+57
          1225.30090	         5.17613e+57
          1226.10720	         5.07027e+57
          1226.91350	         5.25081e+57
          1227.71980	         8.67132e+57
          1228.52610	         1.33100e+58
          1229.33240	         1.13904e+58
          1230.13870	         8.26481e+57
          1230.94500	         7.82307e+57
          1231.75130	         6.39074e+57
          1232.55760	         5.64520e+57
          1233.36390	         9.26328e+57
          1234.17020	         9.31851e+57
          1234.97650	         8.69258e+57
          1235.78280	         7.80489e+57
          1236.58910	         8.16307e+57
          1237.39540	         1.15449e+58
          1238.20170	         1.20192e+58
          1239.00800	         1.27294e+58
          1239.81430	         1.33613e+58
          1240.62060	         1.22487e+58
          1241.42690	         1.03350e+58
          1242.23320	         1.02143e+58
          1243.03950	         9.11901e+57
          1243.84580	         9.28045e+57
          1244.65210	         8.99194e+57
          1245.45840	         9.30269e+57
          1246.26470	         8.91095e+57
          1247.07100	         8.44062e+57
          1247.87730	         7.70797e+57
          1248.68360	         4.37620e+57
          1249.48990	         4.38129e+57
          1250.29620	         6.84763e+57
          1251.10250	         7.14051e+57
          1251.90880	         4.40819e+57
          1252.71510	         5.20465e+57
          1253.52140	         7.15006e+57
          1254.32770	         9.85992e+57
          1255.13400	         1.34479e+58
          1255.94030	         1.16272e+58
          1256.74660	         9.34162e+57
          1257.55290	         7.96815e+57
          1258.35920	         5.51738e+57
          1259.16550	         4.85222e+57
          1259.97180	         4.37161e+57
          1260.77810	         6.51585e+57
          1261.58440	         1.05853e+58
          1262.39070	         8.40672e+57
          1263.19700	         8.84186e+57
          1264.00330	         8.82462e+57
          1264.80960	         1.04332e+58
          1265.61590	         1.18657e+58
          1266.42220	         1.15388e+58
          1267.22850	         1.10839e+58
          1268.03480	         1.38139e+58
          1268.84110	         1.48032e+58
          1269.64740	         1.31721e+58
          1270.45370	         1.33106e+58
          1271.26000	         1.20849e+58
          1272.06630	         9.43414e+57
          1272.87260	         1.18134e+58
          1273.67890	         1.20393e+58
          1274.48520	         1.15404e+58
          1275.29150	         1.37732e+58
          1276.09780	         1.24204e+58
          1276.90410	         1.43820e+58
          1277.71040	         1.38053e+58
          1278.51670	         1.33145e+58
          1279.32300	         1.38188e+58
          1280.12930	         1.34176e+58
          1280.93560	         1.27630e+58
          1281.74190	         1.19276e+58
          1282.54820	         1.30759e+58
          1283.35450	         1.19819e+58
          1284.16080	         1.14021e+58
          1284.96710	         1.29699e+58
          1285.77340	         1.33506e+58
          1286.57970	         1.10816e+58
          1287.38600	         1.54302e+58
          1288.19230	         2.02604e+58
          1288.99860	         1.44011e+58
          1289.80490	         9.30931e+57
          1290.61120	         1.24235e+58
          1291.41750	         1.30898e+58
          1292.22380	         1.22199e+58
          1293.03010	         1.16027e+58
          1293.83640	         9.97010e+57
          1294.64270	         9.04223e+57
          1295.44900	         5.81136e+57
          1296.25530	         6.15380e+57
          1297.06160	         9.74245e+57
          1297.86790	         9.65028e+57
          1298.67420	         7.72508e+57
          1299.48050	         8.86677e+57
          1300.28680	         9.06861e+57
          1301.09310	         7.16795e+57
          1301.89940	         4.07629e+57
          1302.70570	         7.35315e+57
          1303.51200	         9.52282e+57
          1304.31830	         1.08252e+58
          1305.12460	         1.06826e+58
          1305.93090	         1.08634e+58
          1306.73720	         1.23816e+58
          1307.54350	         1.40752e+58
          1308.34980	         1.49910e+58
          1309.15610	         1.53224e+58
          1309.96240	         1.49181e+58
          1310.76870	         1.45604e+58
          1311.57500	         1.43539e+58
          1312.38130	         1.21214e+58
          1313.18760	         1.30777e+58
          1313.99390	         1.52822e+58
          1314.80020	         1.41721e+58
          1315.60650	         1.44932e+58
          1316.41280	         1.41811e+58
          1317.21910	         1.12684e+58
          1318.02540	         1.15424e+58
          1318.83170	         1.35665e+58
          1319.63800	         1.27134e+58
          1320.44430	         1.12703e+58
          1321.25060	         1.20488e+58
          1322.05690	         1.24353e+58
          1322.86320	         1.19363e+58
          1323.66950	         1.11720e+58
          1324.47580	         1.10888e+58
          1325.28210	         1.00454e+58
          1326.08840	         1.16393e+58
          1326.89470	         1.37116e+58
          1327.70100	         1.23963e+58
          1328.50730	         9.46626e+57
          1329.31360	         9.53955e+57
          1330.11990	         8.93786e+57
          1330.92620	         9.48843e+57
          1331.73250	         1.23171e+58
          1332.53880	         1.14079e+58
          1333.34510	         8.75459e+57
          1334.15140	         7.34308e+57
          1334.95770	         8.44694e+57
          1335.76400	         1.13360e+58
          1336.57030	         1.08477e+58
          1337.37660	         1.08643e+58
          1338.18290	         1.26257e+58
          1338.98920	         1.35953e+58
          1339.79550	         1.20502e+58
          1340.60180	         1.07904e+58
          1341.40810	         1.19132e+58
          1342.21440	         1.15428e+58
          1343.02070	         1.09483e+58
          1343.82700	         1.17571e+58
          1344.63330	         1.17099e+58
          1345.43960	         1.35934e+58
          1346.24590	         1.24335e+58
          1347.05220	         1.10635e+58
          1347.85850	         1.11615e+58
          1348.66480	         1.22885e+58
          1349.47110	         1.37847e+58
          1350.27740	         1.21025e+58
          1351.08370	         1.15645e+58
          1351.89000	         1.10603e+58
          1352.69630	         1.14214e+58
          1353.50260	         1.20107e+58
          1354.30890	         1.30675e+58
          1355.11520	         1.24403e+58
          1355.92150	         1.09172e+58
          1356.72780	         1.02716e+58
          1357.53410	         9.99724e+57
          1358.34040	         1.07435e+58
          1359.14670	         1.03708e+58
          1359.95300	         1.16692e+58
          1360.75930	         1.12833e+58
          1361.56560	         1.14191e+58
          1362.37190	         1.10803e+58
          1363.17820	         1.05611e+58
          1363.98450	         1.20846e+58
          1364.79080	         1.27362e+58
          1365.59710	         1.32507e+58
          1366.40340	         1.36116e+58
          1367.20970	         1.19875e+58
          1368.01600	         9.43164e+57
          1368.82230	         9.60965e+57
          1369.62860	         1.16417e+58
          1370.43490	         9.32502e+57
          1371.24120	         8.95299e+57
          1372.04750	         9.40565e+57
          1372.85380	         1.00938e+58
          1373.66010	         1.16621e+58
          1374.46640	         1.14893e+58
          1375.27270	         1.18087e+58
          1376.07900	         1.08279e+58
          1376.88530	         9.78064e+57
          1377.69160	         9.77574e+57
          1378.49790	         7.71889e+57
          1379.30420	         6.05971e+57
          1380.11050	         7.65804e+57
          1380.91680	         8.46664e+57
          1381.72310	         8.94116e+57
          1382.52940	         8.77085e+57
          1383.33570	         9.14028e+57
          1384.14200	         1.19669e+58
          1384.94830	         1.23148e+58
          1385.75460	         1.06495e+58
          1386.56090	         1.14098e+58
          1387.36720	         1.04293e+58
          1388.17350	         1.18428e+58
          1388.97980	         1.27063e+58
          1389.78610	         8.97676e+57
          1390.59240	         7.98588e+57
          1391.39870	         7.69383e+57
          1392.20500	         7.77104e+57
          1393.01130	         8.18477e+57
          1393.81760	         8.62677e+57
          1394.62390	         8.78248e+57
          1395.43020	         7.17383e+57
          1396.23650	         5.21922e+57
          1397.04280	         6.28646e+57
          1397.84910	         8.69927e+57
          1398.65540	         8.99957e+57
          1399.46170	         9.78838e+57
          1400.26800	         8.02018e+57
          1401.07430	         6.98676e+57
          1401.88060	         8.08937e+57
          1402.68690	         9.45165e+57
          1403.49320	         9.28490e+57
          1404.29950	         8.75880e+57
          1405.10580	         1.11621e+58
          1405.91210	         1.12685e+58
          1406.71840	         1.02982e+58
          1407.52470	         1.03217e+58
          1408.33100	         1.00284e+58
          1409.13730	         1.07880e+58
          1409.94360	         1.13260e+58
          1410.74990	         1.17585e+58
          1411.55620	         1.07705e+58
          1412.36250	         1.02304e+58
          1413.16880	         9.81589e+57
          1413.97510	         8.04434e+57
          1414.78140	         7.44860e+57
          1415.58770	         9.69762e+57
          1416.39400	         1.04630e+58
          1417.20030	         1.03957e+58
          1418.00660	         9.05923e+57
          1418.81290	         9.09339e+57
          1419.61920	         8.22530e+57
          1420.42550	         1.06707e+58
          1421.23180	         1.22837e+58
          1422.03810	         1.18408e+58
          1422.84440	         1.14992e+58
          1423.65070	         1.22235e+58
          1424.45700	         1.06405e+58
          1425.26330	         8.10441e+57
          1426.06960	         9.05862e+57
          1426.87590	         1.03940e+58
          1427.68220	         1.07073e+58
          1428.48850	         1.12001e+58
          1429.29480	         9.75998e+57
          1430.10110	         9.42938e+57
          1430.90740	         9.35954e+57
          1431.71370	         9.58852e+57
          1432.52000	         9.66099e+57
          1433.32630	         8.73676e+57
          1434.13260	         8.22397e+57
          1434.93890	         8.12728e+57
          1435.74520	         9.46587e+57
          1436.55150	         9.43984e+57
          1437.35780	         8.60332e+57
          1438.16410	         8.70368e+57
          1438.97040	         9.00143e+57
          1439.77670	         9.10071e+57
          1440.58300	         9.79204e+57
          1441.38930	         9.41736e+57
          1442.19560	         9.49735e+57
          1443.00190	         9.65596e+57
          1443.80820	         1.07122e+58
          1444.61450	         9.65195e+57
          1445.42080	         9.32770e+57
          1446.22710	         1.01760e+58
          1447.03340	         9.60386e+57
          1447.83970	         1.12871e+58
          1448.64600	         1.11345e+58
          1449.45230	         1.13394e+58
          1450.25860	         1.12125e+58
          1451.06490	         9.55939e+57
          1451.87120	         7.70344e+57
          1452.67750	         8.10026e+57
          1453.48380	         9.84725e+57
          1454.29010	         8.71884e+57
          1455.09640	         7.87324e+57
          1455.90270	         8.90938e+57
          1456.70900	         8.67000e+57
          1457.51530	         1.05037e+58
          1458.32160	         1.33994e+58
          1459.12790	         1.16934e+58
          1459.93420	         1.05810e+58
          1460.74050	         8.57402e+57
          1461.54680	         7.76242e+57
          1462.35310	         8.36029e+57
          1463.15940	         9.48512e+57
          1463.96570	         1.09451e+58
          1464.77200	         1.12763e+58
          1465.57830	         1.06326e+58
          1466.38460	         9.64126e+57
          1467.19090	         9.17051e+57
          1467.99720	         8.68425e+57
          1468.80350	         8.93701e+57
          1469.60980	         8.65993e+57
          1470.41610	         1.07770e+58
          1471.22240	         1.12251e+58
          1472.02870	         1.04733e+58
          1472.83500	         9.76771e+57
          1473.64130	         1.02168e+58
          1474.44760	         1.02051e+58
          1475.25390	         8.74153e+57
          1476.06020	         8.16868e+57
          1476.86650	         8.13425e+57
          1477.67280	         8.00642e+57
          1478.47910	         7.42242e+57
          1479.28540	         7.35842e+57
          1480.09170	         9.12309e+57
          1480.89800	         1.00471e+58
          1481.70430	         9.01099e+57
          1482.51060	         8.58528e+57
          1483.31690	         9.03006e+57
          1484.12320	         7.93736e+57
          1484.92950	         6.79284e+57
          1485.73580	         7.66565e+57
          1486.54210	         9.01762e+57
          1487.34840	         9.87179e+57
          1488.15470	         9.19074e+57
          1488.96100	         8.70123e+57
          1489.76730	         9.01818e+57
