#sample_70_stacked_spectrum_rest_UV-bands_median_H-alpha_noDC.txt
#median Lum: 1.67198e+42
#Rest-frame wavelength (A) | Luminosity (erg/s/A)
#
          1110.00000	         0.00000e+00
          1110.80630	         2.66544e+59
          1111.61260	        -1.16270e+59
          1112.41890	        -6.10198e+57
          1113.22520	        -1.12228e+59
          1114.03150	        -7.93193e+58
          1114.83780	         2.96543e+59
          1115.64410	         7.56669e+58
          1116.45040	        -2.38183e+59
          1117.25670	         1.75437e+58
          1118.06300	         2.23732e+59
          1118.86930	         2.55244e+58
          1119.67560	         1.05802e+59
          1120.48190	         2.87445e+58
          1121.28820	        -9.01421e+58
          1122.09450	        -2.78371e+58
          1122.90080	         1.15098e+59
          1123.70710	         1.47555e+59
          1124.51340	         1.42946e+59
          1125.31970	         2.19515e+58
          1126.12600	         1.74260e+58
          1126.93230	        -4.18212e+58
          1127.73860	         1.26160e+58
          1128.54490	         2.44022e+58
          1129.35120	        -9.24479e+57
          1130.15750	         2.54231e+57
          1130.96380	        -3.26832e+58
          1131.77010	         3.93147e+58
          1132.57640	        -2.18848e+57
          1133.38270	         2.74852e+58
          1134.18900	         5.06179e+58
          1134.99530	         1.05862e+58
          1135.80160	         1.95540e+58
          1136.60790	         5.26668e+57
          1137.41420	         4.23195e+57
          1138.22050	         3.20842e+58
          1139.02680	         2.45705e+58
          1139.83310	         3.09252e+58
          1140.63940	         5.51986e+57
          1141.44570	        -5.59201e+57
          1142.25200	         1.41210e+58
          1143.05830	         2.70974e+58
          1143.86460	         5.03496e+58
          1144.67090	         2.82342e+58
          1145.47720	         2.70060e+58
          1146.28350	         1.96949e+58
          1147.08980	         1.30633e+58
          1147.89610	         1.47307e+58
          1148.70240	         2.46590e+58
          1149.50870	         1.04651e+58
          1150.31500	         1.46582e+58
          1151.12130	         1.13372e+58
          1151.92760	         5.68987e+57
          1152.73390	         1.50323e+58
          1153.54020	         2.63939e+58
          1154.34650	         2.48157e+58
          1155.15280	         3.14678e+58
          1155.95910	         9.97718e+57
          1156.76540	         4.94627e+57
          1157.57170	        -6.26283e+57
          1158.37800	        -1.22668e+57
          1159.18430	        -3.23704e+56
          1159.99060	         9.90270e+57
          1160.79690	         4.81414e+57
          1161.60320	         1.79533e+58
          1162.40950	         8.94826e+57
          1163.21580	         2.25151e+58
          1164.02210	         1.76688e+58
          1164.82840	         6.54021e+57
          1165.63470	         2.05204e+58
          1166.44100	         3.45393e+58
          1167.24730	         2.09064e+58
          1168.05360	         6.11768e+57
          1168.85990	         5.05629e+57
          1169.66620	         1.16991e+58
          1170.47250	         2.24161e+58
          1171.27880	         1.68148e+58
          1172.08510	         1.65710e+58
          1172.89140	         1.13735e+58
          1173.69770	         1.23584e+58
          1174.50400	         1.31849e+58
          1175.31030	         2.07460e+58
          1176.11660	         1.51509e+58
          1176.92290	         1.30863e+58
          1177.72920	         1.10165e+58
          1178.53550	         1.40648e+57
          1179.34180	         2.89489e+57
          1180.14810	         6.53690e+57
          1180.95440	         1.07815e+58
          1181.76070	         8.38789e+57
          1182.56700	         5.65334e+57
          1183.37330	         6.86824e+57
          1184.17960	         9.74014e+57
          1184.98590	         1.13325e+58
          1185.79220	         8.83296e+57
          1186.59850	         1.74226e+58
          1187.40480	         1.62474e+58
          1188.21110	         1.65858e+58
          1189.01740	         1.07214e+58
          1189.82370	         1.08527e+58
          1190.63000	         1.63872e+58
          1191.43630	         1.56222e+58
          1192.24260	         9.70039e+57
          1193.04890	         8.62213e+57
          1193.85520	         9.48449e+57
          1194.66150	         4.59389e+57
          1195.46780	         2.86989e+57
          1196.27410	         4.55498e+57
          1197.08040	         9.20331e+57
          1197.88670	         1.36671e+58
          1198.69300	         1.56133e+58
          1199.49930	         1.58596e+58
          1200.30560	         1.32918e+58
          1201.11190	         1.04198e+58
          1201.91820	         1.17467e+58
          1202.72450	         8.70970e+57
          1203.53080	         1.20382e+58
          1204.33710	         1.22256e+58
          1205.14340	         3.94055e+57
          1205.94970	         4.36380e+57
          1206.75600	         6.19752e+57
          1207.56230	         3.34136e+57
          1208.36860	         6.34692e+57
          1209.17490	         1.67550e+57
          1209.98120	         3.34312e+57
          1210.78750	         4.12273e+57
          1211.59380	         1.21631e+58
          1212.40010	         1.74577e+58
          1213.20640	         2.19352e+58
          1214.01270	         2.04881e+58
          1214.81900	         2.51742e+58
          1215.62530	         4.17987e+58
          1216.43160	         9.03877e+58
          1217.23790	         1.55954e+59
          1218.04420	         1.14226e+59
          1218.85050	         8.46049e+58
          1219.65680	         5.81457e+58
          1220.46310	         3.16404e+58
          1221.26940	         2.17112e+58
          1222.07570	         1.28074e+58
          1222.88200	         1.13430e+58
          1223.68830	         1.27472e+58
          1224.49460	         9.44941e+57
          1225.30090	         7.33448e+57
          1226.10720	         9.68771e+57
          1226.91350	         6.89745e+57
          1227.71980	         6.93906e+57
          1228.52610	         1.00494e+58
          1229.33240	         7.58606e+57
          1230.13870	         8.72260e+57
          1230.94500	         9.47945e+57
          1231.75130	         7.39202e+57
          1232.55760	         7.51211e+57
          1233.36390	         6.72415e+57
          1234.17020	         8.99254e+57
          1234.97650	         1.13269e+58
          1235.78280	         8.89994e+57
          1236.58910	         7.93045e+57
          1237.39540	         1.27014e+58
          1238.20170	         1.24115e+58
          1239.00800	         1.06229e+58
          1239.81430	         1.28393e+58
          1240.62060	         1.07318e+58
          1241.42690	         1.06682e+58
          1242.23320	         1.21005e+58
          1243.03950	         8.70034e+57
          1243.84580	         7.05481e+57
          1244.65210	         9.27388e+57
          1245.45840	         9.27157e+57
          1246.26470	         8.51822e+57
          1247.07100	         9.16533e+57
          1247.87730	         4.94780e+57
          1248.68360	         4.79997e+57
          1249.48990	         1.11929e+58
          1250.29620	         1.05286e+58
          1251.10250	         5.22940e+57
          1251.90880	         2.25422e+57
          1252.71510	         4.98560e+57
          1253.52140	         6.12546e+57
          1254.32770	         9.43984e+57
          1255.13400	         1.24789e+58
          1255.94030	         1.14501e+58
          1256.74660	         1.05542e+58
          1257.55290	         1.13447e+58
          1258.35920	         8.38391e+57
          1259.16550	         4.40038e+57
          1259.97180	         4.27050e+57
          1260.77810	         7.45618e+57
          1261.58440	         9.48166e+57
          1262.39070	         7.12008e+57
          1263.19700	         6.66531e+57
          1264.00330	         9.46826e+57
          1264.80960	         1.27553e+58
          1265.61590	         1.27901e+58
          1266.42220	         1.17252e+58
          1267.22850	         1.10317e+58
          1268.03480	         1.39910e+58
          1268.84110	         1.39120e+58
          1269.64740	         1.15417e+58
          1270.45370	         1.39844e+58
          1271.26000	         1.45310e+58
          1272.06630	         1.34205e+58
          1272.87260	         1.38105e+58
          1273.67890	         1.38018e+58
          1274.48520	         1.33551e+58
          1275.29150	         1.36524e+58
          1276.09780	         1.15603e+58
          1276.90410	         1.28305e+58
          1277.71040	         1.44738e+58
          1278.51670	         1.50381e+58
          1279.32300	         1.45073e+58
          1280.12930	         1.29943e+58
          1280.93560	         1.18573e+58
          1281.74190	         1.10353e+58
          1282.54820	         1.18431e+58
          1283.35450	         1.16557e+58
          1284.16080	         1.02026e+58
          1284.96710	         1.24654e+58
          1285.77340	         1.11035e+58
          1286.57970	         1.12496e+58
          1287.38600	         1.59436e+58
          1288.19230	         1.72375e+58
          1288.99860	         1.51647e+58
          1289.80490	         1.02309e+58
          1290.61120	         1.27813e+58
          1291.41750	         1.51986e+58
          1292.22380	         1.33191e+58
          1293.03010	         1.04578e+58
          1293.83640	         9.30300e+57
          1294.64270	         7.90852e+57
          1295.44900	         5.19219e+57
          1296.25530	         5.21658e+57
          1297.06160	         7.49103e+57
          1297.86790	         8.66110e+57
          1298.67420	         9.20601e+57
          1299.48050	         9.61317e+57
          1300.28680	         1.03417e+58
          1301.09310	         8.36665e+57
          1301.89940	         3.81285e+57
          1302.70570	         4.72791e+57
          1303.51200	         8.21493e+57
          1304.31830	         1.09710e+58
          1305.12460	         1.15395e+58
          1305.93090	         1.04313e+58
          1306.73720	         1.20621e+58
          1307.54350	         1.39205e+58
          1308.34980	         1.35084e+58
          1309.15610	         1.41853e+58
          1309.96240	         1.49728e+58
          1310.76870	         1.23712e+58
          1311.57500	         1.00493e+58
          1312.38130	         1.22098e+58
          1313.18760	         1.39143e+58
          1313.99390	         1.33474e+58
          1314.80020	         1.51612e+58
          1315.60650	         1.43483e+58
          1316.41280	         1.33154e+58
          1317.21910	         1.23298e+58
          1318.02540	         1.08719e+58
          1318.83170	         1.24523e+58
          1319.63800	         1.21291e+58
          1320.44430	         1.24205e+58
          1321.25060	         1.33725e+58
          1322.05690	         1.18390e+58
          1322.86320	         1.33520e+58
          1323.66950	         1.24141e+58
          1324.47580	         1.04353e+58
          1325.28210	         1.08932e+58
          1326.08840	         1.24990e+58
          1326.89470	         1.06116e+58
          1327.70100	         9.45805e+57
          1328.50730	         9.51829e+57
          1329.31360	         7.83199e+57
          1330.11990	         9.28571e+57
          1330.92620	         9.61117e+57
          1331.73250	         1.12059e+58
          1332.53880	         1.03098e+58
          1333.34510	         8.81283e+57
          1334.15140	         9.10247e+57
          1334.95770	         9.72980e+57
          1335.76400	         1.04071e+58
          1336.57030	         1.08403e+58
          1337.37660	         1.10856e+58
          1338.18290	         1.07312e+58
          1338.98920	         1.10034e+58
          1339.79550	         1.15883e+58
          1340.60180	         1.31804e+58
          1341.40810	         1.40518e+58
          1342.21440	         1.07046e+58
          1343.02070	         9.66270e+57
          1343.82700	         1.18361e+58
          1344.63330	         1.26410e+58
          1345.43960	         1.34664e+58
          1346.24590	         1.08442e+58
          1347.05220	         1.17121e+58
          1347.85850	         1.11700e+58
          1348.66480	         1.25031e+58
          1349.47110	         1.38324e+58
          1350.27740	         1.29090e+58
          1351.08370	         1.12714e+58
          1351.89000	         1.17215e+58
          1352.69630	         1.19407e+58
          1353.50260	         1.12973e+58
          1354.30890	         1.11662e+58
          1355.11520	         1.10425e+58
          1355.92150	         1.03984e+58
          1356.72780	         9.83869e+57
          1357.53410	         1.00105e+58
          1358.34040	         1.11031e+58
          1359.14670	         1.22542e+58
          1359.95300	         1.19506e+58
          1360.75930	         1.24658e+58
          1361.56560	         1.09118e+58
          1362.37190	         1.09537e+58
          1363.17820	         1.23394e+58
          1363.98450	         1.08925e+58
          1364.79080	         1.18959e+58
          1365.59710	         1.32142e+58
          1366.40340	         1.14939e+58
          1367.20970	         1.00102e+58
          1368.01600	         9.34853e+57
          1368.82230	         8.32089e+57
          1369.62860	         9.21889e+57
          1370.43490	         9.42031e+57
          1371.24120	         9.43775e+57
          1372.04750	         9.98967e+57
          1372.85380	         1.25389e+58
          1373.66010	         1.20278e+58
          1374.46640	         1.08679e+58
          1375.27270	         1.13922e+58
          1376.07900	         9.00372e+57
          1376.88530	         7.86300e+57
          1377.69160	         7.31071e+57
          1378.49790	         6.00326e+57
          1379.30420	         9.47699e+57
          1380.11050	         1.07744e+58
          1380.91680	         8.53685e+57
          1381.72310	         8.37180e+57
          1382.52940	         9.35478e+57
          1383.33570	         9.03754e+57
          1384.14200	         1.04237e+58
          1384.94830	         1.20474e+58
          1385.75460	         1.15093e+58
          1386.56090	         1.06313e+58
          1387.36720	         1.02383e+58
          1388.17350	         1.29419e+58
          1388.97980	         1.10469e+58
          1389.78610	         8.99370e+57
          1390.59240	         7.59561e+57
          1391.39870	         6.45934e+57
          1392.20500	         7.95046e+57
          1393.01130	         8.22023e+57
          1393.81760	         6.69913e+57
          1394.62390	         7.07911e+57
          1395.43020	         5.58596e+57
          1396.23650	         5.59342e+57
          1397.04280	         8.38736e+57
          1397.84910	         8.52448e+57
          1398.65540	         8.63717e+57
          1399.46170	         1.02579e+58
          1400.26800	         8.53184e+57
          1401.07430	         7.46159e+57
          1401.88060	         7.72166e+57
          1402.68690	         8.66601e+57
          1403.49320	         9.91993e+57
          1404.29950	         9.62092e+57
          1405.10580	         9.69163e+57
          1405.91210	         1.02202e+58
          1406.71840	         1.02410e+58
          1407.52470	         9.78306e+57
          1408.33100	         1.02438e+58
          1409.13730	         1.20388e+58
          1409.94360	         1.23397e+58
          1410.74990	         1.18316e+58
          1411.55620	         1.01487e+58
          1412.36250	         9.32719e+57
          1413.16880	         9.00632e+57
          1413.97510	         8.49584e+57
          1414.78140	         8.39243e+57
          1415.58770	         9.67660e+57
          1416.39400	         9.19284e+57
          1417.20030	         8.30653e+57
          1418.00660	         8.55897e+57
          1418.81290	         9.13590e+57
          1419.61920	         1.01519e+58
          1420.42550	         1.32466e+58
          1421.23180	         1.38968e+58
          1422.03810	         1.21901e+58
          1422.84440	         1.19228e+58
          1423.65070	         1.31030e+58
          1424.45700	         1.13350e+58
          1425.26330	         8.00979e+57
          1426.06960	         7.98355e+57
          1426.87590	         1.01614e+58
          1427.68220	         1.03458e+58
          1428.48850	         1.10059e+58
          1429.29480	         1.14141e+58
          1430.10110	         9.69583e+57
          1430.90740	         8.63502e+57
          1431.71370	         9.31906e+57
          1432.52000	         8.92756e+57
          1433.32630	         7.30154e+57
          1434.13260	         7.38593e+57
          1434.93890	         8.43522e+57
          1435.74520	         9.46064e+57
          1436.55150	         9.36982e+57
          1437.35780	         8.25314e+57
          1438.16410	         9.36630e+57
          1438.97040	         8.69031e+57
          1439.77670	         8.52371e+57
          1440.58300	         1.00091e+58
          1441.38930	         1.00535e+58
          1442.19560	         9.76945e+57
          1443.00190	         9.98337e+57
          1443.80820	         1.14466e+58
          1444.61450	         1.01054e+58
          1445.42080	         8.55318e+57
          1446.22710	         1.02200e+58
          1447.03340	         1.09578e+58
          1447.83970	         1.12447e+58
          1448.64600	         1.09479e+58
          1449.45230	         1.00497e+58
          1450.25860	         9.10510e+57
          1451.06490	         7.86102e+57
          1451.87120	         7.59738e+57
          1452.67750	         8.36560e+57
          1453.48380	         8.94004e+57
          1454.29010	         7.49159e+57
          1455.09640	         8.14497e+57
          1455.90270	         1.01691e+58
          1456.70900	         9.65423e+57
          1457.51530	         9.74459e+57
          1458.32160	         1.11432e+58
          1459.12790	         1.12025e+58
          1459.93420	         1.21510e+58
          1460.74050	         1.04064e+58
          1461.54680	         8.98511e+57
          1462.35310	         8.17896e+57
          1463.15940	         9.53684e+57
          1463.96570	         1.17587e+58
          1464.77200	         1.28702e+58
          1465.57830	         1.11866e+58
          1466.38460	         9.38285e+57
          1467.19090	         8.06608e+57
          1467.99720	         7.74067e+57
          1468.80350	         8.28040e+57
          1469.60980	         9.41513e+57
          1470.41610	         9.78041e+57
          1471.22240	         1.00913e+58
          1472.02870	         1.15358e+58
          1472.83500	         1.08015e+58
          1473.64130	         9.98884e+57
          1474.44760	         1.00562e+58
          1475.25390	         9.41751e+57
          1476.06020	         8.95006e+57
          1476.86650	         9.62063e+57
          1477.67280	         8.87258e+57
          1478.47910	         6.05428e+57
          1479.28540	         6.17217e+57
          1480.09170	         8.78427e+57
          1480.89800	         8.81068e+57
          1481.70430	         9.05265e+57
          1482.51060	         9.36331e+57
          1483.31690	         8.54210e+57
          1484.12320	         7.51659e+57
          1484.92950	         8.15820e+57
          1485.73580	         8.47911e+57
          1486.54210	         8.49620e+57
          1487.34840	         8.37710e+57
          1488.15470	         8.11430e+57
          1488.96100	         8.71882e+57
          1489.76730	         9.60193e+57
