#sample_46_stacked_spectrum_rest_UV-bands_median_H-alpha_noDC.txt
#median Lum: 1.68974e+42
#Rest-frame wavelength (A) | Luminosity (erg/s/A)
#
          1110.00000	         0.00000e+00
          1110.80630	         1.62842e+59
          1111.61260	         2.68757e+59
          1112.41890	        -4.59650e+57
          1113.22520	         3.59723e+58
          1114.03150	        -4.02596e+57
          1114.83780	         2.15991e+59
          1115.64410	        -2.16890e+58
          1116.45040	         1.44555e+59
          1117.25670	        -4.49712e+58
          1118.06300	         3.83049e+58
          1118.86930	        -2.08643e+58
          1119.67560	         1.81440e+59
          1120.48190	         1.31252e+59
          1121.28820	        -1.12790e+59
          1122.09450	        -4.94783e+58
          1122.90080	        -3.58617e+58
          1123.70710	         1.93236e+58
          1124.51340	         5.38970e+58
          1125.31970	         1.43325e+58
          1126.12600	        -3.27202e+58
          1126.93230	        -7.47889e+58
          1127.73860	        -2.49376e+58
          1128.54490	         4.12953e+58
          1129.35120	         3.91589e+57
          1130.15750	        -5.59759e+58
          1130.96380	        -8.21419e+58
          1131.77010	        -5.82722e+57
          1132.57640	         1.23569e+58
          1133.38270	         1.86954e+58
          1134.18900	         3.74271e+58
          1134.99530	         1.83704e+58
          1135.80160	         2.28342e+58
          1136.60790	         5.88754e+57
          1137.41420	         4.31810e+57
          1138.22050	         4.75642e+58
          1139.02680	         2.41969e+58
          1139.83310	        -1.51192e+57
          1140.63940	         1.36196e+58
          1141.44570	        -2.56341e+58
          1142.25200	        -1.44980e+58
          1143.05830	         7.26056e+57
          1143.86460	         9.37346e+57
          1144.67090	         2.82841e+57
          1145.47720	         2.16818e+57
          1146.28350	         3.70530e+57
          1147.08980	         4.65355e+57
          1147.89610	         1.57469e+58
          1148.70240	         2.84844e+58
          1149.50870	         1.78275e+58
          1150.31500	         1.18113e+58
          1151.12130	         1.57590e+58
          1151.92760	         8.73263e+57
          1152.73390	        -4.37347e+56
          1153.54020	         5.51320e+57
          1154.34650	         3.32198e+58
          1155.15280	         2.74853e+58
          1155.95910	         1.78115e+58
          1156.76540	         1.97077e+58
          1157.57170	         9.18306e+57
          1158.37800	        -5.94703e+57
          1159.18430	         6.89192e+56
          1159.99060	         6.54554e+57
          1160.79690	         8.68762e+57
          1161.60320	         1.39439e+58
          1162.40950	         1.11828e+58
          1163.21580	         1.67697e+58
          1164.02210	         3.30880e+57
          1164.82840	         5.85222e+57
          1165.63470	         2.15686e+58
          1166.44100	         3.07834e+58
          1167.24730	         2.99003e+58
          1168.05360	         1.05468e+58
          1168.85990	         1.06744e+58
          1169.66620	         1.56165e+58
          1170.47250	         1.30412e+58
          1171.27880	         8.48596e+57
          1172.08510	         8.47850e+57
          1172.89140	        -2.17418e+57
          1173.69770	         3.25761e+57
          1174.50400	         1.02423e+58
          1175.31030	         1.76022e+58
          1176.11660	         2.01481e+58
          1176.92290	         1.49229e+58
          1177.72920	         1.46991e+58
          1178.53550	         6.58471e+57
          1179.34180	         3.53714e+57
          1180.14810	         1.15698e+58
          1180.95440	         1.28921e+58
          1181.76070	         8.60167e+57
          1182.56700	         1.37909e+58
          1183.37330	         1.28641e+58
          1184.17960	         1.54387e+58
          1184.98590	         1.33270e+58
          1185.79220	         5.52851e+57
          1186.59850	         8.34254e+57
          1187.40480	         8.39152e+57
          1188.21110	         1.58292e+58
          1189.01740	         8.57260e+57
          1189.82370	         1.00342e+58
          1190.63000	         1.52118e+58
          1191.43630	         1.61706e+58
          1192.24260	         1.33717e+58
          1193.04890	         1.07473e+58
          1193.85520	         1.05845e+58
          1194.66150	         1.05265e+58
          1195.46780	         1.04012e+58
          1196.27410	         1.33302e+58
          1197.08040	         1.14587e+58
          1197.88670	         1.22343e+58
          1198.69300	         1.36633e+58
          1199.49930	         1.22803e+58
          1200.30560	         8.31518e+57
          1201.11190	         6.31598e+57
          1201.91820	         7.90985e+57
          1202.72450	         5.93486e+57
          1203.53080	         1.52963e+58
          1204.33710	         8.57631e+57
          1205.14340	         7.92599e+57
          1205.94970	         7.17912e+57
          1206.75600	         6.93662e+57
          1207.56230	         7.98445e+57
          1208.36860	         8.67001e+57
          1209.17490	         5.97386e+57
          1209.98120	         8.40101e+57
          1210.78750	         8.00310e+57
          1211.59380	         1.67155e+58
          1212.40010	         2.10913e+58
          1213.20640	         2.22018e+58
          1214.01270	         2.28426e+58
          1214.81900	         2.90801e+58
          1215.62530	         4.38336e+58
          1216.43160	         9.02134e+58
          1217.23790	         1.55628e+59
          1218.04420	         1.15571e+59
          1218.85050	         8.56742e+58
          1219.65680	         5.58109e+58
          1220.46310	         3.03458e+58
          1221.26940	         2.30218e+58
          1222.07570	         1.54595e+58
          1222.88200	         9.86679e+57
          1223.68830	         9.43125e+57
          1224.49460	         8.19429e+57
          1225.30090	         8.23513e+57
          1226.10720	         9.80516e+57
          1226.91350	         4.85257e+57
          1227.71980	         8.05532e+57
          1228.52610	         1.07065e+58
          1229.33240	         6.99244e+57
          1230.13870	         1.05652e+58
          1230.94500	         6.66211e+57
          1231.75130	         5.48539e+57
          1232.55760	         8.89091e+57
          1233.36390	         8.90016e+57
          1234.17020	         9.32263e+57
          1234.97650	         8.94873e+57
          1235.78280	         9.57154e+57
          1236.58910	         9.31298e+57
          1237.39540	         8.70972e+57
          1238.20170	         9.39646e+57
          1239.00800	         1.14326e+58
          1239.81430	         1.53185e+58
          1240.62060	         1.39994e+58
          1241.42690	         9.86932e+57
          1242.23320	         8.13744e+57
          1243.03950	         6.28582e+57
          1243.84580	         7.84413e+57
          1244.65210	         9.26270e+57
          1245.45840	         8.73363e+57
          1246.26470	         8.82554e+57
          1247.07100	         7.27890e+57
          1247.87730	         6.00012e+57
          1248.68360	         5.93740e+57
          1249.48990	         7.66712e+57
          1250.29620	         1.03828e+58
          1251.10250	         9.65071e+57
          1251.90880	         5.81698e+57
          1252.71510	         4.32580e+57
          1253.52140	         8.85259e+57
          1254.32770	         1.08015e+58
          1255.13400	         1.21296e+58
          1255.94030	         1.09508e+58
          1256.74660	         1.05749e+58
          1257.55290	         9.92147e+57
          1258.35920	         6.57337e+57
          1259.16550	         5.41797e+57
          1259.97180	         4.97372e+57
          1260.77810	         9.85248e+57
          1261.58440	         1.14003e+58
          1262.39070	         8.11198e+57
          1263.19700	         8.79926e+57
          1264.00330	         8.29975e+57
          1264.80960	         9.96954e+57
          1265.61590	         1.15714e+58
          1266.42220	         1.13204e+58
          1267.22850	         9.63230e+57
          1268.03480	         1.31391e+58
          1268.84110	         1.60742e+58
          1269.64740	         1.51655e+58
          1270.45370	         1.41951e+58
          1271.26000	         1.34550e+58
          1272.06630	         1.08280e+58
          1272.87260	         9.61913e+57
          1273.67890	         9.99745e+57
          1274.48520	         9.45036e+57
          1275.29150	         1.10206e+58
          1276.09780	         1.19264e+58
          1276.90410	         1.51201e+58
          1277.71040	         1.27486e+58
          1278.51670	         1.10247e+58
          1279.32300	         1.55073e+58
          1280.12930	         1.38698e+58
          1280.93560	         1.22923e+58
          1281.74190	         1.32336e+58
          1282.54820	         1.27716e+58
          1283.35450	         9.96130e+57
          1284.16080	         1.07005e+58
          1284.96710	         1.19401e+58
          1285.77340	         1.04438e+58
          1286.57970	         1.05320e+58
          1287.38600	         1.36024e+58
          1288.19230	         1.51736e+58
          1288.99860	         1.35572e+58
          1289.80490	         1.05534e+58
          1290.61120	         1.12230e+58
          1291.41750	         1.29920e+58
          1292.22380	         1.17930e+58
          1293.03010	         1.12700e+58
          1293.83640	         9.54102e+57
          1294.64270	         7.70021e+57
          1295.44900	         6.31440e+57
          1296.25530	         6.14657e+57
          1297.06160	         8.57227e+57
          1297.86790	         8.65678e+57
          1298.67420	         7.40175e+57
          1299.48050	         9.05654e+57
          1300.28680	         9.47102e+57
          1301.09310	         7.70293e+57
          1301.89940	         5.12355e+57
          1302.70570	         5.87003e+57
          1303.51200	         6.79825e+57
          1304.31830	         8.95840e+57
          1305.12460	         1.07962e+58
          1305.93090	         9.66661e+57
          1306.73720	         1.23822e+58
          1307.54350	         1.51928e+58
          1308.34980	         1.43686e+58
          1309.15610	         1.66848e+58
          1309.96240	         1.57779e+58
          1310.76870	         1.15926e+58
          1311.57500	         9.57131e+57
          1312.38130	         1.31324e+58
          1313.18760	         1.43861e+58
          1313.99390	         1.34940e+58
          1314.80020	         1.59881e+58
          1315.60650	         1.53883e+58
          1316.41280	         1.45574e+58
          1317.21910	         1.14165e+58
          1318.02540	         1.15639e+58
          1318.83170	         1.23127e+58
          1319.63800	         1.13741e+58
          1320.44430	         1.11345e+58
          1321.25060	         1.18190e+58
          1322.05690	         1.10924e+58
          1322.86320	         1.08765e+58
          1323.66950	         1.05755e+58
          1324.47580	         8.66003e+57
          1325.28210	         8.25137e+57
          1326.08840	         1.01305e+58
          1326.89470	         1.17568e+58
          1327.70100	         1.17040e+58
          1328.50730	         1.01954e+58
          1329.31360	         9.32417e+57
          1330.11990	         9.16840e+57
          1330.92620	         1.03725e+58
          1331.73250	         1.20699e+58
          1332.53880	         9.55143e+57
          1333.34510	         9.64320e+57
          1334.15140	         9.69760e+57
          1334.95770	         1.04518e+58
          1335.76400	         1.11697e+58
          1336.57030	         1.05828e+58
          1337.37660	         1.00476e+58
          1338.18290	         1.07561e+58
          1338.98920	         1.17234e+58
          1339.79550	         1.28950e+58
          1340.60180	         1.28914e+58
          1341.40810	         1.33084e+58
          1342.21440	         1.19222e+58
          1343.02070	         1.21616e+58
          1343.82700	         1.31898e+58
          1344.63330	         1.16709e+58
          1345.43960	         1.15610e+58
          1346.24590	         1.09025e+58
          1347.05220	         1.12467e+58
          1347.85850	         1.04187e+58
          1348.66480	         1.27626e+58
          1349.47110	         1.32138e+58
          1350.27740	         1.17082e+58
          1351.08370	         1.12884e+58
          1351.89000	         1.13668e+58
          1352.69630	         1.17107e+58
          1353.50260	         1.14576e+58
          1354.30890	         1.21455e+58
          1355.11520	         1.16222e+58
          1355.92150	         1.01313e+58
          1356.72780	         9.55438e+57
          1357.53410	         1.00937e+58
          1358.34040	         1.07490e+58
          1359.14670	         1.14185e+58
          1359.95300	         1.15100e+58
          1360.75930	         1.16018e+58
          1361.56560	         1.10362e+58
          1362.37190	         1.13135e+58
          1363.17820	         1.13176e+58
          1363.98450	         1.25166e+58
          1364.79080	         1.36067e+58
          1365.59710	         1.42090e+58
          1366.40340	         1.31944e+58
          1367.20970	         1.12495e+58
          1368.01600	         9.03172e+57
          1368.82230	         9.06920e+57
          1369.62860	         1.05859e+58
          1370.43490	         1.00164e+58
          1371.24120	         9.02594e+57
          1372.04750	         8.99672e+57
          1372.85380	         1.17254e+58
          1373.66010	         1.15345e+58
          1374.46640	         1.00150e+58
          1375.27270	         1.09446e+58
          1376.07900	         9.54378e+57
          1376.88530	         8.56725e+57
          1377.69160	         7.01555e+57
          1378.49790	         5.98328e+57
          1379.30420	         7.10819e+57
          1380.11050	         9.19880e+57
          1380.91680	         9.75458e+57
          1381.72310	         8.38766e+57
          1382.52940	         8.64945e+57
          1383.33570	         1.10369e+58
          1384.14200	         1.24253e+58
          1384.94830	         1.27106e+58
          1385.75460	         1.27302e+58
          1386.56090	         1.24288e+58
          1387.36720	         1.05159e+58
          1388.17350	         1.20843e+58
          1388.97980	         1.16407e+58
          1389.78610	         9.33848e+57
          1390.59240	         6.95994e+57
          1391.39870	         6.95607e+57
          1392.20500	         7.83355e+57
          1393.01130	         6.75489e+57
          1393.81760	         7.16627e+57
          1394.62390	         8.47322e+57
          1395.43020	         7.90780e+57
          1396.23650	         6.91184e+57
          1397.04280	         6.92574e+57
          1397.84910	         7.93678e+57
          1398.65540	         8.59440e+57
          1399.46170	         9.03774e+57
          1400.26800	         8.69733e+57
          1401.07430	         9.12889e+57
          1401.88060	         8.89355e+57
          1402.68690	         8.83432e+57
          1403.49320	         9.35579e+57
          1404.29950	         9.22122e+57
          1405.10580	         9.26829e+57
          1405.91210	         9.39693e+57
          1406.71840	         9.76557e+57
          1407.52470	         1.02492e+58
          1408.33100	         1.02237e+58
          1409.13730	         1.25348e+58
          1409.94360	         1.31366e+58
          1410.74990	         1.17861e+58
          1411.55620	         9.23884e+57
          1412.36250	         8.36384e+57
          1413.16880	         9.20826e+57
          1413.97510	         7.73103e+57
          1414.78140	         7.87088e+57
          1415.58770	         1.11008e+58
          1416.39400	         1.15751e+58
          1417.20030	         1.09410e+58
          1418.00660	         9.50502e+57
          1418.81290	         1.06381e+58
          1419.61920	         1.06278e+58
          1420.42550	         1.20678e+58
          1421.23180	         1.36677e+58
          1422.03810	         1.24593e+58
          1422.84440	         1.13040e+58
          1423.65070	         1.27638e+58
          1424.45700	         1.13399e+58
          1425.26330	         8.46807e+57
          1426.06960	         7.97413e+57
          1426.87590	         1.06279e+58
          1427.68220	         1.16629e+58
          1428.48850	         1.12821e+58
          1429.29480	         1.13151e+58
          1430.10110	         9.93008e+57
          1430.90740	         8.60812e+57
          1431.71370	         8.08020e+57
          1432.52000	         8.53864e+57
          1433.32630	         8.63885e+57
          1434.13260	         7.87717e+57
          1434.93890	         7.83453e+57
          1435.74520	         9.28151e+57
          1436.55150	         9.32237e+57
          1437.35780	         8.61679e+57
          1438.16410	         9.42093e+57
          1438.97040	         8.21057e+57
          1439.77670	         7.59600e+57
          1440.58300	         7.90631e+57
          1441.38930	         7.88848e+57
          1442.19560	         8.59030e+57
          1443.00190	         9.31259e+57
          1443.80820	         1.09762e+58
          1444.61450	         9.39873e+57
          1445.42080	         8.81793e+57
          1446.22710	         1.15327e+58
          1447.03340	         1.02109e+58
          1447.83970	         9.31623e+57
          1448.64600	         1.01237e+58
          1449.45230	         1.02774e+58
          1450.25860	         9.63831e+57
          1451.06490	         8.86725e+57
          1451.87120	         7.50484e+57
          1452.67750	         7.32041e+57
          1453.48380	         8.50308e+57
          1454.29010	         8.41273e+57
          1455.09640	         7.25171e+57
          1455.90270	         8.84910e+57
          1456.70900	         8.94427e+57
          1457.51530	         9.00634e+57
          1458.32160	         1.18364e+58
          1459.12790	         1.21367e+58
          1459.93420	         1.06826e+58
          1460.74050	         8.10189e+57
          1461.54680	         9.15502e+57
          1462.35310	         9.49815e+57
          1463.15940	         9.67336e+57
          1463.96570	         1.12533e+58
          1464.77200	         1.24557e+58
          1465.57830	         1.07563e+58
          1466.38460	         9.35119e+57
          1467.19090	         8.38686e+57
          1467.99720	         8.96405e+57
          1468.80350	         1.00327e+58
          1469.60980	         1.07896e+58
          1470.41610	         1.11574e+58
          1471.22240	         9.00895e+57
          1472.02870	         9.54947e+57
          1472.83500	         1.00458e+58
          1473.64130	         8.13738e+57
          1474.44760	         8.82558e+57
          1475.25390	         9.51152e+57
          1476.06020	         8.94763e+57
          1476.86650	         8.08081e+57
          1477.67280	         7.64329e+57
          1478.47910	         7.16252e+57
          1479.28540	         7.98646e+57
          1480.09170	         9.76612e+57
          1480.89800	         8.52989e+57
          1481.70430	         9.08488e+57
          1482.51060	         8.33763e+57
          1483.31690	         6.91490e+57
          1484.12320	         6.67888e+57
          1484.92950	         8.17344e+57
          1485.73580	         9.22546e+57
          1486.54210	         9.13799e+57
          1487.34840	         9.97653e+57
          1488.15470	         9.81689e+57
          1488.96100	         8.63816e+57
          1489.76730	         9.26966e+57
