#sample_141_stacked_spectrum_rest_UV-bands_median_H-alpha_noDC.txt
#median Lum: 1.68106e+42
#Rest-frame wavelength (A) | Luminosity (erg/s/A)
#
          1110.00000	         0.00000e+00
          1110.80630	         1.52629e+59
          1111.61260	         1.84211e+59
          1112.41890	         2.47771e+59
          1113.22520	        -1.70054e+59
          1114.03150	         7.29817e+58
          1114.83780	         2.37926e+59
          1115.64410	         1.30200e+59
          1116.45040	         2.98405e+59
          1117.25670	         1.11427e+56
          1118.06300	         2.47901e+59
          1118.86930	         4.42378e+56
          1119.67560	         1.15378e+59
          1120.48190	         2.24151e+58
          1121.28820	        -8.78583e+58
          1122.09450	        -3.67338e+58
          1122.90080	         8.16196e+57
          1123.70710	         2.35429e+58
          1124.51340	         1.06139e+59
          1125.31970	         5.80910e+58
          1126.12600	         5.25093e+58
          1126.93230	        -4.24337e+58
          1127.73860	        -6.03097e+58
          1128.54490	        -1.56132e+56
          1129.35120	         2.01981e+57
          1130.15750	        -1.48297e+58
          1130.96380	        -5.44748e+57
          1131.77010	         6.80945e+58
          1132.57640	         4.02325e+58
          1133.38270	         3.03523e+58
          1134.18900	         1.57908e+58
          1134.99530	         2.36299e+58
          1135.80160	         3.14458e+58
          1136.60790	         1.71156e+58
          1137.41420	        -8.41382e+55
          1138.22050	         4.90854e+58
          1139.02680	         1.86163e+58
          1139.83310	         9.65291e+57
          1140.63940	         2.28150e+58
          1141.44570	         7.22014e+57
          1142.25200	        -4.74018e+57
          1143.05830	         2.15853e+58
          1143.86460	         3.71237e+58
          1144.67090	         3.31513e+58
          1145.47720	         6.90473e+57
          1146.28350	         1.63359e+58
          1147.08980	         2.50898e+58
          1147.89610	         1.72574e+58
          1148.70240	         1.09897e+58
          1149.50870	         2.07555e+58
          1150.31500	         1.35259e+57
          1151.12130	         1.42816e+56
          1151.92760	         1.17817e+58
          1152.73390	         1.01276e+58
          1153.54020	         4.73193e+57
          1154.34650	         2.11256e+58
          1155.15280	         2.05880e+58
          1155.95910	         1.63503e+58
          1156.76540	         1.00552e+58
          1157.57170	        -1.13926e+56
          1158.37800	        -1.12713e+58
          1159.18430	        -3.92138e+57
          1159.99060	         4.52342e+57
          1160.79690	         5.87636e+57
          1161.60320	         1.01131e+58
          1162.40950	         2.04868e+58
          1163.21580	         7.17776e+57
          1164.02210	         6.15030e+57
          1164.82840	         3.80275e+57
          1165.63470	         1.43091e+58
          1166.44100	         2.78525e+58
          1167.24730	         2.01684e+58
          1168.05360	         6.36662e+57
          1168.85990	         9.98699e+57
          1169.66620	         1.29395e+58
          1170.47250	         1.39614e+58
          1171.27880	         1.09427e+58
          1172.08510	         1.94767e+57
          1172.89140	         3.28136e+57
          1173.69770	         5.43890e+57
          1174.50400	         1.33695e+58
          1175.31030	         2.35827e+58
          1176.11660	         2.25802e+58
          1176.92290	         1.57879e+58
          1177.72920	         1.33865e+58
          1178.53550	         6.10123e+57
          1179.34180	         7.34345e+57
          1180.14810	         1.25242e+58
          1180.95440	         6.07096e+57
          1181.76070	         6.14043e+57
          1182.56700	         1.25673e+58
          1183.37330	         1.17298e+58
          1184.17960	         1.42798e+58
          1184.98590	         1.26812e+58
          1185.79220	         9.07343e+57
          1186.59850	         1.32278e+58
          1187.40480	         1.06376e+58
          1188.21110	         1.54165e+58
          1189.01740	         1.33100e+58
          1189.82370	         1.47242e+58
          1190.63000	         1.12903e+58
          1191.43630	         1.07711e+58
          1192.24260	         1.18096e+58
          1193.04890	         1.11472e+58
          1193.85520	         5.01688e+57
          1194.66150	         3.59786e+57
          1195.46780	         1.17412e+58
          1196.27410	         1.50971e+58
          1197.08040	         6.31644e+57
          1197.88670	         1.09256e+58
          1198.69300	         1.27947e+58
          1199.49930	         1.56674e+58
          1200.30560	         1.01759e+58
          1201.11190	         7.59336e+57
          1201.91820	         7.45339e+57
          1202.72450	         7.60378e+57
          1203.53080	         1.65904e+58
          1204.33710	         9.66834e+57
          1205.14340	         6.68203e+57
          1205.94970	         5.54714e+57
          1206.75600	         5.99597e+57
          1207.56230	         9.42490e+57
          1208.36860	         1.13914e+58
          1209.17490	         4.92433e+57
          1209.98120	         6.81155e+57
          1210.78750	         5.17844e+57
          1211.59380	         9.43719e+57
          1212.40010	         1.78233e+58
          1213.20640	         1.83812e+58
          1214.01270	         1.90461e+58
          1214.81900	         2.39642e+58
          1215.62530	         4.18603e+58
          1216.43160	         8.75818e+58
          1217.23790	         1.55496e+59
          1218.04420	         1.14524e+59
          1218.85050	         8.59975e+58
          1219.65680	         6.01951e+58
          1220.46310	         3.54984e+58
          1221.26940	         2.18157e+58
          1222.07570	         1.32340e+58
          1222.88200	         1.20860e+58
          1223.68830	         9.87802e+57
          1224.49460	         8.60838e+57
          1225.30090	         8.39678e+57
          1226.10720	         8.08335e+57
          1226.91350	         8.93902e+57
          1227.71980	         8.72041e+57
          1228.52610	         1.08749e+58
          1229.33240	         1.02078e+58
          1230.13870	         5.98553e+57
          1230.94500	         7.01373e+57
          1231.75130	         7.50730e+57
          1232.55760	         9.02530e+57
          1233.36390	         9.21508e+57
          1234.17020	         8.77451e+57
          1234.97650	         9.09402e+57
          1235.78280	         8.61957e+57
          1236.58910	         7.44830e+57
          1237.39540	         9.21773e+57
          1238.20170	         1.27373e+58
          1239.00800	         1.46574e+58
          1239.81430	         1.44207e+58
          1240.62060	         1.09405e+58
          1241.42690	         1.01214e+58
          1242.23320	         1.11881e+58
          1243.03950	         6.87199e+57
          1243.84580	         5.82322e+57
          1244.65210	         9.07608e+57
          1245.45840	         8.69583e+57
          1246.26470	         1.04406e+58
          1247.07100	         9.56942e+57
          1247.87730	         6.81708e+57
          1248.68360	         3.65190e+57
          1249.48990	         9.57662e+57
          1250.29620	         8.90929e+57
          1251.10250	         8.31325e+57
          1251.90880	         8.16710e+57
          1252.71510	         8.43573e+57
          1253.52140	         9.12149e+57
          1254.32770	         1.13112e+58
          1255.13400	         1.23315e+58
          1255.94030	         9.63871e+57
          1256.74660	         1.04984e+58
          1257.55290	         1.00584e+58
          1258.35920	         7.56524e+57
          1259.16550	         7.19473e+57
          1259.97180	         6.12866e+57
          1260.77810	         8.11384e+57
          1261.58440	         1.05106e+58
          1262.39070	         8.50167e+57
          1263.19700	         8.17516e+57
          1264.00330	         9.81797e+57
          1264.80960	         1.05912e+58
          1265.61590	         1.15691e+58
          1266.42220	         1.35186e+58
          1267.22850	         1.10882e+58
          1268.03480	         1.38388e+58
          1268.84110	         1.49487e+58
          1269.64740	         1.34028e+58
          1270.45370	         1.31159e+58
          1271.26000	         1.08699e+58
          1272.06630	         1.00218e+58
          1272.87260	         1.17223e+58
          1273.67890	         1.16574e+58
          1274.48520	         1.15021e+58
          1275.29150	         1.11522e+58
          1276.09780	         1.14315e+58
          1276.90410	         1.47461e+58
          1277.71040	         1.27944e+58
          1278.51670	         1.13984e+58
          1279.32300	         1.36345e+58
          1280.12930	         1.44797e+58
          1280.93560	         1.08189e+58
          1281.74190	         1.16815e+58
          1282.54820	         1.52204e+58
          1283.35450	         1.49258e+58
          1284.16080	         1.23366e+58
          1284.96710	         1.22142e+58
          1285.77340	         1.17832e+58
          1286.57970	         1.14048e+58
          1287.38600	         1.70389e+58
          1288.19230	         2.04995e+58
          1288.99860	         1.71216e+58
          1289.80490	         1.21790e+58
          1290.61120	         1.30413e+58
          1291.41750	         1.24927e+58
          1292.22380	         1.14203e+58
          1293.03010	         1.04620e+58
          1293.83640	         9.82978e+57
          1294.64270	         9.85269e+57
          1295.44900	         7.53284e+57
          1296.25530	         6.52078e+57
          1297.06160	         9.09553e+57
          1297.86790	         1.12510e+58
          1298.67420	         1.01671e+58
          1299.48050	         8.71590e+57
          1300.28680	         9.76999e+57
          1301.09310	         8.35373e+57
          1301.89940	         3.63200e+57
          1302.70570	         5.32749e+57
          1303.51200	         8.26778e+57
          1304.31830	         9.89855e+57
          1305.12460	         9.88094e+57
          1305.93090	         1.05281e+58
          1306.73720	         1.27026e+58
          1307.54350	         1.42676e+58
          1308.34980	         1.35231e+58
          1309.15610	         1.57234e+58
          1309.96240	         1.61091e+58
          1310.76870	         1.35254e+58
          1311.57500	         1.06774e+58
          1312.38130	         1.19770e+58
          1313.18760	         1.64498e+58
          1313.99390	         1.53166e+58
          1314.80020	         1.59288e+58
          1315.60650	         1.57505e+58
          1316.41280	         1.21575e+58
          1317.21910	         1.02491e+58
          1318.02540	         1.15262e+58
          1318.83170	         1.24779e+58
          1319.63800	         1.23622e+58
          1320.44430	         1.11796e+58
          1321.25060	         1.14804e+58
          1322.05690	         1.16064e+58
          1322.86320	         1.27528e+58
          1323.66950	         1.13886e+58
          1324.47580	         7.74074e+57
          1325.28210	         8.50603e+57
          1326.08840	         1.05704e+58
          1326.89470	         1.24241e+58
          1327.70100	         1.11130e+58
          1328.50730	         9.12740e+57
          1329.31360	         9.41217e+57
          1330.11990	         9.65796e+57
          1330.92620	         8.47018e+57
          1331.73250	         1.03768e+58
          1332.53880	         9.75123e+57
          1333.34510	         8.68863e+57
          1334.15140	         7.77412e+57
          1334.95770	         7.86415e+57
          1335.76400	         1.02204e+58
          1336.57030	         1.11669e+58
          1337.37660	         1.12981e+58
          1338.18290	         1.17364e+58
          1338.98920	         1.19648e+58
          1339.79550	         1.16630e+58
          1340.60180	         1.20104e+58
          1341.40810	         1.41641e+58
          1342.21440	         1.27992e+58
          1343.02070	         1.31349e+58
          1343.82700	         1.37786e+58
          1344.63330	         1.30010e+58
          1345.43960	         1.24322e+58
          1346.24590	         9.56104e+57
          1347.05220	         1.14045e+58
          1347.85850	         9.65474e+57
          1348.66480	         1.11153e+58
          1349.47110	         1.37427e+58
          1350.27740	         1.25655e+58
          1351.08370	         1.17554e+58
          1351.89000	         1.04948e+58
          1352.69630	         1.12831e+58
          1353.50260	         1.22287e+58
          1354.30890	         1.30179e+58
          1355.11520	         1.33942e+58
          1355.92150	         1.21455e+58
          1356.72780	         1.06180e+58
          1357.53410	         9.84602e+57
          1358.34040	         1.04325e+58
          1359.14670	         1.03388e+58
          1359.95300	         1.14100e+58
          1360.75930	         1.18432e+58
          1361.56560	         9.94089e+57
          1362.37190	         1.04362e+58
          1363.17820	         1.10869e+58
          1363.98450	         1.37778e+58
          1364.79080	         1.57925e+58
          1365.59710	         1.33853e+58
          1366.40340	         1.23777e+58
          1367.20970	         1.17816e+58
          1368.01600	         1.10995e+58
          1368.82230	         1.04906e+58
          1369.62860	         1.10710e+58
          1370.43490	         8.42755e+57
          1371.24120	         8.39899e+57
          1372.04750	         7.90825e+57
          1372.85380	         1.19192e+58
          1373.66010	         1.26296e+58
          1374.46640	         1.03039e+58
          1375.27270	         1.05402e+58
          1376.07900	         8.54279e+57
          1376.88530	         8.07670e+57
          1377.69160	         9.14436e+57
          1378.49790	         7.76404e+57
          1379.30420	         7.04575e+57
          1380.11050	         9.01947e+57
          1380.91680	         9.15370e+57
          1381.72310	         8.57501e+57
          1382.52940	         8.67201e+57
          1383.33570	         9.23833e+57
          1384.14200	         1.05184e+58
          1384.94830	         9.62385e+57
          1385.75460	         9.09046e+57
          1386.56090	         1.09878e+58
          1387.36720	         1.03464e+58
          1388.17350	         1.13257e+58
          1388.97980	         1.08024e+58
          1389.78610	         8.13922e+57
          1390.59240	         7.58647e+57
          1391.39870	         7.83149e+57
          1392.20500	         1.00628e+58
          1393.01130	         9.23684e+57
          1393.81760	         7.18301e+57
          1394.62390	         6.62814e+57
          1395.43020	         6.58875e+57
          1396.23650	         6.61861e+57
          1397.04280	         7.99667e+57
          1397.84910	         8.61273e+57
          1398.65540	         9.06763e+57
          1399.46170	         9.68651e+57
          1400.26800	         8.46105e+57
          1401.07430	         5.84073e+57
          1401.88060	         6.46088e+57
          1402.68690	         8.89557e+57
          1403.49320	         9.65266e+57
          1404.29950	         9.43555e+57
          1405.10580	         1.06220e+58
          1405.91210	         1.13208e+58
          1406.71840	         1.16464e+58
          1407.52470	         1.14703e+58
          1408.33100	         1.14287e+58
          1409.13730	         1.20530e+58
          1409.94360	         1.13486e+58
          1410.74990	         1.14017e+58
          1411.55620	         1.04884e+58
          1412.36250	         9.32581e+57
          1413.16880	         8.45668e+57
          1413.97510	         7.86848e+57
          1414.78140	         8.04879e+57
          1415.58770	         9.48000e+57
          1416.39400	         8.78865e+57
          1417.20030	         1.00446e+58
          1418.00660	         1.08284e+58
          1418.81290	         1.09220e+58
          1419.61920	         1.02273e+58
          1420.42550	         1.25815e+58
          1421.23180	         1.34094e+58
          1422.03810	         1.35465e+58
          1422.84440	         1.18535e+58
          1423.65070	         1.24732e+58
          1424.45700	         1.06816e+58
          1425.26330	         8.18148e+57
          1426.06960	         8.15703e+57
          1426.87590	         9.52645e+57
          1427.68220	         9.56331e+57
          1428.48850	         1.07212e+58
          1429.29480	         1.14885e+58
          1430.10110	         1.06708e+58
          1430.90740	         9.09260e+57
          1431.71370	         8.66691e+57
          1432.52000	         8.32291e+57
          1433.32630	         7.39377e+57
          1434.13260	         7.13004e+57
          1434.93890	         8.60002e+57
          1435.74520	         9.58071e+57
          1436.55150	         1.02754e+58
          1437.35780	         1.03707e+58
          1438.16410	         8.96580e+57
          1438.97040	         8.46656e+57
          1439.77670	         9.53926e+57
          1440.58300	         9.41017e+57
          1441.38930	         9.57898e+57
          1442.19560	         1.07882e+58
          1443.00190	         1.08646e+58
          1443.80820	         1.14355e+58
          1444.61450	         1.03566e+58
          1445.42080	         8.56344e+57
          1446.22710	         1.04244e+58
          1447.03340	         1.12898e+58
          1447.83970	         1.13836e+58
          1448.64600	         1.07762e+58
          1449.45230	         1.10160e+58
          1450.25860	         1.13863e+58
          1451.06490	         9.30739e+57
          1451.87120	         7.71219e+57
          1452.67750	         7.74205e+57
          1453.48380	         8.76795e+57
          1454.29010	         7.80904e+57
          1455.09640	         6.92567e+57
          1455.90270	         8.56014e+57
          1456.70900	         8.95852e+57
          1457.51530	         8.56730e+57
          1458.32160	         1.12326e+58
          1459.12790	         1.13668e+58
          1459.93420	         9.48765e+57
          1460.74050	         7.42591e+57
          1461.54680	         7.46631e+57
          1462.35310	         8.30121e+57
          1463.15940	         9.55996e+57
          1463.96570	         1.16962e+58
          1464.77200	         1.28225e+58
          1465.57830	         1.04000e+58
          1466.38460	         8.84579e+57
          1467.19090	         9.07881e+57
          1467.99720	         9.01041e+57
          1468.80350	         9.97080e+57
          1469.60980	         1.01105e+58
          1470.41610	         1.07799e+58
          1471.22240	         9.16215e+57
          1472.02870	         9.20244e+57
          1472.83500	         9.89145e+57
          1473.64130	         9.47983e+57
          1474.44760	         9.34609e+57
          1475.25390	         9.45424e+57
          1476.06020	         1.00319e+58
          1476.86650	         9.43128e+57
          1477.67280	         8.38568e+57
          1478.47910	         6.34200e+57
          1479.28540	         7.02209e+57
          1480.09170	         8.20072e+57
          1480.89800	         9.20319e+57
          1481.70430	         9.12346e+57
          1482.51060	         8.26552e+57
          1483.31690	         7.58609e+57
          1484.12320	         8.07794e+57
          1484.92950	         8.86341e+57
          1485.73580	         9.03481e+57
          1486.54210	         8.59619e+57
          1487.34840	         8.73538e+57
          1488.15470	         8.86428e+57
          1488.96100	         8.51767e+57
          1489.76730	         8.93667e+57
