#sample_397_stacked_spectrum_rest_UV-bands_median_H-alpha_noDC.txt
#median Lum: 1.70936e+42
#Rest-frame wavelength (A) | Luminosity (erg/s/A)
#
          1110.00000	         0.00000e+00
          1110.80630	         1.21282e+59
          1111.61260	         4.29965e+58
          1112.41890	        -3.57498e+59
          1113.22520	         6.15338e+58
          1114.03150	        -6.87687e+58
          1114.83780	        -1.32845e+59
          1115.64410	        -5.59674e+57
          1116.45040	         8.03500e+58
          1117.25670	         1.16023e+59
          1118.06300	         3.70050e+58
          1118.86930	         7.01782e+58
          1119.67560	         1.12773e+59
          1120.48190	         9.50700e+58
          1121.28820	        -9.48445e+58
          1122.09450	        -1.54110e+59
          1122.90080	        -5.67556e+58
          1123.70710	         5.19406e+58
          1124.51340	         2.22371e+58
          1125.31970	        -3.28881e+58
          1126.12600	        -8.82732e+57
          1126.93230	        -4.65145e+58
          1127.73860	        -3.48706e+58
          1128.54490	         3.09814e+58
          1129.35120	         1.72831e+58
          1130.15750	        -5.01850e+58
          1130.96380	        -2.58467e+58
          1131.77010	         5.06966e+58
          1132.57640	         4.61108e+58
          1133.38270	         6.65206e+58
          1134.18900	         2.79472e+58
          1134.99530	        -1.12467e+58
          1135.80160	         6.93564e+57
          1136.60790	         2.91039e+58
          1137.41420	         8.15907e+57
          1138.22050	         2.05048e+58
          1139.02680	         3.23258e+58
          1139.83310	         2.29175e+58
          1140.63940	         2.11735e+58
          1141.44570	        -2.01113e+58
          1142.25200	        -8.36757e+57
          1143.05830	         2.07767e+58
          1143.86460	         2.31880e+58
          1144.67090	         2.01996e+58
          1145.47720	         2.66361e+58
          1146.28350	         2.31521e+58
          1147.08980	         1.25690e+58
          1147.89610	         2.21065e+58
          1148.70240	         1.55886e+58
          1149.50870	         1.51428e+58
          1150.31500	         1.75536e+58
          1151.12130	         1.23333e+58
          1151.92760	         7.91843e+57
          1152.73390	        -1.42236e+58
          1153.54020	        -1.04039e+58
          1154.34650	         2.20205e+58
          1155.15280	         2.17220e+58
          1155.95910	         8.46696e+57
          1156.76540	         5.69810e+57
          1157.57170	         6.66527e+57
          1158.37800	         2.15480e+57
          1159.18430	         1.73699e+57
          1159.99060	        -1.43108e+57
          1160.79690	        -1.57987e+57
          1161.60320	         1.46872e+58
          1162.40950	         1.76941e+58
          1163.21580	         1.82917e+58
          1164.02210	         1.66160e+58
          1164.82840	         1.98670e+58
          1165.63470	         2.32060e+58
          1166.44100	         2.20527e+58
          1167.24730	         1.85096e+58
          1168.05360	         1.88256e+57
          1168.85990	         8.32569e+57
          1169.66620	         8.52333e+57
          1170.47250	         1.82799e+58
          1171.27880	         2.04610e+58
          1172.08510	         1.06551e+58
          1172.89140	         8.54829e+57
          1173.69770	         8.39293e+57
          1174.50400	         1.99615e+58
          1175.31030	         2.10644e+58
          1176.11660	         2.08488e+58
          1176.92290	         1.39828e+58
          1177.72920	         7.21797e+57
          1178.53550	         6.18094e+57
          1179.34180	         4.27455e+57
          1180.14810	         9.77061e+57
          1180.95440	         5.96705e+57
          1181.76070	         5.94440e+57
          1182.56700	         9.06574e+57
          1183.37330	         8.62800e+57
          1184.17960	         1.52226e+58
          1184.98590	         1.40223e+58
          1185.79220	         1.12348e+58
          1186.59850	         1.12927e+58
          1187.40480	         5.56079e+57
          1188.21110	         1.33239e+58
          1189.01740	         8.56986e+57
          1189.82370	         7.67513e+57
          1190.63000	         1.12791e+58
          1191.43630	         9.37882e+57
          1192.24260	         1.07894e+58
          1193.04890	         1.39065e+58
          1193.85520	         1.15126e+58
          1194.66150	         5.82225e+57
          1195.46780	         1.12864e+58
          1196.27410	         1.60925e+58
          1197.08040	         7.67246e+57
          1197.88670	         8.19469e+57
          1198.69300	         1.24788e+58
          1199.49930	         1.37214e+58
          1200.30560	         1.29867e+58
          1201.11190	         1.26292e+58
          1201.91820	         1.14915e+58
          1202.72450	         9.64991e+57
          1203.53080	         1.59315e+58
          1204.33710	         7.17031e+57
          1205.14340	         6.29945e+57
          1205.94970	         7.71369e+57
          1206.75600	         5.49563e+57
          1207.56230	         4.44944e+57
          1208.36860	         9.26984e+57
          1209.17490	         5.97565e+57
          1209.98120	         5.58842e+57
          1210.78750	         7.38052e+57
          1211.59380	         1.13246e+58
          1212.40010	         1.76730e+58
          1213.20640	         2.27277e+58
          1214.01270	         1.90725e+58
          1214.81900	         2.53304e+58
          1215.62530	         4.84089e+58
          1216.43160	         8.99839e+58
          1217.23790	         1.53793e+59
          1218.04420	         1.18922e+59
          1218.85050	         9.03735e+58
          1219.65680	         5.75996e+58
          1220.46310	         2.87342e+58
          1221.26940	         2.01244e+58
          1222.07570	         1.53440e+58
          1222.88200	         1.12934e+58
          1223.68830	         1.02686e+58
          1224.49460	         5.91081e+57
          1225.30090	         7.56924e+57
          1226.10720	         9.59655e+57
          1226.91350	         5.78043e+57
          1227.71980	         1.12224e+58
          1228.52610	         1.13778e+58
          1229.33240	         6.19026e+57
          1230.13870	         4.68403e+57
          1230.94500	         6.93660e+57
          1231.75130	         5.81756e+57
          1232.55760	         6.94718e+57
          1233.36390	         8.34458e+57
          1234.17020	         6.85303e+57
          1234.97650	         7.80122e+57
          1235.78280	         8.56281e+57
          1236.58910	         8.87859e+57
          1237.39540	         9.43681e+57
          1238.20170	         1.11831e+58
          1239.00800	         1.57317e+58
          1239.81430	         1.66051e+58
          1240.62060	         1.05093e+58
          1241.42690	         1.12250e+58
          1242.23320	         1.16056e+58
          1243.03950	         1.02970e+58
          1243.84580	         1.00898e+58
          1244.65210	         9.79545e+57
          1245.45840	         1.05681e+58
          1246.26470	         1.18311e+58
          1247.07100	         9.67633e+57
          1247.87730	         5.89987e+57
          1248.68360	         6.02502e+57
          1249.48990	         8.61092e+57
          1250.29620	         8.58452e+57
          1251.10250	         7.05092e+57
          1251.90880	         4.13279e+57
          1252.71510	         4.73495e+57
          1253.52140	         8.81620e+57
          1254.32770	         8.90141e+57
          1255.13400	         1.20571e+58
          1255.94030	         1.19943e+58
          1256.74660	         1.18728e+58
          1257.55290	         1.30923e+58
          1258.35920	         1.01046e+58
          1259.16550	         6.38860e+57
          1259.97180	         4.62723e+57
          1260.77810	         7.89359e+57
          1261.58440	         1.23262e+58
          1262.39070	         9.15063e+57
          1263.19700	         8.73185e+57
          1264.00330	         9.25928e+57
          1264.80960	         9.78183e+57
          1265.61590	         1.23012e+58
          1266.42220	         1.28925e+58
          1267.22850	         1.19853e+58
          1268.03480	         1.57241e+58
          1268.84110	         1.60958e+58
          1269.64740	         1.31067e+58
          1270.45370	         1.25410e+58
          1271.26000	         1.00142e+58
          1272.06630	         1.13555e+58
          1272.87260	         1.21012e+58
          1273.67890	         1.26409e+58
          1274.48520	         1.49246e+58
          1275.29150	         1.49257e+58
          1276.09780	         1.13099e+58
          1276.90410	         1.46281e+58
          1277.71040	         1.55646e+58
          1278.51670	         1.24892e+58
          1279.32300	         1.23488e+58
          1280.12930	         1.22716e+58
          1280.93560	         1.14809e+58
          1281.74190	         1.09091e+58
          1282.54820	         1.10150e+58
          1283.35450	         1.01240e+58
          1284.16080	         1.07705e+58
          1284.96710	         1.31077e+58
          1285.77340	         1.10573e+58
          1286.57970	         1.07743e+58
          1287.38600	         1.65314e+58
          1288.19230	         1.81217e+58
          1288.99860	         1.59250e+58
          1289.80490	         1.08518e+58
          1290.61120	         1.34753e+58
          1291.41750	         1.38647e+58
          1292.22380	         1.19446e+58
          1293.03010	         1.08142e+58
          1293.83640	         1.01210e+58
          1294.64270	         9.62434e+57
          1295.44900	         8.43245e+57
          1296.25530	         9.47608e+57
          1297.06160	         1.01093e+58
          1297.86790	         1.21881e+58
          1298.67420	         1.15355e+58
          1299.48050	         1.12726e+58
          1300.28680	         1.24077e+58
          1301.09310	         1.00281e+58
          1301.89940	         2.80569e+57
          1302.70570	         4.67970e+57
          1303.51200	         6.50444e+57
          1304.31830	         9.00716e+57
          1305.12460	         1.04539e+58
          1305.93090	         1.06104e+58
          1306.73720	         1.23660e+58
          1307.54350	         1.46039e+58
          1308.34980	         1.48017e+58
          1309.15610	         1.36177e+58
          1309.96240	         1.35273e+58
          1310.76870	         1.14297e+58
          1311.57500	         1.12630e+58
          1312.38130	         1.18560e+58
          1313.18760	         1.41637e+58
          1313.99390	         1.51301e+58
          1314.80020	         1.54333e+58
          1315.60650	         1.54370e+58
          1316.41280	         1.44429e+58
          1317.21910	         1.18165e+58
          1318.02540	         1.23895e+58
          1318.83170	         1.38557e+58
          1319.63800	         1.29694e+58
          1320.44430	         1.07790e+58
          1321.25060	         1.10154e+58
          1322.05690	         1.20444e+58
          1322.86320	         1.26802e+58
          1323.66950	         1.16016e+58
          1324.47580	         8.77495e+57
          1325.28210	         8.78087e+57
          1326.08840	         1.10451e+58
          1326.89470	         1.28952e+58
          1327.70100	         1.09472e+58
          1328.50730	         7.77739e+57
          1329.31360	         8.52756e+57
          1330.11990	         1.13694e+58
          1330.92620	         9.36224e+57
          1331.73250	         9.51395e+57
          1332.53880	         9.70042e+57
          1333.34510	         8.75904e+57
          1334.15140	         8.95383e+57
          1334.95770	         7.67828e+57
          1335.76400	         9.22286e+57
          1336.57030	         1.04911e+58
          1337.37660	         1.13925e+58
          1338.18290	         1.23039e+58
          1338.98920	         1.14512e+58
          1339.79550	         1.03846e+58
          1340.60180	         1.07191e+58
          1341.40810	         1.34677e+58
          1342.21440	         1.25691e+58
          1343.02070	         1.18723e+58
          1343.82700	         1.20009e+58
          1344.63330	         1.18198e+58
          1345.43960	         1.36902e+58
          1346.24590	         1.20371e+58
          1347.05220	         1.32668e+58
          1347.85850	         1.04424e+58
          1348.66480	         1.03344e+58
          1349.47110	         1.20880e+58
          1350.27740	         1.19255e+58
          1351.08370	         1.14646e+58
          1351.89000	         1.16062e+58
          1352.69630	         1.17878e+58
          1353.50260	         1.11747e+58
          1354.30890	         1.16796e+58
          1355.11520	         1.18160e+58
          1355.92150	         1.07371e+58
          1356.72780	         9.83739e+57
          1357.53410	         9.96976e+57
          1358.34040	         9.94453e+57
          1359.14670	         9.77914e+57
          1359.95300	         1.18127e+58
          1360.75930	         1.29827e+58
          1361.56560	         1.13843e+58
          1362.37190	         1.31376e+58
          1363.17820	         1.26357e+58
          1363.98450	         1.20489e+58
          1364.79080	         1.21369e+58
          1365.59710	         1.28272e+58
          1366.40340	         1.19215e+58
          1367.20970	         1.09624e+58
          1368.01600	         1.14997e+58
          1368.82230	         9.31239e+57
          1369.62860	         9.10024e+57
          1370.43490	         1.01085e+58
          1371.24120	         1.04858e+58
          1372.04750	         9.75842e+57
          1372.85380	         1.02501e+58
          1373.66010	         1.01917e+58
          1374.46640	         9.59173e+57
          1375.27270	         9.38086e+57
          1376.07900	         8.35114e+57
          1376.88530	         8.95468e+57
          1377.69160	         8.67843e+57
          1378.49790	         6.10278e+57
          1379.30420	         8.35956e+57
          1380.11050	         1.16283e+58
          1380.91680	         8.58646e+57
          1381.72310	         7.39422e+57
          1382.52940	         8.28720e+57
          1383.33570	         8.95423e+57
          1384.14200	         1.07223e+58
          1384.94830	         1.22276e+58
          1385.75460	         1.03111e+58
          1386.56090	         8.38760e+57
          1387.36720	         1.07390e+58
          1388.17350	         1.28784e+58
          1388.97980	         1.13712e+58
          1389.78610	         9.99996e+57
          1390.59240	         9.26963e+57
          1391.39870	         6.68970e+57
          1392.20500	         7.71189e+57
          1393.01130	         8.70564e+57
          1393.81760	         6.62753e+57
          1394.62390	         6.33442e+57
          1395.43020	         5.81066e+57
          1396.23650	         5.05889e+57
          1397.04280	         7.41743e+57
          1397.84910	         9.44609e+57
          1398.65540	         9.19650e+57
          1399.46170	         8.83151e+57
          1400.26800	         7.54291e+57
          1401.07430	         7.52041e+57
          1401.88060	         8.92884e+57
          1402.68690	         8.98170e+57
          1403.49320	         9.29649e+57
          1404.29950	         9.85276e+57
          1405.10580	         1.12755e+58
          1405.91210	         1.11247e+58
          1406.71840	         1.02026e+58
          1407.52470	         1.04185e+58
          1408.33100	         1.02771e+58
          1409.13730	         1.02655e+58
          1409.94360	         1.16149e+58
          1410.74990	         1.22889e+58
          1411.55620	         1.03845e+58
          1412.36250	         9.46117e+57
          1413.16880	         9.45014e+57
          1413.97510	         8.60535e+57
          1414.78140	         8.78221e+57
          1415.58770	         1.06754e+58
          1416.39400	         1.11287e+58
          1417.20030	         1.06926e+58
          1418.00660	         8.49411e+57
          1418.81290	         9.36338e+57
          1419.61920	         1.06280e+58
          1420.42550	         1.08748e+58
          1421.23180	         1.30508e+58
          1422.03810	         1.25016e+58
          1422.84440	         1.08322e+58
          1423.65070	         1.34128e+58
          1424.45700	         1.24904e+58
          1425.26330	         8.02507e+57
          1426.06960	         8.51675e+57
          1426.87590	         1.11872e+58
          1427.68220	         1.09908e+58
          1428.48850	         1.07096e+58
          1429.29480	         1.12998e+58
          1430.10110	         1.02452e+58
          1430.90740	         8.26912e+57
          1431.71370	         8.57872e+57
          1432.52000	         8.22030e+57
          1433.32630	         8.11839e+57
          1434.13260	         8.56601e+57
          1434.93890	         9.21936e+57
          1435.74520	         8.77624e+57
          1436.55150	         9.39187e+57
          1437.35780	         9.81722e+57
          1438.16410	         9.59976e+57
          1438.97040	         8.62240e+57
          1439.77670	         8.16749e+57
          1440.58300	         9.23101e+57
          1441.38930	         8.94515e+57
          1442.19560	         9.05887e+57
          1443.00190	         8.54601e+57
          1443.80820	         9.87427e+57
          1444.61450	         9.95167e+57
          1445.42080	         7.72410e+57
          1446.22710	         1.00810e+58
          1447.03340	         1.02150e+58
          1447.83970	         1.05107e+58
          1448.64600	         1.15377e+58
          1449.45230	         9.90416e+57
          1450.25860	         9.03497e+57
          1451.06490	         8.82562e+57
          1451.87120	         7.51841e+57
          1452.67750	         7.09289e+57
          1453.48380	         9.42592e+57
          1454.29010	         8.99225e+57
          1455.09640	         7.80713e+57
          1455.90270	         8.51676e+57
          1456.70900	         9.04099e+57
          1457.51530	         1.07291e+58
          1458.32160	         1.21205e+58
          1459.12790	         1.18440e+58
          1459.93420	         1.05799e+58
          1460.74050	         8.91598e+57
          1461.54680	         9.35780e+57
          1462.35310	         7.38735e+57
          1463.15940	         7.56604e+57
          1463.96570	         1.08465e+58
          1464.77200	         1.27766e+58
          1465.57830	         1.11872e+58
          1466.38460	         9.50972e+57
          1467.19090	         8.52882e+57
          1467.99720	         8.78659e+57
          1468.80350	         8.87595e+57
          1469.60980	         9.64053e+57
          1470.41610	         1.08425e+58
          1471.22240	         8.65635e+57
          1472.02870	         9.89314e+57
          1472.83500	         1.05816e+58
          1473.64130	         1.02302e+58
          1474.44760	         1.06966e+58
          1475.25390	         9.05907e+57
          1476.06020	         8.17388e+57
          1476.86650	         8.54935e+57
          1477.67280	         8.50110e+57
          1478.47910	         8.02571e+57
          1479.28540	         8.04477e+57
          1480.09170	         7.42597e+57
          1480.89800	         8.02062e+57
          1481.70430	         8.29411e+57
          1482.51060	         8.23112e+57
          1483.31690	         8.11743e+57
          1484.12320	         7.81796e+57
          1484.92950	         7.76997e+57
          1485.73580	         9.04184e+57
          1486.54210	         9.30495e+57
          1487.34840	         8.56058e+57
          1488.15470	         8.39609e+57
          1488.96100	         9.18004e+57
          1489.76730	         9.50246e+57
