#sample_118_stacked_spectrum_rest_UV-bands_median_H-alpha_noDC.txt
#median Lum: 1.69558e+42
#Rest-frame wavelength (A) | Luminosity (erg/s/A)
#
          1110.00000	         0.00000e+00
          1110.80630	        -3.15408e+58
          1111.61260	         2.59442e+59
          1112.41890	         7.49149e+58
          1113.22520	        -4.62968e+58
          1114.03150	        -1.69571e+59
          1114.83780	         8.71499e+58
          1115.64410	         2.01810e+59
          1116.45040	         1.68580e+59
          1117.25670	         2.70781e+59
          1118.06300	         1.12693e+59
          1118.86930	        -8.95414e+58
          1119.67560	         7.32128e+58
          1120.48190	         2.04970e+58
          1121.28820	        -5.12222e+58
          1122.09450	         1.87589e+58
          1122.90080	         1.86356e+58
          1123.70710	         5.31847e+58
          1124.51340	         4.04379e+58
          1125.31970	        -1.96632e+58
          1126.12600	        -2.24747e+58
          1126.93230	        -1.07419e+59
          1127.73860	        -8.27722e+58
          1128.54490	        -1.79265e+58
          1129.35120	        -9.67092e+57
          1130.15750	        -2.80803e+58
          1130.96380	        -6.69407e+55
          1131.77010	         6.94045e+58
          1132.57640	         4.32225e+58
          1133.38270	         3.29936e+58
          1134.18900	         2.48061e+58
          1134.99530	         2.51922e+58
          1135.80160	         2.48993e+58
          1136.60790	         1.48517e+58
          1137.41420	        -2.52474e+58
          1138.22050	         3.22467e+58
          1139.02680	         2.22282e+58
          1139.83310	         3.73935e+58
          1140.63940	         2.25547e+58
          1141.44570	        -3.67443e+58
          1142.25200	        -6.89386e+57
          1143.05830	         2.81004e+58
          1143.86460	         2.94375e+58
          1144.67090	         2.70140e+58
          1145.47720	         2.25834e+58
          1146.28350	         1.34420e+58
          1147.08980	         1.55011e+58
          1147.89610	         1.67067e+58
          1148.70240	         2.02790e+58
          1149.50870	         2.15478e+58
          1150.31500	         1.04176e+58
          1151.12130	         2.54529e+57
          1151.92760	         2.98268e+57
          1152.73390	        -9.82749e+56
          1153.54020	         8.74782e+57
          1154.34650	         2.14534e+58
          1155.15280	         2.40420e+58
          1155.95910	         1.46352e+58
          1156.76540	         9.26926e+57
          1157.57170	        -2.46470e+57
          1158.37800	        -2.94642e+57
          1159.18430	         2.48208e+57
          1159.99060	         1.24901e+58
          1160.79690	         5.81178e+57
          1161.60320	         1.63128e+58
          1162.40950	         1.53383e+58
          1163.21580	         1.90223e+58
          1164.02210	         9.99393e+57
          1164.82840	         1.70828e+58
          1165.63470	         1.92229e+58
          1166.44100	         2.73352e+58
          1167.24730	         1.44088e+58
          1168.05360	         5.12759e+57
          1168.85990	         5.86866e+57
          1169.66620	         9.12980e+57
          1170.47250	         1.53026e+58
          1171.27880	         1.33741e+58
          1172.08510	         1.30621e+58
          1172.89140	         1.44265e+58
          1173.69770	         8.43388e+57
          1174.50400	         7.19622e+57
          1175.31030	         1.59500e+58
          1176.11660	         1.57809e+58
          1176.92290	         1.39397e+58
          1177.72920	         1.34860e+58
          1178.53550	         5.74919e+57
          1179.34180	        -2.86710e+57
          1180.14810	        -6.84289e+55
          1180.95440	         4.32985e+57
          1181.76070	         7.42246e+57
          1182.56700	         1.02598e+58
          1183.37330	         6.24129e+57
          1184.17960	         1.17436e+58
          1184.98590	         1.36492e+58
          1185.79220	         1.33471e+58
          1186.59850	         1.55574e+58
          1187.40480	         8.58703e+57
          1188.21110	         1.59820e+58
          1189.01740	         1.07964e+58
          1189.82370	         1.26689e+58
          1190.63000	         1.24241e+58
          1191.43630	         1.02758e+58
          1192.24260	         1.15667e+58
          1193.04890	         1.20812e+58
          1193.85520	         8.90689e+57
          1194.66150	         6.65685e+57
          1195.46780	         1.31105e+58
          1196.27410	         1.73408e+58
          1197.08040	         1.08501e+58
          1197.88670	         1.01883e+58
          1198.69300	         1.34708e+58
          1199.49930	         1.40712e+58
          1200.30560	         1.21503e+58
          1201.11190	         1.11282e+58
          1201.91820	         1.26645e+58
          1202.72450	         7.35832e+57
          1203.53080	         1.83574e+58
          1204.33710	         1.07325e+58
          1205.14340	         7.83646e+57
          1205.94970	         5.99423e+57
          1206.75600	         6.71907e+57
          1207.56230	         7.25301e+57
          1208.36860	         1.35115e+58
          1209.17490	         9.38083e+57
          1209.98120	         9.24257e+57
          1210.78750	         8.94143e+57
          1211.59380	         1.04895e+58
          1212.40010	         1.50821e+58
          1213.20640	         1.94657e+58
          1214.01270	         1.79285e+58
          1214.81900	         2.39369e+58
          1215.62530	         4.54571e+58
          1216.43160	         8.62548e+58
          1217.23790	         1.48313e+59
          1218.04420	         1.18396e+59
          1218.85050	         8.62647e+58
          1219.65680	         5.70613e+58
          1220.46310	         3.61491e+58
          1221.26940	         2.25403e+58
          1222.07570	         1.24733e+58
          1222.88200	         1.39031e+58
          1223.68830	         1.15187e+58
          1224.49460	         8.37082e+57
          1225.30090	         7.10908e+57
          1226.10720	         6.18210e+57
          1226.91350	         6.72039e+57
          1227.71980	         1.01899e+58
          1228.52610	         1.19771e+58
          1229.33240	         9.70792e+57
          1230.13870	         1.05466e+58
          1230.94500	         9.76291e+57
          1231.75130	         4.98052e+57
          1232.55760	         1.01057e+58
          1233.36390	         1.04788e+58
          1234.17020	         8.36447e+57
          1234.97650	         8.90936e+57
          1235.78280	         8.10165e+57
          1236.58910	         9.12913e+57
          1237.39540	         1.03263e+58
          1238.20170	         1.10401e+58
          1239.00800	         1.09426e+58
          1239.81430	         1.09152e+58
          1240.62060	         8.11043e+57
          1241.42690	         9.03779e+57
          1242.23320	         1.21510e+58
          1243.03950	         7.83996e+57
          1243.84580	         7.07759e+57
          1244.65210	         8.64202e+57
          1245.45840	         1.00108e+58
          1246.26470	         9.61348e+57
          1247.07100	         6.06078e+57
          1247.87730	         6.74231e+57
          1248.68360	         4.19842e+57
          1249.48990	         6.22507e+57
          1250.29620	         8.36001e+57
          1251.10250	         6.51717e+57
          1251.90880	         5.43747e+57
          1252.71510	         6.75474e+57
          1253.52140	         7.97412e+57
          1254.32770	         8.20497e+57
          1255.13400	         1.25500e+58
          1255.94030	         1.17121e+58
          1256.74660	         8.89558e+57
          1257.55290	         8.61777e+57
          1258.35920	         7.55251e+57
          1259.16550	         7.10735e+57
          1259.97180	         7.97890e+57
          1260.77810	         9.93791e+57
          1261.58440	         1.20267e+58
          1262.39070	         1.02235e+58
          1263.19700	         8.70727e+57
          1264.00330	         1.03880e+58
          1264.80960	         1.07961e+58
          1265.61590	         1.23996e+58
          1266.42220	         1.18885e+58
          1267.22850	         1.15953e+58
          1268.03480	         1.65355e+58
          1268.84110	         1.70051e+58
          1269.64740	         1.58406e+58
          1270.45370	         1.49573e+58
          1271.26000	         1.18759e+58
          1272.06630	         1.16559e+58
          1272.87260	         1.14871e+58
          1273.67890	         1.30190e+58
          1274.48520	         1.32647e+58
          1275.29150	         1.40193e+58
          1276.09780	         1.34974e+58
          1276.90410	         1.31340e+58
          1277.71040	         1.18000e+58
          1278.51670	         1.17166e+58
          1279.32300	         1.37294e+58
          1280.12930	         1.22846e+58
          1280.93560	         1.11551e+58
          1281.74190	         1.25273e+58
          1282.54820	         1.18423e+58
          1283.35450	         1.07053e+58
          1284.16080	         1.22844e+58
          1284.96710	         1.32894e+58
          1285.77340	         1.10688e+58
          1286.57970	         1.24357e+58
          1287.38600	         1.55254e+58
          1288.19230	         1.58407e+58
          1288.99860	         1.60763e+58
          1289.80490	         1.22823e+58
          1290.61120	         1.22626e+58
          1291.41750	         1.48371e+58
          1292.22380	         1.26395e+58
          1293.03010	         1.03900e+58
          1293.83640	         1.13246e+58
          1294.64270	         9.97506e+57
          1295.44900	         9.28646e+57
          1296.25530	         8.80202e+57
          1297.06160	         1.09011e+58
          1297.86790	         1.26808e+58
          1298.67420	         1.01394e+58
          1299.48050	         1.01971e+58
          1300.28680	         1.12669e+58
          1301.09310	         7.58099e+57
          1301.89940	         2.89959e+57
          1302.70570	         5.54057e+57
          1303.51200	         7.98289e+57
          1304.31830	         9.84636e+57
          1305.12460	         1.18961e+58
          1305.93090	         1.28792e+58
          1306.73720	         1.28323e+58
          1307.54350	         1.19670e+58
          1308.34980	         1.27167e+58
          1309.15610	         1.42421e+58
          1309.96240	         1.59904e+58
          1310.76870	         1.36012e+58
          1311.57500	         1.06661e+58
          1312.38130	         9.95523e+57
          1313.18760	         1.30091e+58
          1313.99390	         1.52638e+58
          1314.80020	         1.68174e+58
          1315.60650	         1.60362e+58
          1316.41280	         1.28111e+58
          1317.21910	         1.02500e+58
          1318.02540	         1.11516e+58
          1318.83170	         1.24925e+58
          1319.63800	         1.29639e+58
          1320.44430	         1.35961e+58
          1321.25060	         1.28185e+58
          1322.05690	         1.28775e+58
          1322.86320	         1.25387e+58
          1323.66950	         1.10634e+58
          1324.47580	         1.04073e+58
          1325.28210	         1.03435e+58
          1326.08840	         1.27466e+58
          1326.89470	         1.40913e+58
          1327.70100	         1.22086e+58
          1328.50730	         8.87590e+57
          1329.31360	         9.36979e+57
          1330.11990	         9.79893e+57
          1330.92620	         9.91986e+57
          1331.73250	         1.22591e+58
          1332.53880	         1.14297e+58
          1333.34510	         9.25481e+57
          1334.15140	         8.95219e+57
          1334.95770	         1.01298e+58
          1335.76400	         1.22936e+58
          1336.57030	         1.18200e+58
          1337.37660	         9.91539e+57
          1338.18290	         1.05052e+58
          1338.98920	         1.10551e+58
          1339.79550	         1.06438e+58
          1340.60180	         1.15572e+58
          1341.40810	         1.27059e+58
          1342.21440	         1.04704e+58
          1343.02070	         1.10291e+58
          1343.82700	         1.24696e+58
          1344.63330	         1.08590e+58
          1345.43960	         1.14628e+58
          1346.24590	         1.27703e+58
          1347.05220	         1.16114e+58
          1347.85850	         1.01134e+58
          1348.66480	         1.14921e+58
          1349.47110	         1.16584e+58
          1350.27740	         1.14523e+58
          1351.08370	         1.24604e+58
          1351.89000	         1.06394e+58
          1352.69630	         1.17356e+58
          1353.50260	         1.30326e+58
          1354.30890	         1.24427e+58
          1355.11520	         1.18980e+58
          1355.92150	         9.17259e+57
          1356.72780	         8.84244e+57
          1357.53410	         9.43904e+57
          1358.34040	         1.15364e+58
          1359.14670	         1.18527e+58
          1359.95300	         1.29962e+58
          1360.75930	         1.16225e+58
          1361.56560	         9.37473e+57
          1362.37190	         9.80488e+57
          1363.17820	         1.00784e+58
          1363.98450	         1.12949e+58
          1364.79080	         1.27911e+58
          1365.59710	         1.33948e+58
          1366.40340	         1.26642e+58
          1367.20970	         9.84535e+57
          1368.01600	         8.82498e+57
          1368.82230	         9.22651e+57
          1369.62860	         1.01992e+58
          1370.43490	         9.01632e+57
          1371.24120	         7.88563e+57
          1372.04750	         8.78151e+57
          1372.85380	         1.19508e+58
          1373.66010	         1.09903e+58
          1374.46640	         1.05296e+58
          1375.27270	         1.05001e+58
          1376.07900	         8.98886e+57
          1376.88530	         9.72678e+57
          1377.69160	         9.74659e+57
          1378.49790	         7.80217e+57
          1379.30420	         7.34901e+57
          1380.11050	         8.87996e+57
          1380.91680	         8.98739e+57
          1381.72310	         8.31544e+57
          1382.52940	         7.73816e+57
          1383.33570	         8.18186e+57
          1384.14200	         9.26533e+57
          1384.94830	         1.08863e+58
          1385.75460	         1.02964e+58
          1386.56090	         1.10102e+58
          1387.36720	         1.20992e+58
          1388.17350	         1.22906e+58
          1388.97980	         9.31541e+57
          1389.78610	         7.64554e+57
          1390.59240	         7.97069e+57
          1391.39870	         8.19697e+57
          1392.20500	         8.52753e+57
          1393.01130	         8.19321e+57
          1393.81760	         7.45707e+57
          1394.62390	         6.94045e+57
          1395.43020	         6.81819e+57
          1396.23650	         6.77237e+57
          1397.04280	         6.81568e+57
          1397.84910	         8.37913e+57
          1398.65540	         9.49360e+57
          1399.46170	         1.03656e+58
          1400.26800	         8.79504e+57
          1401.07430	         7.68955e+57
          1401.88060	         7.46545e+57
          1402.68690	         8.41462e+57
          1403.49320	         1.00412e+58
          1404.29950	         9.48519e+57
          1405.10580	         1.00026e+58
          1405.91210	         1.17145e+58
          1406.71840	         1.15816e+58
          1407.52470	         9.76505e+57
          1408.33100	         9.77999e+57
          1409.13730	         1.13397e+58
          1409.94360	         1.18814e+58
          1410.74990	         1.16436e+58
          1411.55620	         9.77274e+57
          1412.36250	         9.26157e+57
          1413.16880	         8.98944e+57
          1413.97510	         7.33489e+57
          1414.78140	         8.08558e+57
          1415.58770	         1.08950e+58
          1416.39400	         1.20674e+58
          1417.20030	         1.06103e+58
          1418.00660	         9.65698e+57
          1418.81290	         9.54200e+57
          1419.61920	         1.04375e+58
          1420.42550	         1.20441e+58
          1421.23180	         1.34355e+58
          1422.03810	         1.27080e+58
          1422.84440	         1.05675e+58
          1423.65070	         1.25341e+58
          1424.45700	         1.26012e+58
          1425.26330	         9.76345e+57
          1426.06960	         8.81884e+57
          1426.87590	         1.04229e+58
          1427.68220	         1.03619e+58
          1428.48850	         9.98631e+57
          1429.29480	         1.08623e+58
          1430.10110	         1.00811e+58
          1430.90740	         8.47017e+57
          1431.71370	         8.51472e+57
          1432.52000	         9.20584e+57
          1433.32630	         8.33336e+57
          1434.13260	         8.59204e+57
          1434.93890	         9.56821e+57
          1435.74520	         9.74921e+57
          1436.55150	         9.19190e+57
          1437.35780	         9.10502e+57
          1438.16410	         9.01326e+57
          1438.97040	         8.82319e+57
          1439.77670	         8.88906e+57
          1440.58300	         9.13879e+57
          1441.38930	         8.88944e+57
          1442.19560	         9.14165e+57
          1443.00190	         1.02604e+58
          1443.80820	         1.23711e+58
          1444.61450	         1.08894e+58
          1445.42080	         8.43238e+57
          1446.22710	         9.84086e+57
          1447.03340	         9.60292e+57
          1447.83970	         1.02965e+58
          1448.64600	         1.08126e+58
          1449.45230	         1.03816e+58
          1450.25860	         9.98261e+57
          1451.06490	         9.26213e+57
          1451.87120	         7.27029e+57
          1452.67750	         5.98876e+57
          1453.48380	         7.10048e+57
          1454.29010	         6.90865e+57
          1455.09640	         7.38715e+57
          1455.90270	         8.15378e+57
          1456.70900	         7.96001e+57
          1457.51530	         9.43478e+57
          1458.32160	         1.20847e+58
          1459.12790	         1.07080e+58
          1459.93420	         9.33517e+57
          1460.74050	         8.06861e+57
          1461.54680	         8.93766e+57
          1462.35310	         8.94283e+57
          1463.15940	         8.91271e+57
          1463.96570	         9.81357e+57
          1464.77200	         1.22873e+58
          1465.57830	         1.15710e+58
          1466.38460	         9.57842e+57
          1467.19090	         9.29510e+57
          1467.99720	         8.96928e+57
          1468.80350	         8.84689e+57
          1469.60980	         9.87184e+57
          1470.41610	         1.22375e+58
          1471.22240	         1.00491e+58
          1472.02870	         9.68191e+57
          1472.83500	         1.00663e+58
          1473.64130	         9.30948e+57
          1474.44760	         1.05798e+58
          1475.25390	         1.07799e+58
          1476.06020	         9.74193e+57
          1476.86650	         8.60933e+57
          1477.67280	         8.58003e+57
          1478.47910	         7.43315e+57
          1479.28540	         7.12870e+57
          1480.09170	         9.74122e+57
          1480.89800	         9.73227e+57
          1481.70430	         8.67374e+57
          1482.51060	         7.86569e+57
          1483.31690	         7.68125e+57
          1484.12320	         8.06197e+57
          1484.92950	         7.52226e+57
          1485.73580	         8.26390e+57
          1486.54210	         8.82633e+57
          1487.34840	         8.25670e+57
          1488.15470	         7.64079e+57
          1488.96100	         9.20537e+57
          1489.76730	         8.80249e+57
