#sample_324_stacked_spectrum_rest_UV-bands_median_H-alpha_noDC.txt
#median Lum: 1.67968e+42
#Rest-frame wavelength (A) | Luminosity (erg/s/A)
#
          1110.00000	         0.00000e+00
          1110.80630	        -8.75722e+58
          1111.61260	        -1.31916e+59
          1112.41890	         1.23213e+59
          1113.22520	         1.03267e+58
          1114.03150	        -7.55918e+58
          1114.83780	         9.69152e+58
          1115.64410	         1.74239e+59
          1116.45040	         1.20962e+59
          1117.25670	         3.64558e+58
          1118.06300	         8.68275e+58
          1118.86930	         3.29601e+58
          1119.67560	         5.82404e+58
          1120.48190	        -1.61867e+58
          1121.28820	        -9.21036e+58
          1122.09450	         8.83849e+58
          1122.90080	         1.15918e+59
          1123.70710	         2.71566e+58
          1124.51340	         7.03857e+58
          1125.31970	         6.26595e+58
          1126.12600	         7.35668e+58
          1126.93230	         1.13094e+58
          1127.73860	        -6.72271e+57
          1128.54490	         1.94347e+58
          1129.35120	         1.95615e+57
          1130.15750	        -2.59534e+58
          1130.96380	         1.09357e+58
          1131.77010	         4.70037e+58
          1132.57640	         9.50138e+57
          1133.38270	        -1.50198e+58
          1134.18900	        -1.38775e+58
          1134.99530	         3.75329e+58
          1135.80160	         4.55185e+58
          1136.60790	         1.08883e+58
          1137.41420	         9.01049e+57
          1138.22050	         4.95020e+58
          1139.02680	         4.90331e+58
          1139.83310	         2.31760e+58
          1140.63940	         1.81066e+58
          1141.44570	        -1.41732e+58
          1142.25200	        -8.29639e+57
          1143.05830	         1.99851e+58
          1143.86460	         3.03838e+58
          1144.67090	         2.46612e+58
          1145.47720	         1.60889e+58
          1146.28350	         1.60204e+57
          1147.08980	         1.13840e+58
          1147.89610	         1.75469e+58
          1148.70240	         1.75644e+58
          1149.50870	         2.21930e+58
          1150.31500	         2.06955e+58
          1151.12130	         1.05859e+58
          1151.92760	        -1.12274e+57
          1152.73390	         5.72624e+57
          1153.54020	         5.72127e+57
          1154.34650	         1.54008e+58
          1155.15280	         1.17909e+58
          1155.95910	        -2.60606e+57
          1156.76540	         8.04886e+57
          1157.57170	         1.39301e+57
          1158.37800	        -1.67808e+57
          1159.18430	         5.57185e+57
          1159.99060	         8.26497e+57
          1160.79690	        -1.86748e+56
          1161.60320	         9.89765e+57
          1162.40950	         1.58086e+58
          1163.21580	         1.72221e+58
          1164.02210	         1.28649e+58
          1164.82840	         5.06918e+57
          1165.63470	         2.33974e+58
          1166.44100	         3.78833e+58
          1167.24730	         2.45845e+58
          1168.05360	         9.70454e+57
          1168.85990	         8.71288e+57
          1169.66620	         5.03323e+57
          1170.47250	         4.55599e+57
          1171.27880	         1.43970e+58
          1172.08510	         1.95854e+58
          1172.89140	         1.45673e+58
          1173.69770	         7.60550e+56
          1174.50400	         7.24581e+57
          1175.31030	         1.92326e+58
          1176.11660	         1.93477e+58
          1176.92290	         1.40074e+58
          1177.72920	         1.28903e+58
          1178.53550	         7.48041e+57
          1179.34180	         1.24745e+57
          1180.14810	         6.19567e+57
          1180.95440	         1.11011e+58
          1181.76070	         9.65913e+57
          1182.56700	         8.32480e+57
          1183.37330	         4.36209e+57
          1184.17960	         9.42557e+57
          1184.98590	         1.25818e+58
          1185.79220	         7.69373e+57
          1186.59850	         1.42682e+58
          1187.40480	         1.28860e+58
          1188.21110	         1.73064e+58
          1189.01740	         9.22182e+57
          1189.82370	         9.04125e+57
          1190.63000	         1.13395e+58
          1191.43630	         1.63108e+58
          1192.24260	         8.04702e+57
          1193.04890	         1.03920e+58
          1193.85520	         1.14015e+58
          1194.66150	         9.38753e+57
          1195.46780	         1.51712e+58
          1196.27410	         1.71878e+58
          1197.08040	         1.19202e+58
          1197.88670	         1.63069e+58
          1198.69300	         1.60356e+58
          1199.49930	         1.35561e+58
          1200.30560	         1.03213e+58
          1201.11190	         1.26545e+58
          1201.91820	         1.08203e+58
          1202.72450	         5.16880e+57
          1203.53080	         1.04028e+58
          1204.33710	         5.51395e+57
          1205.14340	         7.49614e+57
          1205.94970	         6.91830e+57
          1206.75600	         7.85638e+57
          1207.56230	         7.56775e+57
          1208.36860	         1.21046e+58
          1209.17490	         7.61012e+57
          1209.98120	         6.64451e+57
          1210.78750	         7.77625e+57
          1211.59380	         1.24746e+58
          1212.40010	         1.98163e+58
          1213.20640	         2.33583e+58
          1214.01270	         2.04041e+58
          1214.81900	         2.37627e+58
          1215.62530	         4.33855e+58
          1216.43160	         9.04984e+58
          1217.23790	         1.46920e+59
          1218.04420	         1.10319e+59
          1218.85050	         8.46819e+58
          1219.65680	         5.54005e+58
          1220.46310	         3.17147e+58
          1221.26940	         1.98565e+58
          1222.07570	         1.52648e+58
          1222.88200	         1.19836e+58
          1223.68830	         8.16219e+57
          1224.49460	         5.90378e+57
          1225.30090	         3.08254e+57
          1226.10720	         2.97499e+57
          1226.91350	         6.28682e+57
          1227.71980	         6.98511e+57
          1228.52610	         8.54179e+57
          1229.33240	         5.41363e+57
          1230.13870	         8.36546e+57
          1230.94500	         7.45370e+57
          1231.75130	         8.53416e+57
          1232.55760	         1.03394e+58
          1233.36390	         7.08778e+57
          1234.17020	         8.42810e+57
          1234.97650	         7.33992e+57
          1235.78280	         7.03332e+57
          1236.58910	         8.01775e+57
          1237.39540	         9.21654e+57
          1238.20170	         9.17823e+57
          1239.00800	         1.02055e+58
          1239.81430	         1.37374e+58
          1240.62060	         1.22070e+58
          1241.42690	         1.10856e+58
          1242.23320	         1.19175e+58
          1243.03950	         9.05422e+57
          1243.84580	         6.88457e+57
          1244.65210	         9.46460e+57
          1245.45840	         1.05707e+58
          1246.26470	         1.19580e+58
          1247.07100	         1.42964e+58
          1247.87730	         9.29499e+57
          1248.68360	         6.32475e+57
          1249.48990	         8.38045e+57
          1250.29620	         6.94066e+57
          1251.10250	         4.34789e+57
          1251.90880	         4.72903e+57
          1252.71510	         6.01470e+57
          1253.52140	         6.52642e+57
          1254.32770	         8.65982e+57
          1255.13400	         1.25688e+58
          1255.94030	         1.09683e+58
          1256.74660	         9.83884e+57
          1257.55290	         9.76997e+57
          1258.35920	         7.28820e+57
          1259.16550	         3.57617e+57
          1259.97180	         5.76775e+57
          1260.77810	         7.83929e+57
          1261.58440	         1.12413e+58
          1262.39070	         1.01971e+58
          1263.19700	         1.05373e+58
          1264.00330	         1.00706e+58
          1264.80960	         9.14409e+57
          1265.61590	         1.13617e+58
          1266.42220	         1.45172e+58
          1267.22850	         1.06902e+58
          1268.03480	         1.29991e+58
          1268.84110	         1.47269e+58
          1269.64740	         1.14011e+58
          1270.45370	         1.26329e+58
          1271.26000	         1.04867e+58
          1272.06630	         1.07760e+58
          1272.87260	         1.24246e+58
          1273.67890	         1.10232e+58
          1274.48520	         1.00509e+58
          1275.29150	         1.09613e+58
          1276.09780	         9.32067e+57
          1276.90410	         1.20440e+58
          1277.71040	         1.16424e+58
          1278.51670	         1.02502e+58
          1279.32300	         1.27045e+58
          1280.12930	         1.18438e+58
          1280.93560	         1.04768e+58
          1281.74190	         1.19534e+58
          1282.54820	         1.21146e+58
          1283.35450	         1.07811e+58
          1284.16080	         1.16090e+58
          1284.96710	         1.50514e+58
          1285.77340	         1.23590e+58
          1286.57970	         1.08928e+58
          1287.38600	         1.55696e+58
          1288.19230	         1.90398e+58
          1288.99860	         1.71038e+58
          1289.80490	         1.18452e+58
          1290.61120	         1.29972e+58
          1291.41750	         1.43776e+58
          1292.22380	         1.21354e+58
          1293.03010	         1.09582e+58
          1293.83640	         1.24707e+58
          1294.64270	         8.94726e+57
          1295.44900	         4.33110e+57
          1296.25530	         6.24022e+57
          1297.06160	         9.15381e+57
          1297.86790	         8.84703e+57
          1298.67420	         8.49377e+57
          1299.48050	         1.06121e+58
          1300.28680	         1.07644e+58
          1301.09310	         6.82748e+57
          1301.89940	         2.79774e+57
          1302.70570	         5.65149e+57
          1303.51200	         8.85286e+57
          1304.31830	         1.05429e+58
          1305.12460	         1.19746e+58
          1305.93090	         1.21307e+58
          1306.73720	         1.19107e+58
          1307.54350	         1.24453e+58
          1308.34980	         1.36636e+58
          1309.15610	         1.44571e+58
          1309.96240	         1.35281e+58
          1310.76870	         1.33872e+58
          1311.57500	         1.24012e+58
          1312.38130	         1.40773e+58
          1313.18760	         1.43483e+58
          1313.99390	         1.32634e+58
          1314.80020	         1.27750e+58
          1315.60650	         1.18051e+58
          1316.41280	         1.18663e+58
          1317.21910	         1.22306e+58
          1318.02540	         1.19230e+58
          1318.83170	         1.23559e+58
          1319.63800	         1.21619e+58
          1320.44430	         1.11052e+58
          1321.25060	         1.07295e+58
          1322.05690	         1.19451e+58
          1322.86320	         1.19422e+58
          1323.66950	         1.03602e+58
          1324.47580	         9.32939e+57
          1325.28210	         1.00670e+58
          1326.08840	         1.04302e+58
          1326.89470	         9.51305e+57
          1327.70100	         9.56502e+57
          1328.50730	         7.38300e+57
          1329.31360	         7.50142e+57
          1330.11990	         9.51793e+57
          1330.92620	         1.13650e+58
          1331.73250	         1.31012e+58
          1332.53880	         1.07204e+58
          1333.34510	         1.03177e+58
          1334.15140	         9.87814e+57
          1334.95770	         8.27906e+57
          1335.76400	         9.39790e+57
          1336.57030	         1.09723e+58
          1337.37660	         1.04579e+58
          1338.18290	         1.15282e+58
          1338.98920	         1.25237e+58
          1339.79550	         1.15426e+58
          1340.60180	         1.16560e+58
          1341.40810	         1.34315e+58
          1342.21440	         1.24407e+58
          1343.02070	         1.17725e+58
          1343.82700	         1.14559e+58
          1344.63330	         1.09411e+58
          1345.43960	         1.20866e+58
          1346.24590	         1.17449e+58
          1347.05220	         1.22717e+58
          1347.85850	         9.78419e+57
          1348.66480	         1.18609e+58
          1349.47110	         1.18556e+58
          1350.27740	         9.18529e+57
          1351.08370	         1.02889e+58
          1351.89000	         1.08914e+58
          1352.69630	         1.06033e+58
          1353.50260	         1.06837e+58
          1354.30890	         1.12860e+58
          1355.11520	         1.18614e+58
          1355.92150	         1.14141e+58
          1356.72780	         1.12849e+58
          1357.53410	         1.02190e+58
          1358.34040	         9.44864e+57
          1359.14670	         9.08872e+57
          1359.95300	         1.05245e+58
          1360.75930	         1.05791e+58
          1361.56560	         1.13529e+58
          1362.37190	         1.23545e+58
          1363.17820	         1.08365e+58
          1363.98450	         1.15895e+58
          1364.79080	         1.22052e+58
          1365.59710	         1.19893e+58
          1366.40340	         1.02068e+58
          1367.20970	         8.92241e+57
          1368.01600	         9.93350e+57
          1368.82230	         8.89739e+57
          1369.62860	         9.64025e+57
          1370.43490	         9.21403e+57
          1371.24120	         9.06357e+57
          1372.04750	         8.35609e+57
          1372.85380	         8.98989e+57
          1373.66010	         8.81363e+57
          1374.46640	         9.37257e+57
          1375.27270	         1.00720e+58
          1376.07900	         8.25674e+57
          1376.88530	         8.47124e+57
          1377.69160	         9.21284e+57
          1378.49790	         7.59525e+57
          1379.30420	         6.81644e+57
          1380.11050	         8.43484e+57
          1380.91680	         7.61315e+57
          1381.72310	         6.96454e+57
          1382.52940	         8.26979e+57
          1383.33570	         9.97954e+57
          1384.14200	         1.05585e+58
          1384.94830	         1.18584e+58
          1385.75460	         1.10396e+58
          1386.56090	         1.03568e+58
          1387.36720	         1.07414e+58
          1388.17350	         1.21187e+58
          1388.97980	         1.02792e+58
          1389.78610	         8.65566e+57
          1390.59240	         9.15640e+57
          1391.39870	         7.62386e+57
          1392.20500	         7.86407e+57
          1393.01130	         7.73636e+57
          1393.81760	         7.72317e+57
          1394.62390	         8.32159e+57
          1395.43020	         7.01378e+57
          1396.23650	         5.79812e+57
          1397.04280	         6.69295e+57
          1397.84910	         8.82589e+57
          1398.65540	         8.68903e+57
          1399.46170	         8.68245e+57
          1400.26800	         8.02114e+57
          1401.07430	         7.84817e+57
          1401.88060	         8.25106e+57
          1402.68690	         8.94625e+57
          1403.49320	         9.30745e+57
          1404.29950	         9.58384e+57
          1405.10580	         1.07250e+58
          1405.91210	         1.02938e+58
          1406.71840	         1.03482e+58
          1407.52470	         1.01438e+58
          1408.33100	         9.08829e+57
          1409.13730	         1.02133e+58
          1409.94360	         1.05921e+58
          1410.74990	         1.02950e+58
          1411.55620	         9.59793e+57
          1412.36250	         9.37410e+57
          1413.16880	         9.23445e+57
          1413.97510	         7.57140e+57
          1414.78140	         8.28650e+57
          1415.58770	         1.03548e+58
          1416.39400	         1.12858e+58
          1417.20030	         1.13021e+58
          1418.00660	         1.06433e+58
          1418.81290	         1.07646e+58
          1419.61920	         1.09310e+58
          1420.42550	         1.22433e+58
          1421.23180	         1.19996e+58
          1422.03810	         1.03923e+58
          1422.84440	         1.11775e+58
          1423.65070	         1.36527e+58
          1424.45700	         1.25637e+58
          1425.26330	         9.71882e+57
          1426.06960	         8.74565e+57
          1426.87590	         9.48576e+57
          1427.68220	         1.03163e+58
          1428.48850	         1.03268e+58
          1429.29480	         1.06479e+58
          1430.10110	         9.26999e+57
          1430.90740	         8.15685e+57
          1431.71370	         8.41272e+57
          1432.52000	         8.42537e+57
          1433.32630	         8.20606e+57
          1434.13260	         8.24511e+57
          1434.93890	         7.15973e+57
          1435.74520	         8.70641e+57
          1436.55150	         9.97640e+57
          1437.35780	         8.88343e+57
          1438.16410	         8.93415e+57
          1438.97040	         8.66123e+57
          1439.77670	         8.53649e+57
          1440.58300	         8.56353e+57
          1441.38930	         9.69297e+57
          1442.19560	         9.53197e+57
          1443.00190	         9.14655e+57
          1443.80820	         1.09396e+58
          1444.61450	         1.00085e+58
          1445.42080	         8.95577e+57
          1446.22710	         9.69348e+57
          1447.03340	         9.82844e+57
          1447.83970	         1.07837e+58
          1448.64600	         1.02022e+58
          1449.45230	         9.54045e+57
          1450.25860	         9.64963e+57
          1451.06490	         8.22204e+57
          1451.87120	         7.89270e+57
          1452.67750	         8.22386e+57
          1453.48380	         8.98743e+57
          1454.29010	         8.03513e+57
          1455.09640	         6.79657e+57
          1455.90270	         8.32368e+57
          1456.70900	         9.13118e+57
          1457.51530	         9.96582e+57
          1458.32160	         1.21611e+58
          1459.12790	         1.15136e+58
          1459.93420	         9.72054e+57
          1460.74050	         8.52593e+57
          1461.54680	         8.67858e+57
          1462.35310	         8.82092e+57
          1463.15940	         9.75361e+57
          1463.96570	         1.01495e+58
          1464.77200	         1.04554e+58
          1465.57830	         9.90775e+57
          1466.38460	         9.22250e+57
          1467.19090	         8.96062e+57
          1467.99720	         8.87822e+57
          1468.80350	         9.49587e+57
          1469.60980	         9.83086e+57
          1470.41610	         1.00938e+58
          1471.22240	         9.12587e+57
          1472.02870	         8.27300e+57
          1472.83500	         1.02298e+58
          1473.64130	         9.98808e+57
          1474.44760	         9.32815e+57
          1475.25390	         8.02545e+57
          1476.06020	         7.79157e+57
          1476.86650	         8.56564e+57
          1477.67280	         7.49949e+57
          1478.47910	         7.09634e+57
          1479.28540	         6.86947e+57
          1480.09170	         7.46188e+57
          1480.89800	         8.30535e+57
          1481.70430	         7.89427e+57
          1482.51060	         7.26943e+57
          1483.31690	         7.62870e+57
          1484.12320	         9.01162e+57
          1484.92950	         8.23109e+57
          1485.73580	         8.17370e+57
          1486.54210	         7.92545e+57
          1487.34840	         8.11564e+57
          1488.15470	         8.80310e+57
          1488.96100	         8.73437e+57
          1489.76730	         8.66631e+57
