#sample_199_stacked_spectrum_rest_UV-bands_median_H-alpha_noDC.txt
#median Lum: 1.71257e+42
#Rest-frame wavelength (A) | Luminosity (erg/s/A)
#
          1110.00000	         0.00000e+00
          1110.80630	         1.58137e+59
          1111.61260	         2.76860e+59
          1112.41890	         2.50749e+59
          1113.22520	         1.23683e+59
          1114.03150	        -9.58565e+58
          1114.83780	         1.58846e+59
          1115.64410	         2.25932e+58
          1116.45040	         2.59339e+59
          1117.25670	        -1.81919e+58
          1118.06300	         1.00638e+59
          1118.86930	         8.25450e+58
          1119.67560	         5.43750e+58
          1120.48190	        -3.79978e+58
          1121.28820	        -8.99334e+58
          1122.09450	        -1.91383e+58
          1122.90080	        -2.37597e+58
          1123.70710	         4.75992e+58
          1124.51340	         8.30288e+58
          1125.31970	         3.54472e+58
          1126.12600	         2.57080e+58
          1126.93230	        -2.46425e+58
          1127.73860	        -2.19192e+58
          1128.54490	         2.96625e+58
          1129.35120	         2.20231e+57
          1130.15750	        -2.98398e+58
          1130.96380	        -4.07046e+58
          1131.77010	         6.94314e+58
          1132.57640	         6.30765e+58
          1133.38270	         4.69457e+58
          1134.18900	         2.23473e+57
          1134.99530	         9.00854e+57
          1135.80160	         2.33758e+58
          1136.60790	         3.36340e+58
          1137.41420	         5.01131e+57
          1138.22050	         3.92124e+58
          1139.02680	         4.31513e+58
          1139.83310	         2.51981e+58
          1140.63940	         1.16099e+58
          1141.44570	        -9.22495e+57
          1142.25200	        -6.41684e+57
          1143.05830	         1.40032e+58
          1143.86460	         1.04954e+58
          1144.67090	         1.10270e+58
          1145.47720	         2.14136e+58
          1146.28350	         2.58073e+58
          1147.08980	         1.52064e+58
          1147.89610	         1.07309e+58
          1148.70240	         1.20363e+58
          1149.50870	         1.22070e+58
          1150.31500	         1.54144e+58
          1151.12130	         1.05184e+58
          1151.92760	         3.56233e+57
          1152.73390	         1.00192e+58
          1153.54020	         1.14431e+58
          1154.34650	         2.43906e+58
          1155.15280	         1.55673e+58
          1155.95910	         1.64883e+58
          1156.76540	         9.80872e+57
          1157.57170	         1.49372e+57
          1158.37800	         4.76605e+57
          1159.18430	        -2.07679e+56
          1159.99060	        -2.23537e+57
          1160.79690	         3.67299e+57
          1161.60320	         5.88375e+57
          1162.40950	         1.26357e+58
          1163.21580	         1.58524e+58
          1164.02210	         8.10450e+57
          1164.82840	         1.30160e+58
          1165.63470	         1.64684e+58
          1166.44100	         2.64942e+58
          1167.24730	         1.81888e+58
          1168.05360	         1.23600e+58
          1168.85990	        -4.61277e+56
          1169.66620	        -1.63724e+57
          1170.47250	         8.40922e+57
          1171.27880	         1.23787e+58
          1172.08510	         1.65373e+58
          1172.89140	         1.88942e+58
          1173.69770	         1.43927e+58
          1174.50400	         1.15567e+58
          1175.31030	         1.74634e+58
          1176.11660	         2.11084e+58
          1176.92290	         1.84272e+58
          1177.72920	         1.51465e+58
          1178.53550	         6.12767e+57
          1179.34180	         4.80498e+57
          1180.14810	         1.27591e+58
          1180.95440	         1.10166e+58
          1181.76070	         2.82388e+57
          1182.56700	         8.01022e+57
          1183.37330	         7.74512e+57
          1184.17960	         1.44259e+58
          1184.98590	         1.56209e+58
          1185.79220	         9.48374e+57
          1186.59850	         1.01698e+58
          1187.40480	         6.35953e+57
          1188.21110	         9.46013e+57
          1189.01740	         1.26200e+58
          1189.82370	         1.04888e+58
          1190.63000	         9.75767e+57
          1191.43630	         8.64136e+57
          1192.24260	         3.69704e+57
          1193.04890	         9.61609e+57
          1193.85520	         8.80061e+57
          1194.66150	         3.31252e+57
          1195.46780	         1.12394e+58
          1196.27410	         1.35338e+58
          1197.08040	         8.06435e+57
          1197.88670	         1.35914e+58
          1198.69300	         1.89337e+58
          1199.49930	         2.12861e+58
          1200.30560	         1.32581e+58
          1201.11190	         1.03172e+58
          1201.91820	         1.25152e+58
          1202.72450	         1.01106e+58
          1203.53080	         8.74930e+57
          1204.33710	         6.64285e+57
          1205.14340	         8.86609e+57
          1205.94970	         4.23297e+57
          1206.75600	         3.68238e+57
          1207.56230	         8.68997e+57
          1208.36860	         1.04576e+58
          1209.17490	         3.63767e+57
          1209.98120	         4.96196e+57
          1210.78750	         6.07293e+57
          1211.59380	         9.40588e+57
          1212.40010	         1.73684e+58
          1213.20640	         1.73769e+58
          1214.01270	         2.15718e+58
          1214.81900	         2.67500e+58
          1215.62530	         4.70409e+58
          1216.43160	         9.05333e+58
          1217.23790	         1.50500e+59
          1218.04420	         1.18233e+59
          1218.85050	         9.11202e+58
          1219.65680	         5.41131e+58
          1220.46310	         3.10755e+58
          1221.26940	         2.09057e+58
          1222.07570	         1.48766e+58
          1222.88200	         1.33894e+58
          1223.68830	         8.83852e+57
          1224.49460	         6.87185e+57
          1225.30090	         6.74345e+57
          1226.10720	         5.16159e+57
          1226.91350	         8.29301e+57
          1227.71980	         7.55729e+57
          1228.52610	         1.02908e+58
          1229.33240	         1.01644e+58
          1230.13870	         8.89490e+57
          1230.94500	         1.03970e+58
          1231.75130	         6.63719e+57
          1232.55760	         8.94345e+57
          1233.36390	         8.32808e+57
          1234.17020	         9.67251e+57
          1234.97650	         9.19728e+57
          1235.78280	         8.58014e+57
          1236.58910	         9.82527e+57
          1237.39540	         1.21002e+58
          1238.20170	         1.05765e+58
          1239.00800	         1.22361e+58
          1239.81430	         1.38513e+58
          1240.62060	         1.09605e+58
          1241.42690	         1.11998e+58
          1242.23320	         1.07349e+58
          1243.03950	         9.23776e+57
          1243.84580	         9.32459e+57
          1244.65210	         1.05231e+58
          1245.45840	         8.74293e+57
          1246.26470	         7.73319e+57
          1247.07100	         7.00222e+57
          1247.87730	         6.48747e+57
          1248.68360	         3.92647e+57
          1249.48990	         8.53335e+57
          1250.29620	         9.43362e+57
          1251.10250	         6.80940e+57
          1251.90880	         6.89650e+57
          1252.71510	         7.48836e+57
          1253.52140	         6.32505e+57
          1254.32770	         9.78775e+57
          1255.13400	         1.39533e+58
          1255.94030	         1.24648e+58
          1256.74660	         1.03080e+58
          1257.55290	         1.08613e+58
          1258.35920	         8.05255e+57
          1259.16550	         5.19255e+57
          1259.97180	         5.23875e+57
          1260.77810	         8.61492e+57
          1261.58440	         1.20555e+58
          1262.39070	         8.26604e+57
          1263.19700	         9.66397e+57
          1264.00330	         1.09986e+58
          1264.80960	         1.02501e+58
          1265.61590	         1.23496e+58
          1266.42220	         1.36858e+58
          1267.22850	         1.01868e+58
          1268.03480	         1.02337e+58
          1268.84110	         1.40383e+58
          1269.64740	         1.49574e+58
          1270.45370	         1.35139e+58
          1271.26000	         1.15688e+58
          1272.06630	         1.14568e+58
          1272.87260	         1.32419e+58
          1273.67890	         1.26233e+58
          1274.48520	         1.20619e+58
          1275.29150	         1.25980e+58
          1276.09780	         1.10095e+58
          1276.90410	         1.34844e+58
          1277.71040	         1.31433e+58
          1278.51670	         1.22965e+58
          1279.32300	         1.35907e+58
          1280.12930	         1.33132e+58
          1280.93560	         1.21895e+58
          1281.74190	         1.18491e+58
          1282.54820	         1.37933e+58
          1283.35450	         1.23664e+58
          1284.16080	         1.23233e+58
          1284.96710	         1.29050e+58
          1285.77340	         1.02705e+58
          1286.57970	         1.01518e+58
          1287.38600	         1.42660e+58
          1288.19230	         1.70824e+58
          1288.99860	         1.74726e+58
          1289.80490	         1.17278e+58
          1290.61120	         1.16649e+58
          1291.41750	         1.37064e+58
          1292.22380	         1.12439e+58
          1293.03010	         1.09744e+58
          1293.83640	         1.19798e+58
          1294.64270	         1.10278e+58
          1295.44900	         7.32176e+57
          1296.25530	         7.76620e+57
          1297.06160	         1.09522e+58
          1297.86790	         9.77981e+57
          1298.67420	         8.59808e+57
          1299.48050	         9.79718e+57
          1300.28680	         1.03574e+58
          1301.09310	         9.07074e+57
          1301.89940	         6.21373e+57
          1302.70570	         7.82190e+57
          1303.51200	         1.01003e+58
          1304.31830	         1.02781e+58
          1305.12460	         1.00501e+58
          1305.93090	         1.03352e+58
          1306.73720	         1.14041e+58
          1307.54350	         1.29541e+58
          1308.34980	         1.36016e+58
          1309.15610	         1.60500e+58
          1309.96240	         1.61004e+58
          1310.76870	         1.42296e+58
          1311.57500	         1.27566e+58
          1312.38130	         1.16942e+58
          1313.18760	         1.08771e+58
          1313.99390	         1.41883e+58
          1314.80020	         1.70174e+58
          1315.60650	         1.59330e+58
          1316.41280	         1.26695e+58
          1317.21910	         1.07231e+58
          1318.02540	         1.18491e+58
          1318.83170	         1.35765e+58
          1319.63800	         1.17209e+58
          1320.44430	         1.18774e+58
          1321.25060	         1.29525e+58
          1322.05690	         1.19121e+58
          1322.86320	         1.23932e+58
          1323.66950	         1.18959e+58
          1324.47580	         9.00594e+57
          1325.28210	         9.89157e+57
          1326.08840	         1.17024e+58
          1326.89470	         1.14259e+58
          1327.70100	         9.60762e+57
          1328.50730	         8.35173e+57
          1329.31360	         1.09043e+58
          1330.11990	         1.02338e+58
          1330.92620	         8.85461e+57
          1331.73250	         1.14555e+58
          1332.53880	         1.08623e+58
          1333.34510	         1.01120e+58
          1334.15140	         9.39953e+57
          1334.95770	         8.15019e+57
          1335.76400	         1.00842e+58
          1336.57030	         1.10447e+58
          1337.37660	         1.07209e+58
          1338.18290	         1.10356e+58
          1338.98920	         1.16792e+58
          1339.79550	         1.16387e+58
          1340.60180	         1.16073e+58
          1341.40810	         1.37528e+58
          1342.21440	         1.29796e+58
          1343.02070	         1.15629e+58
          1343.82700	         1.21599e+58
          1344.63330	         1.26401e+58
          1345.43960	         1.11420e+58
          1346.24590	         9.68332e+57
          1347.05220	         1.12283e+58
          1347.85850	         1.10537e+58
          1348.66480	         1.12626e+58
          1349.47110	         1.29315e+58
          1350.27740	         1.25500e+58
          1351.08370	         1.20873e+58
          1351.89000	         1.12038e+58
          1352.69630	         1.03426e+58
          1353.50260	         1.08942e+58
          1354.30890	         1.19125e+58
          1355.11520	         1.25092e+58
          1355.92150	         1.08079e+58
          1356.72780	         9.23226e+57
          1357.53410	         1.04122e+58
          1358.34040	         1.15740e+58
          1359.14670	         1.04434e+58
          1359.95300	         1.08320e+58
          1360.75930	         1.15961e+58
          1361.56560	         1.03734e+58
          1362.37190	         1.16657e+58
          1363.17820	         1.15502e+58
          1363.98450	         1.23204e+58
          1364.79080	         1.37551e+58
          1365.59710	         1.29287e+58
          1366.40340	         1.27069e+58
          1367.20970	         1.20972e+58
          1368.01600	         9.96724e+57
          1368.82230	         8.44126e+57
          1369.62860	         1.08871e+58
          1370.43490	         9.65597e+57
          1371.24120	         8.66112e+57
          1372.04750	         9.31357e+57
          1372.85380	         1.09037e+58
          1373.66010	         1.13541e+58
          1374.46640	         1.07610e+58
          1375.27270	         1.07957e+58
          1376.07900	         9.45125e+57
          1376.88530	         9.07129e+57
          1377.69160	         8.25398e+57
          1378.49790	         6.35909e+57
          1379.30420	         7.42656e+57
          1380.11050	         9.94813e+57
          1380.91680	         8.75603e+57
          1381.72310	         7.78965e+57
          1382.52940	         7.49541e+57
          1383.33570	         7.44775e+57
          1384.14200	         8.75557e+57
          1384.94830	         9.95844e+57
          1385.75460	         1.04434e+58
          1386.56090	         1.14458e+58
          1387.36720	         1.03262e+58
          1388.17350	         1.04441e+58
          1388.97980	         9.01267e+57
          1389.78610	         7.75096e+57
          1390.59240	         6.93862e+57
          1391.39870	         6.53391e+57
          1392.20500	         8.81420e+57
          1393.01130	         8.22691e+57
          1393.81760	         7.52924e+57
          1394.62390	         8.24814e+57
          1395.43020	         6.88789e+57
          1396.23650	         5.86940e+57
          1397.04280	         6.71167e+57
          1397.84910	         8.62992e+57
          1398.65540	         8.99758e+57
          1399.46170	         9.54392e+57
          1400.26800	         8.53437e+57
          1401.07430	         7.69259e+57
          1401.88060	         9.33213e+57
          1402.68690	         9.31130e+57
          1403.49320	         9.13041e+57
          1404.29950	         9.49810e+57
          1405.10580	         1.03515e+58
          1405.91210	         1.16176e+58
          1406.71840	         1.16409e+58
          1407.52470	         1.12021e+58
          1408.33100	         1.01329e+58
          1409.13730	         1.11128e+58
          1409.94360	         1.18008e+58
          1410.74990	         1.13135e+58
          1411.55620	         1.03714e+58
          1412.36250	         9.20622e+57
          1413.16880	         8.20874e+57
          1413.97510	         7.71735e+57
          1414.78140	         8.71762e+57
          1415.58770	         9.86588e+57
          1416.39400	         8.99137e+57
          1417.20030	         8.53658e+57
          1418.00660	         9.23420e+57
          1418.81290	         1.04682e+58
          1419.61920	         1.07852e+58
          1420.42550	         1.28943e+58
          1421.23180	         1.32961e+58
          1422.03810	         1.18124e+58
          1422.84440	         1.08902e+58
          1423.65070	         1.27335e+58
          1424.45700	         1.19303e+58
          1425.26330	         9.33464e+57
          1426.06960	         1.02967e+58
          1426.87590	         1.13679e+58
          1427.68220	         9.67979e+57
          1428.48850	         1.00517e+58
          1429.29480	         1.03380e+58
          1430.10110	         9.81796e+57
          1430.90740	         9.14443e+57
          1431.71370	         9.49684e+57
          1432.52000	         8.42472e+57
          1433.32630	         7.50630e+57
          1434.13260	         8.01835e+57
          1434.93890	         8.59376e+57
          1435.74520	         8.38972e+57
          1436.55150	         9.02212e+57
          1437.35780	         9.40567e+57
          1438.16410	         9.55651e+57
          1438.97040	         9.42578e+57
          1439.77670	         9.89928e+57
          1440.58300	         9.77597e+57
          1441.38930	         9.67506e+57
          1442.19560	         1.00001e+58
          1443.00190	         1.03028e+58
          1443.80820	         1.11337e+58
          1444.61450	         9.60046e+57
          1445.42080	         8.13725e+57
          1446.22710	         1.01397e+58
          1447.03340	         1.10559e+58
          1447.83970	         1.13303e+58
          1448.64600	         1.09101e+58
          1449.45230	         1.03147e+58
          1450.25860	         1.11364e+58
          1451.06490	         9.87082e+57
          1451.87120	         7.50324e+57
          1452.67750	         7.86580e+57
          1453.48380	         9.62763e+57
          1454.29010	         8.69994e+57
          1455.09640	         7.76435e+57
          1455.90270	         8.73336e+57
          1456.70900	         8.67056e+57
          1457.51530	         1.01174e+58
          1458.32160	         1.24824e+58
          1459.12790	         1.19890e+58
          1459.93420	         1.00984e+58
          1460.74050	         7.11316e+57
          1461.54680	         7.60210e+57
          1462.35310	         7.13192e+57
          1463.15940	         8.76219e+57
          1463.96570	         1.10528e+58
          1464.77200	         1.22774e+58
          1465.57830	         1.05152e+58
          1466.38460	         9.30604e+57
          1467.19090	         8.32433e+57
          1467.99720	         8.12860e+57
          1468.80350	         8.77397e+57
          1469.60980	         9.05333e+57
          1470.41610	         9.78402e+57
          1471.22240	         8.28883e+57
          1472.02870	         9.19715e+57
          1472.83500	         9.99011e+57
          1473.64130	         7.93443e+57
          1474.44760	         7.44715e+57
          1475.25390	         9.09423e+57
          1476.06020	         9.13708e+57
          1476.86650	         9.04513e+57
          1477.67280	         8.16088e+57
          1478.47910	         7.23348e+57
          1479.28540	         6.43597e+57
          1480.09170	         7.80346e+57
          1480.89800	         8.30509e+57
          1481.70430	         7.54737e+57
          1482.51060	         6.92733e+57
          1483.31690	         5.74478e+57
          1484.12320	         6.13538e+57
          1484.92950	         7.23170e+57
          1485.73580	         8.17006e+57
          1486.54210	         8.17450e+57
          1487.34840	         7.88118e+57
          1488.15470	         7.14363e+57
          1488.96100	         7.03327e+57
          1489.76730	         8.10152e+57
