#sample_6_stacked_spectrum_rest_UV-bands_median_H-alpha_noDC.txt
#median Lum: 1.71994e+42
#Rest-frame wavelength (A) | Luminosity (erg/s/A)
#
          1110.00000	         0.00000e+00
          1110.80630	        -2.07362e+59
          1111.61260	         8.37358e+58
          1112.41890	        -5.50465e+58
          1113.22520	        -1.95123e+58
          1114.03150	        -8.84379e+58
          1114.83780	         3.89502e+59
          1115.64410	         8.35440e+58
          1116.45040	         1.08104e+59
          1117.25670	         1.10162e+59
          1118.06300	         4.34021e+58
          1118.86930	         4.15297e+58
          1119.67560	         9.86477e+58
          1120.48190	        -3.25259e+58
          1121.28820	        -2.01031e+59
          1122.09450	        -3.37913e+58
          1122.90080	         7.60202e+58
          1123.70710	         9.01415e+58
          1124.51340	         1.62717e+59
          1125.31970	        -2.82836e+57
          1126.12600	        -2.51304e+57
          1126.93230	        -1.64730e+58
          1127.73860	        -1.01595e+59
          1128.54490	        -3.33228e+58
          1129.35120	         1.22227e+58
          1130.15750	        -4.60586e+57
          1130.96380	        -1.80332e+58
          1131.77010	         4.36693e+58
          1132.57640	         6.15570e+58
          1133.38270	         3.24220e+58
          1134.18900	         4.85380e+57
          1134.99530	         9.65376e+57
          1135.80160	         1.90438e+58
          1136.60790	         2.01341e+58
          1137.41420	         2.31495e+58
          1138.22050	         2.95078e+58
          1139.02680	         3.80992e+58
          1139.83310	         3.24970e+58
          1140.63940	         1.28328e+58
          1141.44570	        -2.48027e+58
          1142.25200	         2.01645e+57
          1143.05830	         1.77799e+58
          1143.86460	         2.83810e+58
          1144.67090	         4.72613e+58
          1145.47720	         3.25147e+58
          1146.28350	         2.35241e+58
          1147.08980	         1.45252e+58
          1147.89610	         2.26862e+58
          1148.70240	         2.57442e+58
          1149.50870	         2.03760e+58
          1150.31500	         1.16580e+58
          1151.12130	         1.13175e+58
          1151.92760	         5.64100e+57
          1152.73390	        -6.32708e+57
          1153.54020	        -5.33854e+57
          1154.34650	         2.14876e+58
          1155.15280	         2.09938e+58
          1155.95910	         1.09510e+58
          1156.76540	         5.70934e+57
          1157.57170	         1.86930e+57
          1158.37800	         2.67342e+57
          1159.18430	        -1.87248e+57
          1159.99060	         4.74465e+57
          1160.79690	         5.70716e+57
          1161.60320	         2.84579e+57
          1162.40950	         4.29822e+57
          1163.21580	         2.01093e+58
          1164.02210	         7.95127e+57
          1164.82840	         1.13884e+58
          1165.63470	         2.38542e+58
          1166.44100	         2.16160e+58
          1167.24730	         1.29522e+58
          1168.05360	         2.92340e+57
          1168.85990	         7.54680e+57
          1169.66620	         1.11305e+58
          1170.47250	         1.21785e+58
          1171.27880	         1.35056e+58
          1172.08510	         1.90576e+58
          1172.89140	         1.99586e+58
          1173.69770	         1.06499e+58
          1174.50400	         1.18578e+58
          1175.31030	         1.65063e+58
          1176.11660	         1.77951e+58
          1176.92290	         1.35926e+58
          1177.72920	         1.13376e+58
          1178.53550	         9.67739e+57
          1179.34180	         4.22175e+57
          1180.14810	         7.20498e+57
          1180.95440	         9.16624e+57
          1181.76070	         8.68907e+57
          1182.56700	         9.63337e+57
          1183.37330	         7.57020e+57
          1184.17960	         6.90282e+57
          1184.98590	         7.31819e+57
          1185.79220	         6.27042e+57
          1186.59850	         8.78696e+57
          1187.40480	         1.54112e+58
          1188.21110	         1.02266e+58
          1189.01740	         7.91039e+57
          1189.82370	         1.07772e+58
          1190.63000	         1.31617e+58
          1191.43630	         1.18726e+58
          1192.24260	         8.74863e+57
          1193.04890	         1.22275e+58
          1193.85520	         9.36516e+57
          1194.66150	         3.94624e+57
          1195.46780	         7.99970e+57
          1196.27410	         1.07134e+58
          1197.08040	         8.52658e+57
          1197.88670	         1.39003e+58
          1198.69300	         1.35983e+58
          1199.49930	         1.50186e+58
          1200.30560	         1.15472e+58
          1201.11190	         1.15469e+58
          1201.91820	         1.15528e+58
          1202.72450	         5.68999e+57
          1203.53080	         1.43637e+58
          1204.33710	         1.47556e+58
          1205.14340	         4.88108e+57
          1205.94970	         5.48916e+57
          1206.75600	         9.88582e+57
          1207.56230	         8.58988e+57
          1208.36860	         1.05745e+58
          1209.17490	         3.22625e+57
          1209.98120	         6.53432e+57
          1210.78750	         1.03592e+58
          1211.59380	         1.33238e+58
          1212.40010	         2.13645e+58
          1213.20640	         2.29706e+58
          1214.01270	         2.36184e+58
          1214.81900	         2.91844e+58
          1215.62530	         4.43153e+58
          1216.43160	         8.90050e+58
          1217.23790	         1.54064e+59
          1218.04420	         1.16216e+59
          1218.85050	         8.58385e+58
          1219.65680	         5.65941e+58
          1220.46310	         3.22372e+58
          1221.26940	         2.15268e+58
          1222.07570	         1.47476e+58
          1222.88200	         1.15928e+58
          1223.68830	         1.08498e+58
          1224.49460	         8.00329e+57
          1225.30090	         6.09683e+57
          1226.10720	         5.53355e+57
          1226.91350	         5.54113e+57
          1227.71980	         9.62787e+57
          1228.52610	         1.21998e+58
          1229.33240	         9.61257e+57
          1230.13870	         8.55152e+57
          1230.94500	         5.90093e+57
          1231.75130	         7.55362e+57
          1232.55760	         9.31607e+57
          1233.36390	         8.85275e+57
          1234.17020	         8.67633e+57
          1234.97650	         8.30575e+57
          1235.78280	         8.08959e+57
          1236.58910	         9.67215e+57
          1237.39540	         1.19997e+58
          1238.20170	         1.21438e+58
          1239.00800	         9.95052e+57
          1239.81430	         1.19942e+58
          1240.62060	         1.19524e+58
          1241.42690	         1.01682e+58
          1242.23320	         1.17567e+58
          1243.03950	         9.09070e+57
          1243.84580	         8.80423e+57
          1244.65210	         9.66488e+57
          1245.45840	         1.03278e+58
          1246.26470	         8.26669e+57
          1247.07100	         6.70477e+57
          1247.87730	         6.14806e+57
          1248.68360	         4.10910e+57
          1249.48990	         6.27608e+57
          1250.29620	         8.42201e+57
          1251.10250	         6.98244e+57
          1251.90880	         7.18950e+57
          1252.71510	         6.63612e+57
          1253.52140	         6.49910e+57
          1254.32770	         1.08687e+58
          1255.13400	         1.45244e+58
          1255.94030	         1.26195e+58
          1256.74660	         9.92462e+57
          1257.55290	         1.16012e+58
          1258.35920	         8.41054e+57
          1259.16550	         5.65044e+57
          1259.97180	         6.49446e+57
          1260.77810	         7.54587e+57
          1261.58440	         9.63296e+57
          1262.39070	         8.91913e+57
          1263.19700	         7.53706e+57
          1264.00330	         8.15549e+57
          1264.80960	         1.02862e+58
          1265.61590	         1.23875e+58
          1266.42220	         1.42662e+58
          1267.22850	         1.33743e+58
          1268.03480	         1.46144e+58
          1268.84110	         1.62910e+58
          1269.64740	         1.36250e+58
          1270.45370	         1.35038e+58
          1271.26000	         1.26018e+58
          1272.06630	         1.05758e+58
          1272.87260	         1.24800e+58
          1273.67890	         1.45761e+58
          1274.48520	         1.13087e+58
          1275.29150	         1.06308e+58
          1276.09780	         1.03528e+58
          1276.90410	         1.51631e+58
          1277.71040	         1.48557e+58
          1278.51670	         1.21036e+58
          1279.32300	         1.33943e+58
          1280.12930	         1.21668e+58
          1280.93560	         1.04672e+58
          1281.74190	         1.22149e+58
          1282.54820	         1.23175e+58
          1283.35450	         8.95557e+57
          1284.16080	         1.21213e+58
          1284.96710	         1.49357e+58
          1285.77340	         1.07697e+58
          1286.57970	         1.21037e+58
          1287.38600	         1.64628e+58
          1288.19230	         1.78173e+58
          1288.99860	         1.40585e+58
          1289.80490	         1.02361e+58
          1290.61120	         1.30600e+58
          1291.41750	         1.48058e+58
          1292.22380	         1.47385e+58
          1293.03010	         1.20029e+58
          1293.83640	         1.11908e+58
          1294.64270	         9.95049e+57
          1295.44900	         8.14125e+57
          1296.25530	         8.82121e+57
          1297.06160	         1.11649e+58
          1297.86790	         1.01920e+58
          1298.67420	         8.64937e+57
          1299.48050	         1.08987e+58
          1300.28680	         1.12563e+58
          1301.09310	         7.45049e+57
          1301.89940	         2.40557e+57
          1302.70570	         5.68321e+57
          1303.51200	         8.40165e+57
          1304.31830	         9.25281e+57
          1305.12460	         9.76680e+57
          1305.93090	         1.13239e+58
          1306.73720	         1.32126e+58
          1307.54350	         1.51032e+58
          1308.34980	         1.36122e+58
          1309.15610	         1.43545e+58
          1309.96240	         1.62064e+58
          1310.76870	         1.51953e+58
          1311.57500	         1.37035e+58
          1312.38130	         1.11229e+58
          1313.18760	         1.23837e+58
          1313.99390	         1.50593e+58
          1314.80020	         1.55013e+58
          1315.60650	         1.31928e+58
          1316.41280	         1.31893e+58
          1317.21910	         1.05117e+58
          1318.02540	         9.97596e+57
          1318.83170	         1.31064e+58
          1319.63800	         1.28046e+58
          1320.44430	         1.10305e+58
          1321.25060	         1.09240e+58
          1322.05690	         1.25440e+58
          1322.86320	         1.21363e+58
          1323.66950	         1.21554e+58
          1324.47580	         1.06449e+58
          1325.28210	         9.68439e+57
          1326.08840	         1.29489e+58
          1326.89470	         1.37623e+58
          1327.70100	         1.04369e+58
          1328.50730	         8.62858e+57
          1329.31360	         9.06679e+57
          1330.11990	         1.01182e+58
          1330.92620	         9.81715e+57
          1331.73250	         9.27389e+57
          1332.53880	         8.57190e+57
          1333.34510	         9.55451e+57
          1334.15140	         8.88395e+57
          1334.95770	         8.62396e+57
          1335.76400	         9.93407e+57
          1336.57030	         9.34338e+57
          1337.37660	         1.01391e+58
          1338.18290	         1.04904e+58
          1338.98920	         1.08938e+58
          1339.79550	         1.29035e+58
          1340.60180	         1.31189e+58
          1341.40810	         1.37878e+58
          1342.21440	         1.17324e+58
          1343.02070	         1.13672e+58
          1343.82700	         1.31580e+58
          1344.63330	         1.28020e+58
          1345.43960	         1.21535e+58
          1346.24590	         1.03197e+58
          1347.05220	         1.13323e+58
          1347.85850	         1.05516e+58
          1348.66480	         1.18056e+58
          1349.47110	         1.25980e+58
          1350.27740	         1.18207e+58
          1351.08370	         1.24826e+58
          1351.89000	         1.16783e+58
          1352.69630	         1.19530e+58
          1353.50260	         1.27911e+58
          1354.30890	         1.13102e+58
          1355.11520	         1.05710e+58
          1355.92150	         1.05325e+58
          1356.72780	         9.58570e+57
          1357.53410	         1.01139e+58
          1358.34040	         1.14191e+58
          1359.14670	         9.86169e+57
          1359.95300	         1.03697e+58
          1360.75930	         1.18184e+58
          1361.56560	         1.07419e+58
          1362.37190	         1.07710e+58
          1363.17820	         1.08808e+58
          1363.98450	         1.17015e+58
          1364.79080	         1.28192e+58
          1365.59710	         1.16418e+58
          1366.40340	         1.07125e+58
          1367.20970	         9.29070e+57
          1368.01600	         8.76964e+57
          1368.82230	         1.08735e+58
          1369.62860	         1.31617e+58
          1370.43490	         1.12469e+58
          1371.24120	         8.96034e+57
          1372.04750	         8.35711e+57
          1372.85380	         1.03539e+58
          1373.66010	         1.15893e+58
          1374.46640	         1.10692e+58
          1375.27270	         1.06390e+58
          1376.07900	         9.38238e+57
          1376.88530	         9.20521e+57
          1377.69160	         8.06882e+57
          1378.49790	         7.19827e+57
          1379.30420	         7.89833e+57
          1380.11050	         9.68445e+57
          1380.91680	         8.35225e+57
          1381.72310	         6.81404e+57
          1382.52940	         7.77650e+57
          1383.33570	         9.42497e+57
          1384.14200	         1.03010e+58
          1384.94830	         1.11197e+58
          1385.75460	         1.16226e+58
          1386.56090	         1.30411e+58
          1387.36720	         1.18063e+58
          1388.17350	         1.23732e+58
          1388.97980	         1.14403e+58
          1389.78610	         9.10119e+57
          1390.59240	         7.80022e+57
          1391.39870	         8.08121e+57
          1392.20500	         8.90632e+57
          1393.01130	         8.60515e+57
          1393.81760	         8.85045e+57
          1394.62390	         7.45480e+57
          1395.43020	         5.50259e+57
          1396.23650	         5.15483e+57
          1397.04280	         7.22621e+57
          1397.84910	         9.38465e+57
          1398.65540	         9.11093e+57
          1399.46170	         9.15682e+57
          1400.26800	         8.70116e+57
          1401.07430	         8.37765e+57
          1401.88060	         8.10092e+57
          1402.68690	         9.55974e+57
          1403.49320	         9.60347e+57
          1404.29950	         9.73984e+57
          1405.10580	         1.01024e+58
          1405.91210	         1.11176e+58
          1406.71840	         1.12101e+58
          1407.52470	         1.04540e+58
          1408.33100	         1.07999e+58
          1409.13730	         1.25122e+58
          1409.94360	         1.20742e+58
          1410.74990	         1.03792e+58
          1411.55620	         9.90193e+57
          1412.36250	         9.57841e+57
          1413.16880	         9.17486e+57
          1413.97510	         8.36567e+57
          1414.78140	         8.88003e+57
          1415.58770	         1.14310e+58
          1416.39400	         1.12702e+58
          1417.20030	         9.64883e+57
          1418.00660	         8.01686e+57
          1418.81290	         9.29585e+57
          1419.61920	         1.10935e+58
          1420.42550	         1.24891e+58
          1421.23180	         1.52491e+58
          1422.03810	         1.33261e+58
          1422.84440	         1.18608e+58
          1423.65070	         1.28652e+58
          1424.45700	         1.09427e+58
          1425.26330	         7.84968e+57
          1426.06960	         8.72474e+57
          1426.87590	         9.48161e+57
          1427.68220	         7.87143e+57
          1428.48850	         9.76400e+57
          1429.29480	         1.03337e+58
          1430.10110	         9.36536e+57
          1430.90740	         9.42219e+57
          1431.71370	         9.62963e+57
          1432.52000	         8.93066e+57
          1433.32630	         8.11206e+57
          1434.13260	         8.32455e+57
          1434.93890	         9.01694e+57
          1435.74520	         9.52683e+57
          1436.55150	         1.03679e+58
          1437.35780	         9.52274e+57
          1438.16410	         9.26922e+57
          1438.97040	         9.04250e+57
          1439.77670	         8.47680e+57
          1440.58300	         8.70069e+57
          1441.38930	         9.36033e+57
          1442.19560	         9.66855e+57
          1443.00190	         9.58067e+57
          1443.80820	         1.12262e+58
          1444.61450	         1.03882e+58
          1445.42080	         8.69708e+57
          1446.22710	         9.57385e+57
          1447.03340	         9.71689e+57
          1447.83970	         1.04565e+58
          1448.64600	         1.09700e+58
          1449.45230	         1.09038e+58
          1450.25860	         1.02814e+58
          1451.06490	         8.95826e+57
          1451.87120	         8.56081e+57
          1452.67750	         8.18684e+57
          1453.48380	         9.56279e+57
          1454.29010	         9.07699e+57
          1455.09640	         8.15607e+57
          1455.90270	         9.33487e+57
          1456.70900	         9.70235e+57
          1457.51530	         9.88691e+57
          1458.32160	         1.15858e+58
          1459.12790	         1.18170e+58
          1459.93420	         1.07362e+58
          1460.74050	         7.12982e+57
          1461.54680	         6.97074e+57
          1462.35310	         8.64184e+57
          1463.15940	         9.55070e+57
          1463.96570	         1.08901e+58
          1464.77200	         1.16699e+58
          1465.57830	         1.00322e+58
          1466.38460	         1.01757e+58
          1467.19090	         9.43561e+57
          1467.99720	         7.98169e+57
          1468.80350	         8.48924e+57
          1469.60980	         9.99653e+57
          1470.41610	         1.09611e+58
          1471.22240	         1.01279e+58
          1472.02870	         9.94892e+57
          1472.83500	         9.39570e+57
          1473.64130	         9.85958e+57
          1474.44760	         1.04879e+58
          1475.25390	         9.57862e+57
          1476.06020	         8.17406e+57
          1476.86650	         7.45567e+57
          1477.67280	         8.14141e+57
          1478.47910	         7.12941e+57
          1479.28540	         6.83022e+57
          1480.09170	         8.89194e+57
          1480.89800	         9.66034e+57
          1481.70430	         8.71397e+57
          1482.51060	         8.02511e+57
          1483.31690	         6.24076e+57
          1484.12320	         7.30879e+57
          1484.92950	         8.50473e+57
          1485.73580	         9.41013e+57
          1486.54210	         9.38790e+57
          1487.34840	         8.89177e+57
          1488.15470	         7.89447e+57
          1488.96100	         7.66817e+57
          1489.76730	         8.13654e+57
