#sample_365_stacked_spectrum_rest_UV-bands_median_H-alpha_noDC.txt
#median Lum: 1.72404e+42
#Rest-frame wavelength (A) | Luminosity (erg/s/A)
#
          1110.00000	         0.00000e+00
          1110.80630	         1.80008e+59
          1111.61260	         1.23067e+59
          1112.41890	         1.00162e+58
          1113.22520	         1.45324e+59
          1114.03150	        -2.46229e+59
          1114.83780	        -2.15761e+58
          1115.64410	         1.04914e+59
          1116.45040	         3.13796e+59
          1117.25670	         8.39744e+58
          1118.06300	         1.40281e+59
          1118.86930	        -2.98252e+58
          1119.67560	         1.27431e+59
          1120.48190	        -3.14090e+58
          1121.28820	        -1.70613e+59
          1122.09450	        -8.40366e+57
          1122.90080	         1.57273e+58
          1123.70710	         9.07668e+58
          1124.51340	         4.07563e+58
          1125.31970	        -1.17146e+58
          1126.12600	        -2.64486e+57
          1126.93230	        -1.15907e+58
          1127.73860	        -7.07684e+58
          1128.54490	        -1.51388e+58
          1129.35120	         4.00787e+58
          1130.15750	         2.71895e+58
          1130.96380	        -1.86839e+58
          1131.77010	         3.81438e+58
          1132.57640	         2.10538e+58
          1133.38270	         2.33536e+58
          1134.18900	         3.29631e+58
          1134.99530	         1.63001e+58
          1135.80160	        -4.54501e+57
          1136.60790	         4.69440e+57
          1137.41420	        -2.23048e+58
          1138.22050	         3.13405e+58
          1139.02680	         3.32258e+58
          1139.83310	         2.08433e+58
          1140.63940	         1.87258e+58
          1141.44570	        -8.10416e+57
          1142.25200	         3.18165e+57
          1143.05830	         1.78485e+58
          1143.86460	         2.03092e+58
          1144.67090	         2.21333e+58
          1145.47720	         5.40166e+57
          1146.28350	         1.19802e+58
          1147.08980	         7.39382e+57
          1147.89610	         1.12069e+58
          1148.70240	         9.84493e+57
          1149.50870	         2.17182e+58
          1150.31500	         1.85764e+58
          1151.12130	         2.07130e+58
          1151.92760	         1.46034e+58
          1152.73390	         4.64048e+57
          1153.54020	        -7.53180e+57
          1154.34650	         2.23653e+58
          1155.15280	         2.55389e+58
          1155.95910	         1.08448e+58
          1156.76540	         5.33447e+57
          1157.57170	         2.56368e+57
          1158.37800	         7.40149e+57
          1159.18430	         7.44408e+57
          1159.99060	         8.73375e+57
          1160.79690	         4.94682e+57
          1161.60320	         1.26288e+58
          1162.40950	         1.33194e+58
          1163.21580	         1.67070e+58
          1164.02210	         1.20587e+58
          1164.82840	         1.59065e+58
          1165.63470	         1.51109e+58
          1166.44100	         2.44896e+58
          1167.24730	         2.06323e+58
          1168.05360	         1.25649e+58
          1168.85990	         1.71818e+58
          1169.66620	         1.15224e+58
          1170.47250	         8.27627e+57
          1171.27880	         9.89560e+57
          1172.08510	         1.03065e+58
          1172.89140	         3.99668e+57
          1173.69770	         3.55853e+57
          1174.50400	         6.63022e+57
          1175.31030	         1.54709e+58
          1176.11660	         1.89345e+58
          1176.92290	         1.61790e+58
          1177.72920	         1.43639e+58
          1178.53550	         1.21841e+58
          1179.34180	         4.22527e+57
          1180.14810	         6.03787e+57
          1180.95440	         1.06165e+58
          1181.76070	         1.43566e+58
          1182.56700	         1.24225e+58
          1183.37330	         7.71276e+57
          1184.17960	         1.35725e+58
          1184.98590	         1.00713e+58
          1185.79220	         8.40308e+57
          1186.59850	         5.07208e+57
          1187.40480	         1.09665e+58
          1188.21110	         1.15481e+58
          1189.01740	         1.20277e+58
          1189.82370	         1.26445e+58
          1190.63000	         7.05023e+57
          1191.43630	         1.27332e+58
          1192.24260	         1.30635e+58
          1193.04890	         1.19753e+58
          1193.85520	         1.07085e+58
          1194.66150	         8.72739e+57
          1195.46780	         1.13969e+58
          1196.27410	         1.58698e+58
          1197.08040	         9.17170e+57
          1197.88670	         1.17282e+58
          1198.69300	         1.29014e+58
          1199.49930	         1.41462e+58
          1200.30560	         1.19187e+58
          1201.11190	         1.00649e+58
          1201.91820	         1.33994e+58
          1202.72450	         1.11478e+58
          1203.53080	         1.53991e+58
          1204.33710	         8.57700e+57
          1205.14340	         5.06613e+57
          1205.94970	         7.50924e+57
          1206.75600	         6.74317e+57
          1207.56230	         7.12433e+57
          1208.36860	         9.75379e+57
          1209.17490	         7.72470e+57
          1209.98120	         4.66490e+57
          1210.78750	         7.64421e+57
          1211.59380	         1.30259e+58
          1212.40010	         1.89857e+58
          1213.20640	         1.87780e+58
          1214.01270	         2.34563e+58
          1214.81900	         2.77208e+58
          1215.62530	         4.20445e+58
          1216.43160	         8.63473e+58
          1217.23790	         1.48638e+59
          1218.04420	         1.15081e+59
          1218.85050	         8.57160e+58
          1219.65680	         5.95945e+58
          1220.46310	         3.35036e+58
          1221.26940	         2.46556e+58
          1222.07570	         1.71543e+58
          1222.88200	         1.06805e+58
          1223.68830	         9.52558e+57
          1224.49460	         8.34393e+57
          1225.30090	         5.80447e+57
          1226.10720	         6.69489e+57
          1226.91350	         7.96736e+57
          1227.71980	         1.00867e+58
          1228.52610	         1.27040e+58
          1229.33240	         1.04359e+58
          1230.13870	         4.67366e+57
          1230.94500	         6.41022e+57
          1231.75130	         5.73707e+57
          1232.55760	         8.30321e+57
          1233.36390	         7.61790e+57
          1234.17020	         8.82418e+57
          1234.97650	         6.97438e+57
          1235.78280	         6.76842e+57
          1236.58910	         9.56091e+57
          1237.39540	         1.26651e+58
          1238.20170	         1.18737e+58
          1239.00800	         1.43331e+58
          1239.81430	         1.60719e+58
          1240.62060	         1.11703e+58
          1241.42690	         8.78323e+57
          1242.23320	         1.11746e+58
          1243.03950	         9.54294e+57
          1243.84580	         8.40632e+57
          1244.65210	         1.03224e+58
          1245.45840	         9.29625e+57
          1246.26470	         7.86392e+57
          1247.07100	         5.88293e+57
          1247.87730	         7.08377e+57
          1248.68360	         4.50374e+57
          1249.48990	         9.92158e+57
          1250.29620	         1.19118e+58
          1251.10250	         9.81787e+57
          1251.90880	         6.09573e+57
          1252.71510	         6.47772e+57
          1253.52140	         7.50552e+57
          1254.32770	         8.79362e+57
          1255.13400	         1.17818e+58
          1255.94030	         1.12626e+58
          1256.74660	         9.18602e+57
          1257.55290	         9.26960e+57
          1258.35920	         7.76395e+57
          1259.16550	         7.69560e+57
          1259.97180	         6.04192e+57
          1260.77810	         8.50240e+57
          1261.58440	         1.18317e+58
          1262.39070	         9.66625e+57
          1263.19700	         9.33239e+57
          1264.00330	         1.04442e+58
          1264.80960	         1.22669e+58
          1265.61590	         1.33667e+58
          1266.42220	         1.27630e+58
          1267.22850	         1.16388e+58
          1268.03480	         1.38985e+58
          1268.84110	         1.52139e+58
          1269.64740	         1.43790e+58
          1270.45370	         1.60546e+58
          1271.26000	         1.46202e+58
          1272.06630	         1.12136e+58
          1272.87260	         1.05366e+58
          1273.67890	         1.02149e+58
          1274.48520	         1.08204e+58
          1275.29150	         1.18863e+58
          1276.09780	         1.04195e+58
          1276.90410	         1.51067e+58
          1277.71040	         1.42385e+58
          1278.51670	         1.11938e+58
          1279.32300	         1.36794e+58
          1280.12930	         1.31850e+58
          1280.93560	         1.18056e+58
          1281.74190	         1.11226e+58
          1282.54820	         1.21457e+58
          1283.35450	         1.23244e+58
          1284.16080	         1.27657e+58
          1284.96710	         1.39560e+58
          1285.77340	         1.12460e+58
          1286.57970	         1.14744e+58
          1287.38600	         1.55828e+58
          1288.19230	         1.75471e+58
          1288.99860	         1.58659e+58
          1289.80490	         1.21252e+58
          1290.61120	         1.54957e+58
          1291.41750	         1.66608e+58
          1292.22380	         1.38415e+58
          1293.03010	         1.09449e+58
          1293.83640	         1.03241e+58
          1294.64270	         9.67418e+57
          1295.44900	         6.43576e+57
          1296.25530	         8.13550e+57
          1297.06160	         9.83327e+57
          1297.86790	         1.01381e+58
          1298.67420	         1.05676e+58
          1299.48050	         1.15140e+58
          1300.28680	         1.18105e+58
          1301.09310	         8.04665e+57
          1301.89940	         4.19534e+57
          1302.70570	         6.33396e+57
          1303.51200	         6.97661e+57
          1304.31830	         8.85964e+57
          1305.12460	         1.07149e+58
          1305.93090	         1.11702e+58
          1306.73720	         1.26888e+58
          1307.54350	         1.39919e+58
          1308.34980	         1.41512e+58
          1309.15610	         1.37669e+58
          1309.96240	         1.47935e+58
          1310.76870	         1.45259e+58
          1311.57500	         1.25373e+58
          1312.38130	         1.42477e+58
          1313.18760	         1.60623e+58
          1313.99390	         1.58410e+58
          1314.80020	         1.68830e+58
          1315.60650	         1.52383e+58
          1316.41280	         1.06523e+58
          1317.21910	         1.07385e+58
          1318.02540	         1.33920e+58
          1318.83170	         1.34914e+58
          1319.63800	         1.29719e+58
          1320.44430	         1.12039e+58
          1321.25060	         1.27018e+58
          1322.05690	         1.23522e+58
          1322.86320	         1.13852e+58
          1323.66950	         1.05045e+58
          1324.47580	         9.67063e+57
          1325.28210	         9.96563e+57
          1326.08840	         1.15188e+58
          1326.89470	         1.23944e+58
          1327.70100	         1.08741e+58
          1328.50730	         8.30817e+57
          1329.31360	         8.22152e+57
          1330.11990	         7.65798e+57
          1330.92620	         7.41340e+57
          1331.73250	         9.93190e+57
          1332.53880	         9.67380e+57
          1333.34510	         8.65504e+57
          1334.15140	         8.84326e+57
          1334.95770	         8.68791e+57
          1335.76400	         9.48745e+57
          1336.57030	         1.04882e+58
          1337.37660	         1.05558e+58
          1338.18290	         1.08767e+58
          1338.98920	         1.23859e+58
          1339.79550	         1.28002e+58
          1340.60180	         1.28446e+58
          1341.40810	         1.36506e+58
          1342.21440	         1.21010e+58
          1343.02070	         1.25535e+58
          1343.82700	         1.39127e+58
          1344.63330	         1.20013e+58
          1345.43960	         1.25906e+58
          1346.24590	         1.18081e+58
          1347.05220	         1.14706e+58
          1347.85850	         1.21947e+58
          1348.66480	         1.29548e+58
          1349.47110	         1.34857e+58
          1350.27740	         1.16861e+58
          1351.08370	         1.13795e+58
          1351.89000	         1.22134e+58
          1352.69630	         1.07396e+58
          1353.50260	         1.13265e+58
          1354.30890	         1.27677e+58
          1355.11520	         1.25219e+58
          1355.92150	         1.09747e+58
          1356.72780	         1.00366e+58
          1357.53410	         1.01035e+58
          1358.34040	         1.03535e+58
          1359.14670	         1.01850e+58
          1359.95300	         1.17470e+58
          1360.75930	         1.13331e+58
          1361.56560	         9.90092e+57
          1362.37190	         1.15239e+58
          1363.17820	         1.12400e+58
          1363.98450	         1.12769e+58
          1364.79080	         1.25352e+58
          1365.59710	         1.28206e+58
          1366.40340	         1.27657e+58
          1367.20970	         1.00911e+58
          1368.01600	         9.13073e+57
          1368.82230	         1.04269e+58
          1369.62860	         1.02691e+58
          1370.43490	         9.05277e+57
          1371.24120	         9.28431e+57
          1372.04750	         9.86547e+57
          1372.85380	         1.05141e+58
          1373.66010	         1.09592e+58
          1374.46640	         1.12544e+58
          1375.27270	         1.14671e+58
          1376.07900	         9.77027e+57
          1376.88530	         8.88189e+57
          1377.69160	         8.56378e+57
          1378.49790	         7.35936e+57
          1379.30420	         7.49830e+57
          1380.11050	         8.21807e+57
          1380.91680	         7.87985e+57
          1381.72310	         8.32889e+57
          1382.52940	         8.84293e+57
          1383.33570	         8.28702e+57
          1384.14200	         9.70478e+57
          1384.94830	         1.12360e+58
          1385.75460	         1.03660e+58
          1386.56090	         1.09660e+58
          1387.36720	         1.11220e+58
          1388.17350	         1.21936e+58
          1388.97980	         1.09114e+58
          1389.78610	         9.19641e+57
          1390.59240	         9.29229e+57
          1391.39870	         7.70673e+57
          1392.20500	         7.90504e+57
          1393.01130	         7.57206e+57
          1393.81760	         5.58942e+57
          1394.62390	         6.26449e+57
          1395.43020	         7.33775e+57
          1396.23650	         7.59154e+57
          1397.04280	         7.02715e+57
          1397.84910	         7.40251e+57
          1398.65540	         7.10155e+57
          1399.46170	         9.08133e+57
          1400.26800	         8.09912e+57
          1401.07430	         7.36939e+57
          1401.88060	         9.04822e+57
          1402.68690	         9.64046e+57
          1403.49320	         9.44410e+57
          1404.29950	         9.26253e+57
          1405.10580	         1.01924e+58
          1405.91210	         1.09325e+58
          1406.71840	         1.03887e+58
          1407.52470	         1.02829e+58
          1408.33100	         9.76679e+57
          1409.13730	         1.09631e+58
          1409.94360	         1.14569e+58
          1410.74990	         1.11584e+58
          1411.55620	         9.41244e+57
          1412.36250	         8.63087e+57
          1413.16880	         7.98545e+57
          1413.97510	         8.07829e+57
          1414.78140	         9.37182e+57
          1415.58770	         8.70536e+57
          1416.39400	         8.87161e+57
          1417.20030	         9.75415e+57
          1418.00660	         1.02053e+58
          1418.81290	         9.34027e+57
          1419.61920	         9.32127e+57
          1420.42550	         1.15136e+58
          1421.23180	         1.26234e+58
          1422.03810	         1.17131e+58
          1422.84440	         1.07445e+58
          1423.65070	         1.13953e+58
          1424.45700	         1.03994e+58
          1425.26330	         9.09396e+57
          1426.06960	         1.00094e+58
          1426.87590	         1.06208e+58
          1427.68220	         1.00041e+58
          1428.48850	         1.00308e+58
          1429.29480	         1.09982e+58
          1430.10110	         1.10774e+58
          1430.90740	         9.07406e+57
          1431.71370	         8.41739e+57
          1432.52000	         8.10158e+57
          1433.32630	         8.21111e+57
          1434.13260	         8.65314e+57
          1434.93890	         8.59474e+57
          1435.74520	         8.88247e+57
          1436.55150	         9.52930e+57
          1437.35780	         8.83494e+57
          1438.16410	         8.47306e+57
          1438.97040	         9.44668e+57
          1439.77670	         8.78647e+57
          1440.58300	         8.52823e+57
          1441.38930	         9.12409e+57
          1442.19560	         9.62865e+57
          1443.00190	         1.00694e+58
          1443.80820	         1.11110e+58
          1444.61450	         1.01838e+58
          1445.42080	         9.57704e+57
          1446.22710	         1.08562e+58
          1447.03340	         1.04128e+58
          1447.83970	         1.05015e+58
          1448.64600	         9.30052e+57
          1449.45230	         9.08770e+57
          1450.25860	         1.01080e+58
          1451.06490	         8.55072e+57
          1451.87120	         8.16735e+57
          1452.67750	         8.39559e+57
          1453.48380	         8.97844e+57
          1454.29010	         8.13336e+57
          1455.09640	         7.42933e+57
          1455.90270	         8.42662e+57
          1456.70900	         8.81714e+57
          1457.51530	         9.80724e+57
          1458.32160	         1.27005e+58
          1459.12790	         1.22980e+58
          1459.93420	         9.87876e+57
          1460.74050	         7.74409e+57
          1461.54680	         8.46408e+57
          1462.35310	         9.58609e+57
          1463.15940	         1.13951e+58
          1463.96570	         1.19035e+58
          1464.77200	         1.06067e+58
          1465.57830	         1.07918e+58
          1466.38460	         9.92282e+57
          1467.19090	         7.36357e+57
          1467.99720	         7.99657e+57
          1468.80350	         9.89437e+57
          1469.60980	         1.14458e+58
          1470.41610	         1.10656e+58
          1471.22240	         8.79997e+57
          1472.02870	         9.61221e+57
          1472.83500	         1.01059e+58
          1473.64130	         9.62852e+57
          1474.44760	         9.41074e+57
          1475.25390	         8.85559e+57
          1476.06020	         8.54998e+57
          1476.86650	         8.88348e+57
          1477.67280	         8.08883e+57
          1478.47910	         6.27559e+57
          1479.28540	         7.07121e+57
          1480.09170	         9.57099e+57
          1480.89800	         9.18826e+57
          1481.70430	         8.44192e+57
          1482.51060	         8.54219e+57
          1483.31690	         7.11760e+57
          1484.12320	         7.49205e+57
          1484.92950	         7.97161e+57
          1485.73580	         7.72755e+57
          1486.54210	         7.09020e+57
          1487.34840	         8.15205e+57
          1488.15470	         9.35032e+57
          1488.96100	         8.83398e+57
          1489.76730	         1.03353e+58
