#sample_379_stacked_spectrum_rest_UV-bands_median_H-alpha_noDC.txt
#median Lum: 1.68315e+42
#Rest-frame wavelength (A) | Luminosity (erg/s/A)
#
          1110.00000	         0.00000e+00
          1110.80630	         2.95262e+59
          1111.61260	         3.84543e+59
          1112.41890	        -5.71057e+58
          1113.22520	        -7.40500e+58
          1114.03150	        -2.20026e+59
          1114.83780	         6.33291e+58
          1115.64410	         3.80642e+58
          1116.45040	         2.77090e+58
          1117.25670	        -3.11401e+58
          1118.06300	         1.50941e+59
          1118.86930	         2.70435e+58
          1119.67560	         5.33035e+58
          1120.48190	        -7.57784e+55
          1121.28820	        -6.36158e+58
          1122.09450	         3.02553e+58
          1122.90080	         2.28255e+58
          1123.70710	         3.93610e+58
          1124.51340	         9.69292e+58
          1125.31970	         7.17974e+58
          1126.12600	        -1.83290e+58
          1126.93230	        -3.20670e+58
          1127.73860	        -4.29322e+58
          1128.54490	         1.59433e+58
          1129.35120	        -2.84343e+58
          1130.15750	         2.62429e+57
          1130.96380	         5.24189e+58
          1131.77010	         3.39259e+58
          1132.57640	         5.87890e+57
          1133.38270	         3.83954e+58
          1134.18900	         2.35849e+58
          1134.99530	         1.46150e+58
          1135.80160	         1.90384e+58
          1136.60790	         1.98600e+58
          1137.41420	         7.49128e+57
          1138.22050	         4.72942e+58
          1139.02680	         2.95205e+57
          1139.83310	         1.88783e+58
          1140.63940	         1.88822e+58
          1141.44570	        -2.52682e+58
          1142.25200	        -3.16892e+57
          1143.05830	         1.27253e+58
          1143.86460	         1.86456e+58
          1144.67090	         2.94411e+58
          1145.47720	         2.29258e+58
          1146.28350	         1.95395e+58
          1147.08980	         2.24602e+58
          1147.89610	         3.04895e+58
          1148.70240	         3.52353e+58
          1149.50870	         1.65168e+58
          1150.31500	         1.40905e+58
          1151.12130	         5.42442e+57
          1151.92760	        -7.28762e+57
          1152.73390	         5.31849e+57
          1153.54020	         1.20347e+58
          1154.34650	         2.95094e+58
          1155.15280	         3.19620e+58
          1155.95910	         3.37715e+56
          1156.76540	         1.07618e+58
          1157.57170	         5.80379e+57
          1158.37800	        -7.06991e+57
          1159.18430	        -5.18770e+57
          1159.99060	         4.92372e+57
          1160.79690	         7.65781e+57
          1161.60320	         1.17208e+58
          1162.40950	         1.93139e+58
          1163.21580	         2.49330e+58
          1164.02210	         1.64132e+58
          1164.82840	         6.20590e+57
          1165.63470	         2.24657e+58
          1166.44100	         3.04727e+58
          1167.24730	         2.12924e+58
          1168.05360	         7.21025e+57
          1168.85990	         8.14835e+57
          1169.66620	         1.13188e+58
          1170.47250	         1.22876e+58
          1171.27880	         9.59339e+57
          1172.08510	         9.00539e+57
          1172.89140	         7.13921e+57
          1173.69770	         1.89224e+57
          1174.50400	         1.01183e+58
          1175.31030	         1.69411e+58
          1176.11660	         1.83439e+58
          1176.92290	         1.36486e+58
          1177.72920	         1.11486e+58
          1178.53550	         6.40301e+57
          1179.34180	         5.79147e+57
          1180.14810	         9.38536e+57
          1180.95440	         1.35615e+58
          1181.76070	         7.46439e+57
          1182.56700	         1.04189e+58
          1183.37330	         6.92421e+57
          1184.17960	         5.27326e+57
          1184.98590	         6.67566e+57
          1185.79220	         5.12019e+57
          1186.59850	         9.50666e+57
          1187.40480	         8.77550e+57
          1188.21110	         1.51203e+58
          1189.01740	         1.64261e+58
          1189.82370	         1.80743e+58
          1190.63000	         1.77494e+58
          1191.43630	         1.28371e+58
          1192.24260	         1.09968e+58
          1193.04890	         1.07997e+58
          1193.85520	         1.35354e+58
          1194.66150	         9.70743e+57
          1195.46780	         1.59889e+58
          1196.27410	         1.47814e+58
          1197.08040	         9.31555e+57
          1197.88670	         1.05090e+58
          1198.69300	         1.30196e+58
          1199.49930	         1.89033e+58
          1200.30560	         1.24780e+58
          1201.11190	         8.35497e+57
          1201.91820	         1.21782e+58
          1202.72450	         1.01141e+58
          1203.53080	         1.25950e+58
          1204.33710	         1.03492e+58
          1205.14340	         8.15052e+57
          1205.94970	         7.52725e+57
          1206.75600	         7.27936e+57
          1207.56230	         1.17322e+58
          1208.36860	         1.36778e+58
          1209.17490	         4.11994e+57
          1209.98120	         6.91318e+57
          1210.78750	         9.23587e+57
          1211.59380	         1.17320e+58
          1212.40010	         1.77515e+58
          1213.20640	         1.81201e+58
          1214.01270	         1.81893e+58
          1214.81900	         2.45996e+58
          1215.62530	         4.49506e+58
          1216.43160	         8.95826e+58
          1217.23790	         1.50404e+59
          1218.04420	         1.17174e+59
          1218.85050	         8.58007e+58
          1219.65680	         5.24420e+58
          1220.46310	         2.98545e+58
          1221.26940	         2.12984e+58
          1222.07570	         1.30454e+58
          1222.88200	         1.34383e+58
          1223.68830	         9.58765e+57
          1224.49460	         7.10655e+57
          1225.30090	         7.71881e+57
          1226.10720	         7.78100e+57
          1226.91350	         6.43589e+57
          1227.71980	         1.08503e+58
          1228.52610	         1.18704e+58
          1229.33240	         9.59678e+57
          1230.13870	         8.93523e+57
          1230.94500	         8.56693e+57
          1231.75130	         5.17341e+57
          1232.55760	         1.16370e+58
          1233.36390	         9.96554e+57
          1234.17020	         7.22266e+57
          1234.97650	         7.02525e+57
          1235.78280	         9.12464e+57
          1236.58910	         8.59567e+57
          1237.39540	         9.99780e+57
          1238.20170	         1.00018e+58
          1239.00800	         1.00599e+58
          1239.81430	         9.45321e+57
          1240.62060	         7.01215e+57
          1241.42690	         9.24725e+57
          1242.23320	         1.21418e+58
          1243.03950	         9.08546e+57
          1243.84580	         8.57327e+57
          1244.65210	         1.00917e+58
          1245.45840	         7.98079e+57
          1246.26470	         6.91111e+57
          1247.07100	         6.79983e+57
          1247.87730	         5.29235e+57
          1248.68360	         4.84788e+57
          1249.48990	         8.63590e+57
          1250.29620	         1.10499e+58
          1251.10250	         1.17215e+58
          1251.90880	         6.80755e+57
          1252.71510	         5.92165e+57
          1253.52140	         8.04174e+57
          1254.32770	         1.04303e+58
          1255.13400	         1.15964e+58
          1255.94030	         1.26815e+58
          1256.74660	         1.14870e+58
          1257.55290	         1.18872e+58
          1258.35920	         9.55973e+57
          1259.16550	         6.55836e+57
          1259.97180	         5.87154e+57
          1260.77810	         9.36957e+57
          1261.58440	         1.21001e+58
          1262.39070	         9.49552e+57
          1263.19700	         8.13291e+57
          1264.00330	         8.26877e+57
          1264.80960	         1.06583e+58
          1265.61590	         1.25229e+58
          1266.42220	         1.25322e+58
          1267.22850	         1.05757e+58
          1268.03480	         1.29241e+58
          1268.84110	         1.52457e+58
          1269.64740	         1.27413e+58
          1270.45370	         1.38387e+58
          1271.26000	         1.26243e+58
          1272.06630	         1.24395e+58
          1272.87260	         1.22067e+58
          1273.67890	         1.15388e+58
          1274.48520	         1.25360e+58
          1275.29150	         1.26490e+58
          1276.09780	         1.02599e+58
          1276.90410	         1.18980e+58
          1277.71040	         1.03486e+58
          1278.51670	         1.20074e+58
          1279.32300	         1.36044e+58
          1280.12930	         1.26043e+58
          1280.93560	         9.74644e+57
          1281.74190	         1.10058e+58
          1282.54820	         1.35897e+58
          1283.35450	         1.14099e+58
          1284.16080	         1.17572e+58
          1284.96710	         1.59067e+58
          1285.77340	         1.11842e+58
          1286.57970	         9.59184e+57
          1287.38600	         1.52704e+58
          1288.19230	         1.68334e+58
          1288.99860	         1.33471e+58
          1289.80490	         1.15235e+58
          1290.61120	         1.36276e+58
          1291.41750	         1.49868e+58
          1292.22380	         1.25780e+58
          1293.03010	         1.25104e+58
          1293.83640	         1.25728e+58
          1294.64270	         9.69426e+57
          1295.44900	         5.80693e+57
          1296.25530	         6.69747e+57
          1297.06160	         8.49366e+57
          1297.86790	         9.19006e+57
          1298.67420	         9.94227e+57
          1299.48050	         8.63372e+57
          1300.28680	         9.74390e+57
          1301.09310	         7.05382e+57
          1301.89940	         3.74371e+57
          1302.70570	         4.34469e+57
          1303.51200	         7.43818e+57
          1304.31830	         9.51565e+57
          1305.12460	         1.08183e+58
          1305.93090	         1.10180e+58
          1306.73720	         1.20285e+58
          1307.54350	         1.34511e+58
          1308.34980	         1.39731e+58
          1309.15610	         1.39665e+58
          1309.96240	         1.53801e+58
          1310.76870	         1.42384e+58
          1311.57500	         1.22830e+58
          1312.38130	         1.05402e+58
          1313.18760	         1.25548e+58
          1313.99390	         1.55713e+58
          1314.80020	         1.56060e+58
          1315.60650	         1.41630e+58
          1316.41280	         1.22323e+58
          1317.21910	         1.13331e+58
          1318.02540	         1.08423e+58
          1318.83170	         1.22274e+58
          1319.63800	         1.22214e+58
          1320.44430	         1.17023e+58
          1321.25060	         1.20568e+58
          1322.05690	         1.27145e+58
          1322.86320	         1.21627e+58
          1323.66950	         1.04802e+58
          1324.47580	         8.97048e+57
          1325.28210	         9.13273e+57
          1326.08840	         1.12136e+58
          1326.89470	         1.21982e+58
          1327.70100	         9.27140e+57
          1328.50730	         8.04049e+57
          1329.31360	         9.39787e+57
          1330.11990	         7.73854e+57
          1330.92620	         6.98855e+57
          1331.73250	         9.28874e+57
          1332.53880	         8.87852e+57
          1333.34510	         8.73314e+57
          1334.15140	         7.82793e+57
          1334.95770	         7.68999e+57
          1335.76400	         1.09031e+58
          1336.57030	         1.12032e+58
          1337.37660	         1.11901e+58
          1338.18290	         1.17001e+58
          1338.98920	         1.14297e+58
          1339.79550	         1.15864e+58
          1340.60180	         1.17608e+58
          1341.40810	         1.22641e+58
          1342.21440	         1.10054e+58
          1343.02070	         1.22612e+58
          1343.82700	         1.21590e+58
          1344.63330	         1.18504e+58
          1345.43960	         1.24737e+58
          1346.24590	         1.03940e+58
          1347.05220	         1.13373e+58
          1347.85850	         1.14937e+58
          1348.66480	         1.22334e+58
          1349.47110	         1.22178e+58
          1350.27740	         1.12734e+58
          1351.08370	         1.15302e+58
          1351.89000	         1.24299e+58
          1352.69630	         1.11439e+58
          1353.50260	         1.11898e+58
          1354.30890	         1.23718e+58
          1355.11520	         1.11877e+58
          1355.92150	         1.05096e+58
          1356.72780	         9.34995e+57
          1357.53410	         9.98070e+57
          1358.34040	         1.04705e+58
          1359.14670	         1.12421e+58
          1359.95300	         1.16865e+58
          1360.75930	         1.12031e+58
          1361.56560	         1.13446e+58
          1362.37190	         9.72157e+57
          1363.17820	         8.41955e+57
          1363.98450	         1.20652e+58
          1364.79080	         1.27537e+58
          1365.59710	         1.16846e+58
          1366.40340	         1.08947e+58
          1367.20970	         1.04770e+58
          1368.01600	         8.92708e+57
          1368.82230	         8.37230e+57
          1369.62860	         9.13357e+57
          1370.43490	         8.08586e+57
          1371.24120	         1.01349e+58
          1372.04750	         9.70760e+57
          1372.85380	         1.06097e+58
          1373.66010	         1.03242e+58
          1374.46640	         1.08457e+58
          1375.27270	         1.11748e+58
          1376.07900	         8.71477e+57
          1376.88530	         8.45668e+57
          1377.69160	         8.55148e+57
          1378.49790	         7.20006e+57
          1379.30420	         7.39243e+57
          1380.11050	         8.91254e+57
          1380.91680	         7.65419e+57
          1381.72310	         7.35698e+57
          1382.52940	         8.56349e+57
          1383.33570	         7.62801e+57
          1384.14200	         8.75213e+57
          1384.94830	         9.25462e+57
          1385.75460	         1.04210e+58
          1386.56090	         1.12725e+58
          1387.36720	         1.11797e+58
          1388.17350	         1.18719e+58
          1388.97980	         1.15844e+58
          1389.78610	         1.01534e+58
          1390.59240	         7.87550e+57
          1391.39870	         8.32890e+57
          1392.20500	         1.01895e+58
          1393.01130	         7.96732e+57
          1393.81760	         7.44378e+57
          1394.62390	         8.74251e+57
          1395.43020	         6.78528e+57
          1396.23650	         4.84395e+57
          1397.04280	         5.98618e+57
          1397.84910	         8.66568e+57
          1398.65540	         8.39347e+57
          1399.46170	         8.47737e+57
          1400.26800	         7.95969e+57
          1401.07430	         8.05467e+57
          1401.88060	         8.55527e+57
          1402.68690	         9.07327e+57
          1403.49320	         9.56061e+57
          1404.29950	         8.81144e+57
          1405.10580	         1.02201e+58
          1405.91210	         1.11228e+58
          1406.71840	         1.04168e+58
          1407.52470	         9.63726e+57
          1408.33100	         9.99669e+57
          1409.13730	         1.15935e+58
          1409.94360	         1.21130e+58
          1410.74990	         1.04483e+58
          1411.55620	         9.11746e+57
          1412.36250	         9.67774e+57
          1413.16880	         9.50171e+57
          1413.97510	         8.31040e+57
          1414.78140	         9.08675e+57
          1415.58770	         9.88318e+57
          1416.39400	         1.06728e+58
          1417.20030	         1.03578e+58
          1418.00660	         9.15713e+57
          1418.81290	         9.37232e+57
          1419.61920	         1.08860e+58
          1420.42550	         1.17325e+58
          1421.23180	         1.17287e+58
          1422.03810	         1.08666e+58
          1422.84440	         1.09225e+58
          1423.65070	         1.20080e+58
          1424.45700	         1.00569e+58
          1425.26330	         8.82417e+57
          1426.06960	         9.56294e+57
          1426.87590	         1.05773e+58
          1427.68220	         1.03107e+58
          1428.48850	         1.07346e+58
          1429.29480	         1.01585e+58
          1430.10110	         9.28515e+57
          1430.90740	         8.70448e+57
          1431.71370	         8.48270e+57
          1432.52000	         8.43813e+57
          1433.32630	         8.25081e+57
          1434.13260	         8.04665e+57
          1434.93890	         7.94887e+57
          1435.74520	         9.21078e+57
          1436.55150	         9.88778e+57
          1437.35780	         9.34469e+57
          1438.16410	         9.22562e+57
          1438.97040	         8.84130e+57
          1439.77670	         8.27668e+57
          1440.58300	         8.08524e+57
          1441.38930	         8.19885e+57
          1442.19560	         8.88160e+57
          1443.00190	         8.93910e+57
          1443.80820	         1.01237e+58
          1444.61450	         9.75124e+57
          1445.42080	         8.59925e+57
          1446.22710	         9.77708e+57
          1447.03340	         9.91628e+57
          1447.83970	         1.03990e+58
          1448.64600	         1.06444e+58
          1449.45230	         9.45156e+57
          1450.25860	         9.95297e+57
          1451.06490	         7.85800e+57
          1451.87120	         7.10442e+57
          1452.67750	         7.77435e+57
          1453.48380	         9.10314e+57
          1454.29010	         7.79217e+57
          1455.09640	         6.71585e+57
          1455.90270	         7.52269e+57
          1456.70900	         7.66070e+57
          1457.51530	         8.65762e+57
          1458.32160	         1.18084e+58
          1459.12790	         1.16271e+58
          1459.93420	         1.00235e+58
          1460.74050	         8.20778e+57
          1461.54680	         7.62907e+57
          1462.35310	         8.02682e+57
          1463.15940	         9.41977e+57
          1463.96570	         1.02628e+58
          1464.77200	         1.01355e+58
          1465.57830	         9.99221e+57
          1466.38460	         9.14784e+57
          1467.19090	         8.76999e+57
          1467.99720	         9.29953e+57
          1468.80350	         9.48440e+57
          1469.60980	         9.92038e+57
          1470.41610	         1.00565e+58
          1471.22240	         8.53514e+57
          1472.02870	         8.53350e+57
          1472.83500	         9.22285e+57
          1473.64130	         9.36197e+57
          1474.44760	         9.90094e+57
          1475.25390	         9.12073e+57
          1476.06020	         8.14879e+57
          1476.86650	         8.12972e+57
          1477.67280	         8.16312e+57
          1478.47910	         7.59787e+57
          1479.28540	         6.59422e+57
          1480.09170	         8.47196e+57
          1480.89800	         9.33277e+57
          1481.70430	         8.38996e+57
          1482.51060	         8.26696e+57
          1483.31690	         7.89190e+57
          1484.12320	         7.74130e+57
          1484.92950	         6.96354e+57
          1485.73580	         7.82213e+57
          1486.54210	         8.57006e+57
          1487.34840	         7.27450e+57
          1488.15470	         7.12596e+57
          1488.96100	         8.07550e+57
          1489.76730	         8.95105e+57
