#sample_436_stacked_spectrum_rest_UV-bands_median_H-alpha_noDC.txt
#median Lum: 1.68264e+42
#Rest-frame wavelength (A) | Luminosity (erg/s/A)
#
          1110.00000	         0.00000e+00
          1110.80630	         1.00659e+59
          1111.61260	         1.30668e+59
          1112.41890	         6.42866e+58
          1113.22520	        -2.18222e+59
          1114.03150	        -9.05943e+58
          1114.83780	         3.17663e+58
          1115.64410	         4.97129e+58
          1116.45040	         5.95063e+58
          1117.25670	         5.77471e+58
          1118.06300	         2.18553e+59
          1118.86930	         5.48380e+58
          1119.67560	         9.39615e+58
          1120.48190	        -6.01609e+58
          1121.28820	        -9.67042e+58
          1122.09450	         6.98425e+58
          1122.90080	         5.96321e+58
          1123.70710	         3.72768e+58
          1124.51340	         7.10673e+58
          1125.31970	         5.75510e+57
          1126.12600	         3.33637e+58
          1126.93230	        -4.07048e+58
          1127.73860	        -8.03265e+58
          1128.54490	         7.41878e+57
          1129.35120	         1.80532e+58
          1130.15750	        -2.58552e+58
          1130.96380	        -1.40635e+58
          1131.77010	         6.51150e+58
          1132.57640	         4.83024e+58
          1133.38270	         3.15657e+58
          1134.18900	         3.28094e+58
          1134.99530	        -1.09945e+58
          1135.80160	         1.71248e+58
          1136.60790	         5.51950e+57
          1137.41420	         6.85979e+57
          1138.22050	         2.65418e+58
          1139.02680	         2.31358e+58
          1139.83310	         1.25405e+58
          1140.63940	         1.22224e+58
          1141.44570	        -5.92060e+57
          1142.25200	        -9.19207e+57
          1143.05830	         3.64927e+58
          1143.86460	         4.57696e+58
          1144.67090	         3.63044e+58
          1145.47720	         6.72404e+57
          1146.28350	         6.75150e+57
          1147.08980	         9.60793e+57
          1147.89610	         2.31932e+58
          1148.70240	         3.09748e+58
          1149.50870	         3.26950e+58
          1150.31500	         2.54855e+58
          1151.12130	         1.77373e+58
          1151.92760	         4.23242e+57
          1152.73390	         9.73963e+57
          1153.54020	         5.19885e+56
          1154.34650	         2.16352e+58
          1155.15280	         2.58026e+58
          1155.95910	         9.67361e+57
          1156.76540	         1.05935e+58
          1157.57170	         9.53752e+57
          1158.37800	        -4.48700e+57
          1159.18430	        -5.53713e+57
          1159.99060	         1.04297e+58
          1160.79690	         8.11205e+57
          1161.60320	         1.07162e+58
          1162.40950	         1.41370e+58
          1163.21580	         1.29464e+58
          1164.02210	         7.59114e+57
          1164.82840	         1.29115e+58
          1165.63470	         2.11061e+58
          1166.44100	         2.46277e+58
          1167.24730	         1.93818e+58
          1168.05360	         9.66652e+57
          1168.85990	         4.01748e+57
          1169.66620	         1.05569e+58
          1170.47250	         1.14418e+58
          1171.27880	         2.37128e+57
          1172.08510	         6.98709e+57
          1172.89140	         8.86489e+57
          1173.69770	         1.35171e+58
          1174.50400	         1.20454e+58
          1175.31030	         1.63465e+58
          1176.11660	         2.40010e+58
          1176.92290	         1.84676e+58
          1177.72920	         1.50337e+58
          1178.53550	         1.17713e+58
          1179.34180	         9.84491e+57
          1180.14810	         5.91800e+57
          1180.95440	         8.69532e+57
          1181.76070	         8.57543e+57
          1182.56700	         7.34971e+57
          1183.37330	         4.58636e+57
          1184.17960	         1.19739e+58
          1184.98590	         1.26807e+58
          1185.79220	         1.05667e+58
          1186.59850	         8.73036e+57
          1187.40480	         1.08642e+58
          1188.21110	         1.31471e+58
          1189.01740	         1.16789e+58
          1189.82370	         1.25372e+58
          1190.63000	         9.09100e+57
          1191.43630	         4.92929e+57
          1192.24260	         5.16957e+57
          1193.04890	         1.41765e+58
          1193.85520	         1.22209e+58
          1194.66150	         5.83383e+57
          1195.46780	         1.08363e+58
          1196.27410	         1.25490e+58
          1197.08040	         8.93428e+57
          1197.88670	         1.38726e+58
          1198.69300	         1.47931e+58
          1199.49930	         1.80563e+58
          1200.30560	         1.31756e+58
          1201.11190	         6.79790e+57
          1201.91820	         7.05656e+57
          1202.72450	         4.93019e+57
          1203.53080	         1.00107e+58
          1204.33710	         9.81845e+57
          1205.14340	         1.20353e+58
          1205.94970	         7.81203e+57
          1206.75600	         5.24108e+57
          1207.56230	         3.67603e+57
          1208.36860	         7.49004e+57
          1209.17490	         3.99402e+57
          1209.98120	         7.89972e+57
          1210.78750	         8.42645e+57
          1211.59380	         1.39628e+58
          1212.40010	         2.16924e+58
          1213.20640	         1.85089e+58
          1214.01270	         1.67907e+58
          1214.81900	         2.65103e+58
          1215.62530	         4.70169e+58
          1216.43160	         8.69781e+58
          1217.23790	         1.52819e+59
          1218.04420	         1.16724e+59
          1218.85050	         8.39078e+58
          1219.65680	         5.22789e+58
          1220.46310	         3.30436e+58
          1221.26940	         2.29356e+58
          1222.07570	         1.38859e+58
          1222.88200	         1.28921e+58
          1223.68830	         1.22702e+58
          1224.49460	         7.75604e+57
          1225.30090	         7.91295e+57
          1226.10720	         7.19737e+57
          1226.91350	         8.41460e+57
          1227.71980	         9.79406e+57
          1228.52610	         1.04494e+58
          1229.33240	         8.71090e+57
          1230.13870	         8.65557e+57
          1230.94500	         8.85654e+57
          1231.75130	         5.67290e+57
          1232.55760	         7.92239e+57
          1233.36390	         7.35200e+57
          1234.17020	         5.43117e+57
          1234.97650	         5.11539e+57
          1235.78280	         7.78522e+57
          1236.58910	         1.00693e+58
          1237.39540	         9.97682e+57
          1238.20170	         1.01533e+58
          1239.00800	         1.05612e+58
          1239.81430	         1.51016e+58
          1240.62060	         1.17926e+58
          1241.42690	         8.16640e+57
          1242.23320	         1.01980e+58
          1243.03950	         6.80080e+57
          1243.84580	         7.89599e+57
          1244.65210	         8.60710e+57
          1245.45840	         1.13744e+58
          1246.26470	         1.15502e+58
          1247.07100	         8.76028e+57
          1247.87730	         6.75416e+57
          1248.68360	         3.87564e+57
          1249.48990	         8.54667e+57
          1250.29620	         1.04951e+58
          1251.10250	         5.91784e+57
          1251.90880	         1.15215e+57
          1252.71510	         3.51684e+57
          1253.52140	         8.46296e+57
          1254.32770	         9.61437e+57
          1255.13400	         1.29250e+58
          1255.94030	         1.23764e+58
          1256.74660	         9.48046e+57
          1257.55290	         9.06264e+57
          1258.35920	         6.76643e+57
          1259.16550	         4.90378e+57
          1259.97180	         5.10397e+57
          1260.77810	         6.49138e+57
          1261.58440	         1.01094e+58
          1262.39070	         7.68026e+57
          1263.19700	         8.31122e+57
          1264.00330	         1.01143e+58
          1264.80960	         1.19716e+58
          1265.61590	         1.32243e+58
          1266.42220	         1.15255e+58
          1267.22850	         1.12270e+58
          1268.03480	         1.39563e+58
          1268.84110	         1.23666e+58
          1269.64740	         1.10987e+58
          1270.45370	         1.24680e+58
          1271.26000	         1.18925e+58
          1272.06630	         1.29498e+58
          1272.87260	         1.24005e+58
          1273.67890	         1.16151e+58
          1274.48520	         1.23562e+58
          1275.29150	         1.34193e+58
          1276.09780	         1.16819e+58
          1276.90410	         1.32111e+58
          1277.71040	         1.28216e+58
          1278.51670	         1.22744e+58
          1279.32300	         1.29347e+58
          1280.12930	         1.19025e+58
          1280.93560	         1.23304e+58
          1281.74190	         1.29931e+58
          1282.54820	         1.29921e+58
          1283.35450	         9.72381e+57
          1284.16080	         8.81456e+57
          1284.96710	         1.19600e+58
          1285.77340	         1.20775e+58
          1286.57970	         1.23216e+58
          1287.38600	         1.41394e+58
          1288.19230	         1.72261e+58
          1288.99860	         1.63265e+58
          1289.80490	         1.28676e+58
          1290.61120	         1.43693e+58
          1291.41750	         1.45599e+58
          1292.22380	         1.12899e+58
          1293.03010	         1.25096e+58
          1293.83640	         1.26364e+58
          1294.64270	         1.14977e+58
          1295.44900	         8.76204e+57
          1296.25530	         7.57374e+57
          1297.06160	         9.21678e+57
          1297.86790	         1.01338e+58
          1298.67420	         8.60308e+57
          1299.48050	         1.00256e+58
          1300.28680	         1.06709e+58
          1301.09310	         6.58253e+57
          1301.89940	         4.59049e+57
          1302.70570	         7.12943e+57
          1303.51200	         7.86361e+57
          1304.31830	         9.57941e+57
          1305.12460	         1.08444e+58
          1305.93090	         1.06514e+58
          1306.73720	         1.14170e+58
          1307.54350	         1.30687e+58
          1308.34980	         1.46666e+58
          1309.15610	         1.50198e+58
          1309.96240	         1.71086e+58
          1310.76870	         1.68627e+58
          1311.57500	         1.19728e+58
          1312.38130	         1.13689e+58
          1313.18760	         1.30307e+58
          1313.99390	         1.54681e+58
          1314.80020	         1.56988e+58
          1315.60650	         1.32090e+58
          1316.41280	         1.25933e+58
          1317.21910	         1.16012e+58
          1318.02540	         1.16179e+58
          1318.83170	         1.20497e+58
          1319.63800	         1.16528e+58
          1320.44430	         1.14367e+58
          1321.25060	         1.21723e+58
          1322.05690	         1.37262e+58
          1322.86320	         1.44870e+58
          1323.66950	         1.28897e+58
          1324.47580	         9.20323e+57
          1325.28210	         9.49196e+57
          1326.08840	         1.09828e+58
          1326.89470	         1.06895e+58
          1327.70100	         9.07215e+57
          1328.50730	         6.89368e+57
          1329.31360	         8.31625e+57
          1330.11990	         8.68340e+57
          1330.92620	         8.33017e+57
          1331.73250	         1.06780e+58
          1332.53880	         9.23752e+57
          1333.34510	         8.53947e+57
          1334.15140	         9.62155e+57
          1334.95770	         9.88357e+57
          1335.76400	         1.20017e+58
          1336.57030	         1.16441e+58
          1337.37660	         1.01383e+58
          1338.18290	         1.15647e+58
          1338.98920	         1.38507e+58
          1339.79550	         1.27641e+58
          1340.60180	         1.28584e+58
          1341.40810	         1.33618e+58
          1342.21440	         1.10930e+58
          1343.02070	         1.19436e+58
          1343.82700	         1.35452e+58
          1344.63330	         1.29524e+58
          1345.43960	         1.31333e+58
          1346.24590	         1.06928e+58
          1347.05220	         1.09711e+58
          1347.85850	         1.09498e+58
          1348.66480	         1.12770e+58
          1349.47110	         1.10907e+58
          1350.27740	         9.46326e+57
          1351.08370	         1.00216e+58
          1351.89000	         1.04418e+58
          1352.69630	         1.10924e+58
          1353.50260	         1.08087e+58
          1354.30890	         1.07762e+58
          1355.11520	         1.12516e+58
          1355.92150	         1.04191e+58
          1356.72780	         9.91771e+57
          1357.53410	         9.48065e+57
          1358.34040	         1.13458e+58
          1359.14670	         1.07180e+58
          1359.95300	         1.07360e+58
          1360.75930	         1.26006e+58
          1361.56560	         1.17831e+58
          1362.37190	         1.23724e+58
          1363.17820	         1.13729e+58
          1363.98450	         1.07782e+58
          1364.79080	         1.27256e+58
          1365.59710	         1.24661e+58
          1366.40340	         1.07654e+58
          1367.20970	         1.11111e+58
          1368.01600	         1.05757e+58
          1368.82230	         1.01074e+58
          1369.62860	         1.04923e+58
          1370.43490	         1.08822e+58
          1371.24120	         1.09503e+58
          1372.04750	         9.73389e+57
          1372.85380	         1.01571e+58
          1373.66010	         1.13661e+58
          1374.46640	         1.07864e+58
          1375.27270	         1.01646e+58
          1376.07900	         8.53814e+57
          1376.88530	         7.50064e+57
          1377.69160	         7.70808e+57
          1378.49790	         7.23739e+57
          1379.30420	         8.31747e+57
          1380.11050	         8.98574e+57
          1380.91680	         8.07722e+57
          1381.72310	         8.42501e+57
          1382.52940	         9.70623e+57
          1383.33570	         8.32616e+57
          1384.14200	         9.41862e+57
          1384.94830	         1.16912e+58
          1385.75460	         1.09323e+58
          1386.56090	         1.12839e+58
          1387.36720	         1.11272e+58
          1388.17350	         1.26916e+58
          1388.97980	         1.20414e+58
          1389.78610	         8.95599e+57
          1390.59240	         7.95324e+57
          1391.39870	         9.51573e+57
          1392.20500	         9.16422e+57
          1393.01130	         7.79341e+57
          1393.81760	         7.06882e+57
          1394.62390	         6.91990e+57
          1395.43020	         7.13165e+57
          1396.23650	         6.68866e+57
          1397.04280	         6.84867e+57
          1397.84910	         8.23097e+57
          1398.65540	         9.84044e+57
          1399.46170	         9.84678e+57
          1400.26800	         8.21173e+57
          1401.07430	         7.30537e+57
          1401.88060	         6.62889e+57
          1402.68690	         8.40123e+57
          1403.49320	         9.24600e+57
          1404.29950	         8.76276e+57
          1405.10580	         1.06199e+58
          1405.91210	         1.22065e+58
          1406.71840	         1.07584e+58
          1407.52470	         9.71927e+57
          1408.33100	         9.72112e+57
          1409.13730	         1.12137e+58
          1409.94360	         1.20764e+58
          1410.74990	         1.03892e+58
          1411.55620	         8.75039e+57
          1412.36250	         9.66251e+57
          1413.16880	         8.87478e+57
          1413.97510	         8.17698e+57
          1414.78140	         9.57653e+57
          1415.58770	         1.13018e+58
          1416.39400	         1.32196e+58
          1417.20030	         1.30964e+58
          1418.00660	         1.11367e+58
          1418.81290	         1.04557e+58
          1419.61920	         9.76424e+57
          1420.42550	         1.05500e+58
          1421.23180	         1.09125e+58
          1422.03810	         1.13747e+58
          1422.84440	         1.20795e+58
          1423.65070	         1.36222e+58
          1424.45700	         1.29182e+58
          1425.26330	         9.05290e+57
          1426.06960	         9.36979e+57
          1426.87590	         1.11229e+58
          1427.68220	         1.13586e+58
          1428.48850	         1.12323e+58
          1429.29480	         9.70299e+57
          1430.10110	         8.58998e+57
          1430.90740	         8.16630e+57
          1431.71370	         7.88595e+57
          1432.52000	         8.43051e+57
          1433.32630	         7.62051e+57
          1434.13260	         7.96758e+57
          1434.93890	         7.76406e+57
          1435.74520	         8.01374e+57
          1436.55150	         9.41525e+57
          1437.35780	         9.47125e+57
          1438.16410	         9.19534e+57
          1438.97040	         8.80415e+57
          1439.77670	         7.82167e+57
          1440.58300	         8.82315e+57
          1441.38930	         9.29256e+57
          1442.19560	         9.75753e+57
          1443.00190	         1.12066e+58
          1443.80820	         1.19317e+58
          1444.61450	         1.05040e+58
          1445.42080	         8.50991e+57
          1446.22710	         8.59901e+57
          1447.03340	         8.78297e+57
          1447.83970	         1.03714e+58
          1448.64600	         1.05474e+58
          1449.45230	         9.83652e+57
          1450.25860	         9.82711e+57
          1451.06490	         8.95155e+57
          1451.87120	         7.62902e+57
          1452.67750	         7.19988e+57
          1453.48380	         7.63754e+57
          1454.29010	         7.66952e+57
          1455.09640	         7.23596e+57
          1455.90270	         8.49566e+57
          1456.70900	         9.11271e+57
          1457.51530	         9.31051e+57
          1458.32160	         1.16176e+58
          1459.12790	         1.27486e+58
          1459.93420	         1.07862e+58
          1460.74050	         7.18764e+57
          1461.54680	         7.43542e+57
          1462.35310	         8.69194e+57
          1463.15940	         9.82651e+57
          1463.96570	         1.13992e+58
          1464.77200	         1.14652e+58
          1465.57830	         1.08047e+58
          1466.38460	         8.73246e+57
          1467.19090	         7.56093e+57
          1467.99720	         8.11103e+57
          1468.80350	         8.46252e+57
          1469.60980	         9.63491e+57
          1470.41610	         1.09175e+58
          1471.22240	         9.86876e+57
          1472.02870	         9.51107e+57
          1472.83500	         9.79430e+57
          1473.64130	         1.05765e+58
          1474.44760	         1.01132e+58
          1475.25390	         9.11351e+57
          1476.06020	         9.25374e+57
          1476.86650	         9.04266e+57
          1477.67280	         8.62599e+57
          1478.47910	         6.93355e+57
          1479.28540	         7.16051e+57
          1480.09170	         9.01992e+57
          1480.89800	         9.16018e+57
          1481.70430	         9.23699e+57
          1482.51060	         8.95478e+57
          1483.31690	         8.52348e+57
          1484.12320	         8.34408e+57
          1484.92950	         8.11932e+57
          1485.73580	         9.09107e+57
          1486.54210	         9.92099e+57
          1487.34840	         9.67182e+57
          1488.15470	         8.65155e+57
          1488.96100	         8.49572e+57
          1489.76730	         9.40418e+57
