#sample_15_stacked_spectrum_rest_UV-bands_median_H-alpha_noDC.txt
#median Lum: 1.69300e+42
#Rest-frame wavelength (A) | Luminosity (erg/s/A)
#
          1110.00000	         0.00000e+00
          1110.80630	        -5.72909e+59
          1111.61260	         2.07082e+59
          1112.41890	        -1.10784e+58
          1113.22520	        -1.94612e+58
          1114.03150	        -1.68215e+59
          1114.83780	         1.72565e+59
          1115.64410	         7.23640e+58
          1116.45040	        -1.37667e+59
          1117.25670	         1.94952e+58
          1118.06300	         1.52128e+59
          1118.86930	        -7.62937e+57
          1119.67560	         4.38721e+58
          1120.48190	        -7.25191e+58
          1121.28820	        -1.23008e+59
          1122.09450	        -3.13671e+58
          1122.90080	        -8.85367e+58
          1123.70710	         2.09709e+58
          1124.51340	         8.13204e+58
          1125.31970	        -9.61259e+57
          1126.12600	        -1.45314e+58
          1126.93230	        -2.13511e+58
          1127.73860	        -4.27715e+58
          1128.54490	         2.72628e+58
          1129.35120	        -3.38883e+58
          1130.15750	        -1.13928e+58
          1130.96380	         1.50978e+58
          1131.77010	         4.29949e+58
          1132.57640	         3.68302e+57
          1133.38270	         1.42097e+58
          1134.18900	         2.19008e+58
          1134.99530	         1.89980e+58
          1135.80160	         2.45615e+58
          1136.60790	         1.69277e+58
          1137.41420	         5.21709e+56
          1138.22050	         5.19769e+58
          1139.02680	         3.37906e+58
          1139.83310	         1.24700e+58
          1140.63940	         1.27665e+58
          1141.44570	        -1.80593e+58
          1142.25200	         9.65782e+57
          1143.05830	         1.97826e+58
          1143.86460	         8.57325e+57
          1144.67090	         2.26015e+58
          1145.47720	         1.26706e+58
          1146.28350	        -2.06731e+57
          1147.08980	         6.19116e+57
          1147.89610	         1.74773e+58
          1148.70240	         1.71399e+58
          1149.50870	         2.02724e+58
          1150.31500	         1.66535e+58
          1151.12130	         1.65290e+58
          1151.92760	         1.32052e+58
          1152.73390	         2.24134e+57
          1153.54020	        -1.09056e+57
          1154.34650	         1.86391e+58
          1155.15280	         1.67439e+58
          1155.95910	         1.38565e+58
          1156.76540	         5.16108e+57
          1157.57170	        -1.16799e+57
          1158.37800	        -3.40602e+57
          1159.18430	        -5.15379e+57
          1159.99060	         6.89788e+57
          1160.79690	         7.51288e+57
          1161.60320	         1.86471e+58
          1162.40950	         1.10021e+58
          1163.21580	         1.15662e+58
          1164.02210	         1.08564e+58
          1164.82840	         9.14159e+57
          1165.63470	         2.19299e+58
          1166.44100	         3.22327e+58
          1167.24730	         2.21793e+58
          1168.05360	         4.88782e+57
          1168.85990	         4.58213e+57
          1169.66620	         1.06462e+58
          1170.47250	         1.70397e+58
          1171.27880	         6.75101e+57
          1172.08510	         9.78178e+57
          1172.89140	         1.40912e+58
          1173.69770	         1.00534e+57
          1174.50400	         9.83242e+57
          1175.31030	         1.25539e+58
          1176.11660	         1.59979e+58
          1176.92290	         1.65374e+58
          1177.72920	         7.65889e+57
          1178.53550	         6.74506e+57
          1179.34180	         8.37938e+57
          1180.14810	         1.29586e+58
          1180.95440	         1.17515e+58
          1181.76070	         7.66784e+57
          1182.56700	         9.36426e+57
          1183.37330	         6.47372e+57
          1184.17960	         1.02787e+58
          1184.98590	         1.24881e+58
          1185.79220	         1.11114e+58
          1186.59850	         1.54612e+58
          1187.40480	         1.25183e+58
          1188.21110	         1.68732e+58
          1189.01740	         1.11021e+58
          1189.82370	         1.03573e+58
          1190.63000	         1.24370e+58
          1191.43630	         1.29527e+58
          1192.24260	         1.13413e+58
          1193.04890	         1.36429e+58
          1193.85520	         1.69039e+58
          1194.66150	         5.09221e+57
          1195.46780	         7.32657e+57
          1196.27410	         1.45228e+58
          1197.08040	         8.16510e+57
          1197.88670	         1.45075e+58
          1198.69300	         1.69495e+58
          1199.49930	         1.49360e+58
          1200.30560	         1.19111e+58
          1201.11190	         1.28861e+58
          1201.91820	         1.30391e+58
          1202.72450	         1.21498e+58
          1203.53080	         1.47781e+58
          1204.33710	         6.37479e+57
          1205.14340	         1.02730e+58
          1205.94970	         9.45799e+57
          1206.75600	         9.88057e+57
          1207.56230	         5.69170e+57
          1208.36860	         7.56135e+57
          1209.17490	         4.40774e+57
          1209.98120	         6.24444e+57
          1210.78750	         6.75343e+57
          1211.59380	         1.21708e+58
          1212.40010	         1.82331e+58
          1213.20640	         2.01416e+58
          1214.01270	         2.35854e+58
          1214.81900	         2.65029e+58
          1215.62530	         4.46993e+58
          1216.43160	         9.77312e+58
          1217.23790	         1.51643e+59
          1218.04420	         1.12544e+59
          1218.85050	         8.58967e+58
          1219.65680	         5.21423e+58
          1220.46310	         3.22674e+58
          1221.26940	         2.41949e+58
          1222.07570	         1.65846e+58
          1222.88200	         1.35074e+58
          1223.68830	         9.45083e+57
          1224.49460	         1.01628e+58
          1225.30090	         7.98346e+57
          1226.10720	         7.23579e+57
          1226.91350	         5.62583e+57
          1227.71980	         5.47220e+57
          1228.52610	         1.13052e+58
          1229.33240	         9.22887e+57
          1230.13870	         8.05216e+57
          1230.94500	         6.71622e+57
          1231.75130	         6.08717e+57
          1232.55760	         7.49346e+57
          1233.36390	         8.63827e+57
          1234.17020	         9.96968e+57
          1234.97650	         8.63655e+57
          1235.78280	         6.27409e+57
          1236.58910	         4.83826e+57
          1237.39540	         6.89676e+57
          1238.20170	         7.64068e+57
          1239.00800	         1.02223e+58
          1239.81430	         1.29786e+58
          1240.62060	         9.57916e+57
          1241.42690	         8.33323e+57
          1242.23320	         1.01616e+58
          1243.03950	         7.50009e+57
          1243.84580	         7.89493e+57
          1244.65210	         1.08673e+58
          1245.45840	         9.84594e+57
          1246.26470	         8.94413e+57
          1247.07100	         6.68118e+57
          1247.87730	         5.95287e+57
          1248.68360	         7.02243e+57
          1249.48990	         9.55457e+57
          1250.29620	         9.31452e+57
          1251.10250	         6.71972e+57
          1251.90880	         4.86178e+57
          1252.71510	         7.01718e+57
          1253.52140	         6.06252e+57
          1254.32770	         8.10903e+57
          1255.13400	         1.25366e+58
          1255.94030	         1.20121e+58
          1256.74660	         1.02639e+58
          1257.55290	         9.85865e+57
          1258.35920	         6.16071e+57
          1259.16550	         4.38915e+57
          1259.97180	         5.00197e+57
          1260.77810	         7.75271e+57
          1261.58440	         1.19398e+58
          1262.39070	         1.21216e+58
          1263.19700	         1.10065e+58
          1264.00330	         9.98256e+57
          1264.80960	         1.10603e+58
          1265.61590	         1.23635e+58
          1266.42220	         1.21981e+58
          1267.22850	         1.11111e+58
          1268.03480	         1.33327e+58
          1268.84110	         1.34485e+58
          1269.64740	         1.31782e+58
          1270.45370	         1.26613e+58
          1271.26000	         1.27697e+58
          1272.06630	         1.59339e+58
          1272.87260	         1.40711e+58
          1273.67890	         1.01626e+58
          1274.48520	         1.10155e+58
          1275.29150	         1.23577e+58
          1276.09780	         1.07819e+58
          1276.90410	         1.44608e+58
          1277.71040	         1.35516e+58
          1278.51670	         1.25563e+58
          1279.32300	         1.36965e+58
          1280.12930	         1.26156e+58
          1280.93560	         1.08870e+58
          1281.74190	         1.16227e+58
          1282.54820	         1.27872e+58
          1283.35450	         9.60400e+57
          1284.16080	         1.04917e+58
          1284.96710	         1.38810e+58
          1285.77340	         1.09267e+58
          1286.57970	         1.09748e+58
          1287.38600	         1.42047e+58
          1288.19230	         1.52155e+58
          1288.99860	         1.38641e+58
          1289.80490	         1.12992e+58
          1290.61120	         1.22257e+58
          1291.41750	         1.16261e+58
          1292.22380	         1.13502e+58
          1293.03010	         1.14642e+58
          1293.83640	         9.93172e+57
          1294.64270	         8.55525e+57
          1295.44900	         6.43317e+57
          1296.25530	         6.43300e+57
          1297.06160	         8.70695e+57
          1297.86790	         9.16711e+57
          1298.67420	         8.74638e+57
          1299.48050	         1.03044e+58
          1300.28680	         1.07380e+58
          1301.09310	         8.67998e+57
          1301.89940	         4.86136e+57
          1302.70570	         6.91145e+57
          1303.51200	         7.51725e+57
          1304.31830	         1.00525e+58
          1305.12460	         1.12153e+58
          1305.93090	         1.04797e+58
          1306.73720	         1.23325e+58
          1307.54350	         1.34498e+58
          1308.34980	         1.32302e+58
          1309.15610	         1.40160e+58
          1309.96240	         1.41628e+58
          1310.76870	         1.15709e+58
          1311.57500	         1.17215e+58
          1312.38130	         1.42888e+58
          1313.18760	         1.51496e+58
          1313.99390	         1.46117e+58
          1314.80020	         1.45201e+58
          1315.60650	         1.47206e+58
          1316.41280	         1.38623e+58
          1317.21910	         1.02121e+58
          1318.02540	         1.07268e+58
          1318.83170	         1.22927e+58
          1319.63800	         1.16949e+58
          1320.44430	         1.08002e+58
          1321.25060	         1.13383e+58
          1322.05690	         1.20459e+58
          1322.86320	         1.18169e+58
          1323.66950	         1.01733e+58
          1324.47580	         8.15201e+57
          1325.28210	         9.57489e+57
          1326.08840	         1.22965e+58
          1326.89470	         1.39772e+58
          1327.70100	         1.15636e+58
          1328.50730	         8.01621e+57
          1329.31360	         8.83144e+57
          1330.11990	         9.40400e+57
          1330.92620	         8.63277e+57
          1331.73250	         1.03614e+58
          1332.53880	         1.06182e+58
          1333.34510	         9.26772e+57
          1334.15140	         9.47309e+57
          1334.95770	         9.26133e+57
          1335.76400	         1.07480e+58
          1336.57030	         1.23455e+58
          1337.37660	         9.72233e+57
          1338.18290	         1.03540e+58
          1338.98920	         1.13057e+58
          1339.79550	         9.97905e+57
          1340.60180	         1.09621e+58
          1341.40810	         1.30125e+58
          1342.21440	         1.07860e+58
          1343.02070	         1.26599e+58
          1343.82700	         1.47649e+58
          1344.63330	         1.20110e+58
          1345.43960	         1.07320e+58
          1346.24590	         1.03298e+58
          1347.05220	         1.29955e+58
          1347.85850	         1.18235e+58
          1348.66480	         1.15381e+58
          1349.47110	         1.22594e+58
          1350.27740	         1.23031e+58
          1351.08370	         1.11999e+58
          1351.89000	         1.03969e+58
          1352.69630	         1.20971e+58
          1353.50260	         1.23728e+58
          1354.30890	         1.22750e+58
          1355.11520	         1.17686e+58
          1355.92150	         1.02922e+58
          1356.72780	         1.09416e+58
          1357.53410	         1.20699e+58
          1358.34040	         1.23503e+58
          1359.14670	         1.06655e+58
          1359.95300	         9.85296e+57
          1360.75930	         1.09589e+58
          1361.56560	         1.14712e+58
          1362.37190	         1.22801e+58
          1363.17820	         1.10783e+58
          1363.98450	         9.41742e+57
          1364.79080	         1.15868e+58
          1365.59710	         1.39482e+58
          1366.40340	         1.25850e+58
          1367.20970	         1.07375e+58
          1368.01600	         8.44798e+57
          1368.82230	         9.62429e+57
          1369.62860	         1.11692e+58
          1370.43490	         1.01479e+58
          1371.24120	         1.01094e+58
          1372.04750	         1.00005e+58
          1372.85380	         1.30405e+58
          1373.66010	         1.17161e+58
          1374.46640	         1.00280e+58
          1375.27270	         1.13824e+58
          1376.07900	         9.52588e+57
          1376.88530	         9.10084e+57
          1377.69160	         8.70041e+57
          1378.49790	         6.09080e+57
          1379.30420	         6.64512e+57
          1380.11050	         9.51259e+57
          1380.91680	         8.90680e+57
          1381.72310	         6.52288e+57
          1382.52940	         7.37734e+57
          1383.33570	         8.00454e+57
          1384.14200	         9.33316e+57
          1384.94830	         1.08516e+58
          1385.75460	         1.10684e+58
          1386.56090	         1.01001e+58
          1387.36720	         9.76821e+57
          1388.17350	         1.23610e+58
          1388.97980	         1.13931e+58
          1389.78610	         9.31989e+57
          1390.59240	         1.00640e+58
          1391.39870	         8.49817e+57
          1392.20500	         8.14167e+57
          1393.01130	         7.04933e+57
          1393.81760	         6.29028e+57
          1394.62390	         6.63763e+57
          1395.43020	         6.84562e+57
          1396.23650	         7.16307e+57
          1397.04280	         8.08384e+57
          1397.84910	         8.15840e+57
          1398.65540	         7.40568e+57
          1399.46170	         9.21337e+57
          1400.26800	         8.91256e+57
          1401.07430	         9.14221e+57
          1401.88060	         8.45334e+57
          1402.68690	         8.50209e+57
          1403.49320	         9.21442e+57
          1404.29950	         9.12332e+57
          1405.10580	         1.01965e+58
          1405.91210	         1.10610e+58
          1406.71840	         1.06438e+58
          1407.52470	         1.01555e+58
          1408.33100	         1.03964e+58
          1409.13730	         1.28305e+58
          1409.94360	         1.25185e+58
          1410.74990	         1.13633e+58
          1411.55620	         1.00415e+58
          1412.36250	         9.70266e+57
          1413.16880	         9.02088e+57
          1413.97510	         9.53406e+57
          1414.78140	         9.75831e+57
          1415.58770	         1.06188e+58
          1416.39400	         1.03644e+58
          1417.20030	         9.04962e+57
          1418.00660	         8.56737e+57
          1418.81290	         9.03632e+57
          1419.61920	         1.00609e+58
          1420.42550	         1.34791e+58
          1421.23180	         1.42823e+58
          1422.03810	         1.13946e+58
          1422.84440	         1.04008e+58
          1423.65070	         1.23551e+58
          1424.45700	         1.14051e+58
          1425.26330	         8.84844e+57
          1426.06960	         9.54188e+57
          1426.87590	         1.13813e+58
          1427.68220	         1.04633e+58
          1428.48850	         9.98050e+57
          1429.29480	         1.07547e+58
          1430.10110	         1.11479e+58
          1430.90740	         9.08643e+57
          1431.71370	         8.29290e+57
          1432.52000	         8.33687e+57
          1433.32630	         7.19777e+57
          1434.13260	         7.53390e+57
          1434.93890	         8.59298e+57
          1435.74520	         9.33992e+57
          1436.55150	         9.17473e+57
          1437.35780	         9.12564e+57
          1438.16410	         9.23458e+57
          1438.97040	         9.60956e+57
          1439.77670	         8.54469e+57
          1440.58300	         8.42257e+57
          1441.38930	         9.38424e+57
          1442.19560	         9.27590e+57
          1443.00190	         8.68390e+57
          1443.80820	         1.13399e+58
          1444.61450	         9.86229e+57
          1445.42080	         7.74086e+57
          1446.22710	         8.73936e+57
          1447.03340	         9.92808e+57
          1447.83970	         9.57239e+57
          1448.64600	         9.28329e+57
          1449.45230	         9.68555e+57
          1450.25860	         9.62232e+57
          1451.06490	         9.63269e+57
          1451.87120	         8.41722e+57
          1452.67750	         7.36202e+57
          1453.48380	         7.89945e+57
          1454.29010	         7.54285e+57
          1455.09640	         8.65200e+57
          1455.90270	         1.00789e+58
          1456.70900	         9.08444e+57
          1457.51530	         9.73697e+57
          1458.32160	         1.16450e+58
          1459.12790	         1.23026e+58
          1459.93420	         1.13460e+58
          1460.74050	         8.21562e+57
          1461.54680	         7.82396e+57
          1462.35310	         7.82288e+57
          1463.15940	         9.63791e+57
          1463.96570	         1.17575e+58
          1464.77200	         1.27369e+58
          1465.57830	         1.10011e+58
          1466.38460	         8.36504e+57
          1467.19090	         7.46605e+57
          1467.99720	         8.36327e+57
          1468.80350	         9.11026e+57
          1469.60980	         9.61034e+57
          1470.41610	         9.57277e+57
          1471.22240	         8.40314e+57
          1472.02870	         8.74363e+57
          1472.83500	         9.36979e+57
          1473.64130	         8.88452e+57
          1474.44760	         9.53256e+57
          1475.25390	         9.47920e+57
          1476.06020	         8.96037e+57
          1476.86650	         8.76453e+57
          1477.67280	         9.07875e+57
          1478.47910	         7.65743e+57
          1479.28540	         7.84317e+57
          1480.09170	         8.23266e+57
          1480.89800	         8.09815e+57
          1481.70430	         7.93454e+57
          1482.51060	         6.92856e+57
          1483.31690	         7.18374e+57
          1484.12320	         7.64458e+57
          1484.92950	         7.12933e+57
          1485.73580	         7.36877e+57
          1486.54210	         8.24501e+57
          1487.34840	         8.33604e+57
          1488.15470	         8.26004e+57
          1488.96100	         8.72255e+57
          1489.76730	         9.01918e+57
