#sample_287_stacked_spectrum_rest_UV-bands_median_H-alpha_noDC.txt
#median Lum: 1.68353e+42
#Rest-frame wavelength (A) | Luminosity (erg/s/A)
#
          1110.00000	         0.00000e+00
          1110.80630	        -4.52468e+59
          1111.61260	        -2.22136e+59
          1112.41890	         1.93961e+59
          1113.22520	         1.88702e+58
          1114.03150	        -1.28657e+59
          1114.83780	         2.09351e+59
          1115.64410	         9.24078e+58
          1116.45040	         2.12133e+59
          1117.25670	        -2.21090e+58
          1118.06300	         4.15457e+57
          1118.86930	         2.14937e+58
          1119.67560	         1.15422e+59
          1120.48190	        -5.77592e+58
          1121.28820	        -1.11338e+59
          1122.09450	         3.12657e+58
          1122.90080	        -6.10230e+57
          1123.70710	         6.42367e+58
          1124.51340	         6.22580e+58
          1125.31970	        -4.16993e+58
          1126.12600	        -3.83889e+58
          1126.93230	        -3.49787e+58
          1127.73860	        -5.73941e+58
          1128.54490	        -2.52838e+57
          1129.35120	        -1.37944e+58
          1130.15750	        -3.34916e+58
          1130.96380	        -7.32588e+57
          1131.77010	         5.09128e+58
          1132.57640	         4.30527e+58
          1133.38270	         1.16012e+57
          1134.18900	         4.15589e+57
          1134.99530	         2.67862e+58
          1135.80160	         5.35517e+57
          1136.60790	         1.56560e+58
          1137.41420	        -1.11845e+57
          1138.22050	         3.95345e+58
          1139.02680	         4.63310e+58
          1139.83310	         3.64856e+58
          1140.63940	         1.31726e+58
          1141.44570	        -2.73801e+58
          1142.25200	        -1.56633e+58
          1143.05830	         1.82999e+58
          1143.86460	         5.14475e+58
          1144.67090	         6.23569e+57
          1145.47720	         1.21711e+58
          1146.28350	         2.14443e+58
          1147.08980	         1.59589e+58
          1147.89610	         1.31799e+58
          1148.70240	         1.67470e+58
          1149.50870	         2.78763e+58
          1150.31500	         1.56897e+58
          1151.12130	         1.36877e+58
          1151.92760	         6.99133e+56
          1152.73390	         1.26804e+58
          1153.54020	         8.87477e+57
          1154.34650	         2.94614e+58
          1155.15280	         2.56237e+58
          1155.95910	         5.03956e+57
          1156.76540	         1.53026e+57
          1157.57170	         4.40297e+57
          1158.37800	        -9.61389e+57
          1159.18430	        -6.91399e+57
          1159.99060	         5.43508e+57
          1160.79690	         4.03203e+56
          1161.60320	         1.53343e+58
          1162.40950	         8.89741e+57
          1163.21580	         2.00209e+58
          1164.02210	         1.41643e+58
          1164.82840	         5.33670e+57
          1165.63470	         2.67649e+58
          1166.44100	         3.13916e+58
          1167.24730	         2.15339e+58
          1168.05360	         7.88469e+57
          1168.85990	         5.42767e+57
          1169.66620	         7.61400e+57
          1170.47250	         1.55344e+58
          1171.27880	         1.78093e+58
          1172.08510	         1.74730e+58
          1172.89140	         1.27648e+58
          1173.69770	         1.33675e+58
          1174.50400	         1.59276e+58
          1175.31030	         2.08745e+58
          1176.11660	         1.44861e+58
          1176.92290	         1.51266e+58
          1177.72920	         1.38642e+58
          1178.53550	         9.96454e+57
          1179.34180	         8.39711e+57
          1180.14810	         9.76371e+57
          1180.95440	         9.64758e+57
          1181.76070	         6.85286e+57
          1182.56700	         6.84825e+57
          1183.37330	         6.10973e+57
          1184.17960	         1.08429e+58
          1184.98590	         1.32706e+58
          1185.79220	         7.58994e+57
          1186.59850	         9.05134e+57
          1187.40480	         1.19084e+58
          1188.21110	         1.67586e+58
          1189.01740	         5.46910e+57
          1189.82370	         1.79646e+57
          1190.63000	         6.03799e+57
          1191.43630	         1.23260e+58
          1192.24260	         1.22893e+58
          1193.04890	         9.59516e+57
          1193.85520	         6.61293e+57
          1194.66150	         6.74639e+57
          1195.46780	         1.40708e+58
          1196.27410	         1.75306e+58
          1197.08040	         1.07329e+58
          1197.88670	         1.27965e+58
          1198.69300	         1.07878e+58
          1199.49930	         1.35255e+58
          1200.30560	         1.52136e+58
          1201.11190	         1.14439e+58
          1201.91820	         1.27325e+58
          1202.72450	         1.00127e+58
          1203.53080	         1.19560e+58
          1204.33710	         1.08452e+58
          1205.14340	         5.68241e+57
          1205.94970	         8.12937e+57
          1206.75600	         1.02888e+58
          1207.56230	         8.36473e+57
          1208.36860	         9.70214e+57
          1209.17490	         5.67231e+57
          1209.98120	         4.97131e+57
          1210.78750	         9.52468e+57
          1211.59380	         7.75268e+57
          1212.40010	         1.70460e+58
          1213.20640	         2.21976e+58
          1214.01270	         2.17782e+58
          1214.81900	         2.61939e+58
          1215.62530	         4.30768e+58
          1216.43160	         8.87193e+58
          1217.23790	         1.52903e+59
          1218.04420	         1.15750e+59
          1218.85050	         8.44100e+58
          1219.65680	         5.50124e+58
          1220.46310	         3.33055e+58
          1221.26940	         2.18634e+58
          1222.07570	         1.47899e+58
          1222.88200	         1.15052e+58
          1223.68830	         1.17656e+58
          1224.49460	         7.71326e+57
          1225.30090	         6.54168e+57
          1226.10720	         4.64715e+57
          1226.91350	         8.85047e+57
          1227.71980	         7.00341e+57
          1228.52610	         8.28024e+57
          1229.33240	         7.12067e+57
          1230.13870	         9.75565e+57
          1230.94500	         1.12677e+58
          1231.75130	         5.64256e+57
          1232.55760	         7.06371e+57
          1233.36390	         9.28446e+57
          1234.17020	         1.01435e+58
          1234.97650	         7.72320e+57
          1235.78280	         6.49287e+57
          1236.58910	         7.49519e+57
          1237.39540	         1.04176e+58
          1238.20170	         1.04543e+58
          1239.00800	         1.25298e+58
          1239.81430	         1.41711e+58
          1240.62060	         1.11632e+58
          1241.42690	         1.09774e+58
          1242.23320	         1.20581e+58
          1243.03950	         8.55693e+57
          1243.84580	         9.65351e+57
          1244.65210	         1.04659e+58
          1245.45840	         1.02133e+58
          1246.26470	         8.11501e+57
          1247.07100	         6.59554e+57
          1247.87730	         4.54740e+57
          1248.68360	         2.47112e+57
          1249.48990	         8.89555e+57
          1250.29620	         1.07600e+58
          1251.10250	         9.57920e+57
          1251.90880	         6.38570e+57
          1252.71510	         5.57065e+57
          1253.52140	         1.02662e+58
          1254.32770	         1.11556e+58
          1255.13400	         1.31318e+58
          1255.94030	         1.31988e+58
          1256.74660	         1.23746e+58
          1257.55290	         1.23286e+58
          1258.35920	         8.55740e+57
          1259.16550	         5.94454e+57
          1259.97180	         4.47373e+57
          1260.77810	         7.76749e+57
          1261.58440	         1.09672e+58
          1262.39070	         9.44563e+57
          1263.19700	         9.66312e+57
          1264.00330	         1.01952e+58
          1264.80960	         1.08492e+58
          1265.61590	         1.10829e+58
          1266.42220	         1.17288e+58
          1267.22850	         1.21976e+58
          1268.03480	         1.36026e+58
          1268.84110	         1.23578e+58
          1269.64740	         1.05444e+58
          1270.45370	         1.21521e+58
          1271.26000	         1.30092e+58
          1272.06630	         1.12239e+58
          1272.87260	         1.22947e+58
          1273.67890	         1.49658e+58
          1274.48520	         1.33725e+58
          1275.29150	         1.08269e+58
          1276.09780	         1.11772e+58
          1276.90410	         1.36688e+58
          1277.71040	         1.09718e+58
          1278.51670	         1.03970e+58
          1279.32300	         1.36699e+58
          1280.12930	         1.36779e+58
          1280.93560	         9.91035e+57
          1281.74190	         9.75923e+57
          1282.54820	         1.18179e+58
          1283.35450	         1.06317e+58
          1284.16080	         1.08472e+58
          1284.96710	         1.30505e+58
          1285.77340	         9.46255e+57
          1286.57970	         8.88757e+57
          1287.38600	         1.35800e+58
          1288.19230	         1.77695e+58
          1288.99860	         1.63226e+58
          1289.80490	         9.71901e+57
          1290.61120	         1.24155e+58
          1291.41750	         1.46978e+58
          1292.22380	         1.29312e+58
          1293.03010	         1.23039e+58
          1293.83640	         1.28286e+58
          1294.64270	         1.05484e+58
          1295.44900	         7.07022e+57
          1296.25530	         7.10683e+57
          1297.06160	         9.94705e+57
          1297.86790	         1.04305e+58
          1298.67420	         9.75989e+57
          1299.48050	         9.80529e+57
          1300.28680	         1.14963e+58
          1301.09310	         1.00350e+58
          1301.89940	         4.84362e+57
          1302.70570	         6.60763e+57
          1303.51200	         9.00665e+57
          1304.31830	         1.11877e+58
          1305.12460	         1.06111e+58
          1305.93090	         1.15471e+58
          1306.73720	         1.17885e+58
          1307.54350	         1.34147e+58
          1308.34980	         1.43640e+58
          1309.15610	         1.46054e+58
          1309.96240	         1.46118e+58
          1310.76870	         1.26110e+58
          1311.57500	         1.02792e+58
          1312.38130	         1.08499e+58
          1313.18760	         1.38943e+58
          1313.99390	         1.47643e+58
          1314.80020	         1.56447e+58
          1315.60650	         1.50476e+58
          1316.41280	         1.36879e+58
          1317.21910	         1.12285e+58
          1318.02540	         1.07555e+58
          1318.83170	         1.26095e+58
          1319.63800	         1.28080e+58
          1320.44430	         1.16748e+58
          1321.25060	         1.26447e+58
          1322.05690	         1.41159e+58
          1322.86320	         1.40723e+58
          1323.66950	         1.19629e+58
          1324.47580	         9.15704e+57
          1325.28210	         1.06998e+58
          1326.08840	         1.19015e+58
          1326.89470	         1.39008e+58
          1327.70100	         1.24421e+58
          1328.50730	         9.44820e+57
          1329.31360	         9.52002e+57
          1330.11990	         9.89344e+57
          1330.92620	         9.78123e+57
          1331.73250	         1.06334e+58
          1332.53880	         1.00334e+58
          1333.34510	         8.58547e+57
          1334.15140	         8.36848e+57
          1334.95770	         9.86416e+57
          1335.76400	         9.90676e+57
          1336.57030	         1.02484e+58
          1337.37660	         1.05187e+58
          1338.18290	         1.03266e+58
          1338.98920	         1.09456e+58
          1339.79550	         1.01040e+58
          1340.60180	         1.05443e+58
          1341.40810	         1.21144e+58
          1342.21440	         1.13425e+58
          1343.02070	         1.00924e+58
          1343.82700	         1.07943e+58
          1344.63330	         1.08851e+58
          1345.43960	         1.09951e+58
          1346.24590	         1.10788e+58
          1347.05220	         1.17679e+58
          1347.85850	         1.22263e+58
          1348.66480	         1.30763e+58
          1349.47110	         1.24067e+58
          1350.27740	         1.08273e+58
          1351.08370	         1.19672e+58
          1351.89000	         1.26589e+58
          1352.69630	         1.11202e+58
          1353.50260	         1.09910e+58
          1354.30890	         1.15857e+58
          1355.11520	         1.15454e+58
          1355.92150	         1.01707e+58
          1356.72780	         9.99069e+57
          1357.53410	         1.08774e+58
          1358.34040	         1.07465e+58
          1359.14670	         9.64551e+57
          1359.95300	         1.04191e+58
          1360.75930	         1.07126e+58
          1361.56560	         1.03918e+58
          1362.37190	         1.16041e+58
          1363.17820	         1.15803e+58
          1363.98450	         1.26171e+58
          1364.79080	         1.34517e+58
          1365.59710	         1.24246e+58
          1366.40340	         1.10656e+58
          1367.20970	         9.90819e+57
          1368.01600	         1.01030e+58
          1368.82230	         1.13221e+58
          1369.62860	         1.15676e+58
          1370.43490	         9.03522e+57
          1371.24120	         9.13933e+57
          1372.04750	         8.81096e+57
          1372.85380	         1.11744e+58
          1373.66010	         1.15550e+58
          1374.46640	         1.06354e+58
          1375.27270	         1.03523e+58
          1376.07900	         9.12031e+57
          1376.88530	         9.03672e+57
          1377.69160	         8.47719e+57
          1378.49790	         6.81844e+57
          1379.30420	         6.45860e+57
          1380.11050	         9.27530e+57
          1380.91680	         1.00798e+58
          1381.72310	         9.59566e+57
          1382.52940	         8.32707e+57
          1383.33570	         8.18390e+57
          1384.14200	         1.02331e+58
          1384.94830	         1.08263e+58
          1385.75460	         1.07931e+58
          1386.56090	         1.08800e+58
          1387.36720	         1.15528e+58
          1388.17350	         1.31009e+58
          1388.97980	         1.13808e+58
          1389.78610	         9.49156e+57
          1390.59240	         8.06710e+57
          1391.39870	         6.16005e+57
          1392.20500	         7.67263e+57
          1393.01130	         7.93981e+57
          1393.81760	         6.72185e+57
          1394.62390	         7.24466e+57
          1395.43020	         5.49467e+57
          1396.23650	         4.68392e+57
          1397.04280	         7.24030e+57
          1397.84910	         9.49564e+57
          1398.65540	         8.41185e+57
          1399.46170	         8.94760e+57
          1400.26800	         7.95818e+57
          1401.07430	         7.16324e+57
          1401.88060	         8.39753e+57
          1402.68690	         9.87270e+57
          1403.49320	         1.03441e+58
          1404.29950	         9.89769e+57
          1405.10580	         8.98580e+57
          1405.91210	         1.05056e+58
          1406.71840	         1.15258e+58
          1407.52470	         1.19375e+58
          1408.33100	         1.07606e+58
          1409.13730	         1.14924e+58
          1409.94360	         1.27207e+58
          1410.74990	         1.34159e+58
          1411.55620	         1.12674e+58
          1412.36250	         1.01585e+58
          1413.16880	         1.04139e+58
          1413.97510	         8.90305e+57
          1414.78140	         8.16234e+57
          1415.58770	         9.83698e+57
          1416.39400	         1.01988e+58
          1417.20030	         1.14272e+58
          1418.00660	         1.02588e+58
          1418.81290	         9.61059e+57
          1419.61920	         1.01786e+58
          1420.42550	         1.26150e+58
          1421.23180	         1.38423e+58
          1422.03810	         1.21901e+58
          1422.84440	         1.10264e+58
          1423.65070	         1.31088e+58
          1424.45700	         1.17215e+58
          1425.26330	         8.64690e+57
          1426.06960	         9.00210e+57
          1426.87590	         1.03502e+58
          1427.68220	         1.05937e+58
          1428.48850	         1.17132e+58
          1429.29480	         1.05131e+58
          1430.10110	         9.46345e+57
          1430.90740	         9.18221e+57
          1431.71370	         8.34941e+57
          1432.52000	         8.62611e+57
          1433.32630	         8.14901e+57
          1434.13260	         8.96397e+57
          1434.93890	         9.00035e+57
          1435.74520	         9.29743e+57
          1436.55150	         1.02150e+58
          1437.35780	         9.90714e+57
          1438.16410	         1.03030e+58
          1438.97040	         9.46912e+57
          1439.77670	         8.32314e+57
          1440.58300	         8.86867e+57
          1441.38930	         9.36952e+57
          1442.19560	         1.00869e+58
          1443.00190	         1.07030e+58
          1443.80820	         1.15665e+58
          1444.61450	         1.06829e+58
          1445.42080	         9.69664e+57
          1446.22710	         1.12546e+58
          1447.03340	         1.01920e+58
          1447.83970	         1.11785e+58
          1448.64600	         1.15274e+58
          1449.45230	         1.01714e+58
          1450.25860	         1.04739e+58
          1451.06490	         8.97715e+57
          1451.87120	         7.23293e+57
          1452.67750	         6.49579e+57
          1453.48380	         7.60331e+57
          1454.29010	         8.62201e+57
          1455.09640	         8.99768e+57
          1455.90270	         7.72156e+57
          1456.70900	         8.53403e+57
          1457.51530	         1.05936e+58
          1458.32160	         1.18666e+58
          1459.12790	         1.19812e+58
          1459.93420	         1.03192e+58
          1460.74050	         7.75308e+57
          1461.54680	         8.12238e+57
          1462.35310	         8.94669e+57
          1463.15940	         9.96227e+57
          1463.96570	         1.05805e+58
          1464.77200	         1.15562e+58
          1465.57830	         1.07336e+58
          1466.38460	         7.96699e+57
          1467.19090	         7.85118e+57
          1467.99720	         8.36151e+57
          1468.80350	         9.03962e+57
          1469.60980	         1.04731e+58
          1470.41610	         1.14077e+58
          1471.22240	         9.49885e+57
          1472.02870	         8.98543e+57
          1472.83500	         8.72103e+57
          1473.64130	         8.48863e+57
          1474.44760	         9.96626e+57
          1475.25390	         9.93544e+57
          1476.06020	         8.57555e+57
          1476.86650	         8.57903e+57
          1477.67280	         7.96033e+57
          1478.47910	         7.06832e+57
          1479.28540	         7.95301e+57
          1480.09170	         1.00340e+58
          1480.89800	         9.56187e+57
          1481.70430	         8.51107e+57
          1482.51060	         8.02141e+57
          1483.31690	         8.77701e+57
          1484.12320	         8.39866e+57
          1484.92950	         8.37994e+57
          1485.73580	         9.33892e+57
          1486.54210	         8.02502e+57
          1487.34840	         8.68827e+57
          1488.15470	         9.03164e+57
          1488.96100	         7.83012e+57
          1489.76730	         9.10917e+57
