#sample_142_stacked_spectrum_rest_UV-bands_median_H-alpha_noDC.txt
#median Lum: 1.68957e+42
#Rest-frame wavelength (A) | Luminosity (erg/s/A)
#
          1110.00000	         0.00000e+00
          1110.80630	        -4.12750e+59
          1111.61260	         2.32008e+59
          1112.41890	         2.24130e+59
          1113.22520	        -6.21623e+57
          1114.03150	         4.34753e+58
          1114.83780	         2.95854e+59
          1115.64410	         1.71948e+59
          1116.45040	         2.31706e+59
          1117.25670	         6.37629e+58
          1118.06300	         1.91524e+59
          1118.86930	         1.35611e+59
          1119.67560	         1.46774e+59
          1120.48190	        -4.68191e+56
          1121.28820	        -1.37858e+59
          1122.09450	         2.14812e+58
          1122.90080	        -5.74031e+56
          1123.70710	        -6.66824e+57
          1124.51340	         3.66930e+58
          1125.31970	        -3.78372e+58
          1126.12600	         3.46631e+58
          1126.93230	        -2.18769e+58
          1127.73860	        -5.42602e+58
          1128.54490	         9.77694e+57
          1129.35120	        -5.58056e+57
          1130.15750	        -5.20945e+58
          1130.96380	        -2.87764e+58
          1131.77010	         5.23886e+58
          1132.57640	         1.95000e+58
          1133.38270	         3.96256e+58
          1134.18900	         4.40150e+58
          1134.99530	         7.73223e+57
          1135.80160	         1.95570e+58
          1136.60790	         2.32897e+58
          1137.41420	         2.41592e+57
          1138.22050	         2.90977e+58
          1139.02680	         2.24845e+58
          1139.83310	         1.48654e+58
          1140.63940	         1.41312e+58
          1141.44570	        -1.82671e+58
          1142.25200	         1.33105e+57
          1143.05830	         3.62242e+58
          1143.86460	         2.49660e+58
          1144.67090	         1.58091e+58
          1145.47720	         1.44524e+58
          1146.28350	         1.56852e+58
          1147.08980	         2.87087e+58
          1147.89610	         1.70520e+58
          1148.70240	         2.22507e+58
          1149.50870	         3.31063e+58
          1150.31500	         2.32124e+58
          1151.12130	         3.60650e+57
          1151.92760	         5.43070e+57
          1152.73390	         3.34411e+57
          1153.54020	         4.34067e+57
          1154.34650	         2.67856e+58
          1155.15280	         2.60349e+58
          1155.95910	         2.24875e+58
          1156.76540	         1.85081e+58
          1157.57170	         1.26245e+58
          1158.37800	         2.23447e+57
          1159.18430	        -6.02808e+57
          1159.99060	        -3.77370e+57
          1160.79690	        -6.05628e+57
          1161.60320	         6.62731e+57
          1162.40950	         1.38624e+58
          1163.21580	         1.20957e+58
          1164.02210	         1.98311e+58
          1164.82840	         1.36871e+58
          1165.63470	         2.64323e+58
          1166.44100	         3.52901e+58
          1167.24730	         2.63270e+58
          1168.05360	         9.48019e+57
          1168.85990	         2.62327e+56
          1169.66620	         1.15338e+58
          1170.47250	         1.83331e+58
          1171.27880	         1.76119e+58
          1172.08510	         1.75293e+58
          1172.89140	         1.05610e+58
          1173.69770	         7.19851e+57
          1174.50400	         9.18120e+57
          1175.31030	         2.06060e+58
          1176.11660	         1.62762e+58
          1176.92290	         1.82816e+58
          1177.72920	         7.87123e+57
          1178.53550	         5.03937e+57
          1179.34180	         1.26147e+57
          1180.14810	         2.49951e+57
          1180.95440	         8.18324e+57
          1181.76070	         6.62251e+57
          1182.56700	         5.11513e+57
          1183.37330	         5.00990e+57
          1184.17960	         1.57061e+58
          1184.98590	         1.66592e+58
          1185.79220	         4.65727e+57
          1186.59850	         1.15263e+58
          1187.40480	         1.40847e+58
          1188.21110	         1.36448e+58
          1189.01740	         8.82640e+57
          1189.82370	         7.45172e+57
          1190.63000	         1.44532e+58
          1191.43630	         1.86334e+58
          1192.24260	         1.17123e+58
          1193.04890	         1.26518e+58
          1193.85520	         9.89528e+57
          1194.66150	         5.77705e+57
          1195.46780	         1.20880e+58
          1196.27410	         1.10419e+58
          1197.08040	         3.14222e+57
          1197.88670	         1.19084e+58
          1198.69300	         1.55075e+58
          1199.49930	         1.53359e+58
          1200.30560	         1.39961e+58
          1201.11190	         7.80628e+57
          1201.91820	         1.01962e+58
          1202.72450	         1.00112e+58
          1203.53080	         1.42712e+58
          1204.33710	         9.99772e+57
          1205.14340	         5.78363e+57
          1205.94970	         6.92091e+57
          1206.75600	         6.09970e+57
          1207.56230	         4.15132e+57
          1208.36860	         7.60534e+57
          1209.17490	         8.45695e+57
          1209.98120	         4.55498e+57
          1210.78750	         7.10822e+57
          1211.59380	         1.18292e+58
          1212.40010	         1.87517e+58
          1213.20640	         2.19617e+58
          1214.01270	         2.14070e+58
          1214.81900	         2.70258e+58
          1215.62530	         4.51751e+58
          1216.43160	         8.89064e+58
          1217.23790	         1.50885e+59
          1218.04420	         1.14720e+59
          1218.85050	         8.28882e+58
          1219.65680	         5.61657e+58
          1220.46310	         3.54874e+58
          1221.26940	         2.11016e+58
          1222.07570	         1.08053e+58
          1222.88200	         1.14401e+58
          1223.68830	         1.04503e+58
          1224.49460	         8.22077e+57
          1225.30090	         6.92186e+57
          1226.10720	         3.99351e+57
          1226.91350	         4.78583e+57
          1227.71980	         6.99399e+57
          1228.52610	         1.29469e+58
          1229.33240	         6.63402e+57
          1230.13870	         5.51182e+57
          1230.94500	         7.66222e+57
          1231.75130	         6.49172e+57
          1232.55760	         1.10839e+58
          1233.36390	         1.02727e+58
          1234.17020	         1.04402e+58
          1234.97650	         7.31557e+57
          1235.78280	         5.94731e+57
          1236.58910	         6.55754e+57
          1237.39540	         8.24207e+57
          1238.20170	         7.76544e+57
          1239.00800	         1.07927e+58
          1239.81430	         1.39667e+58
          1240.62060	         1.06285e+58
          1241.42690	         9.16054e+57
          1242.23320	         1.29607e+58
          1243.03950	         7.55009e+57
          1243.84580	         8.17589e+57
          1244.65210	         1.22139e+58
          1245.45840	         1.09247e+58
          1246.26470	         9.58777e+57
          1247.07100	         8.10125e+57
          1247.87730	         6.99431e+57
          1248.68360	         5.54653e+57
          1249.48990	         6.53155e+57
          1250.29620	         7.53202e+57
          1251.10250	         6.34501e+57
          1251.90880	         6.16501e+57
          1252.71510	         7.67170e+57
          1253.52140	         7.95061e+57
          1254.32770	         8.92304e+57
          1255.13400	         1.28547e+58
          1255.94030	         1.41681e+58
          1256.74660	         1.11871e+58
          1257.55290	         1.08620e+58
          1258.35920	         9.59838e+57
          1259.16550	         6.06773e+57
          1259.97180	         5.49661e+57
          1260.77810	         6.66775e+57
          1261.58440	         9.87341e+57
          1262.39070	         9.32595e+57
          1263.19700	         8.13780e+57
          1264.00330	         9.67193e+57
          1264.80960	         1.06013e+58
          1265.61590	         1.22523e+58
          1266.42220	         1.22276e+58
          1267.22850	         9.64403e+57
          1268.03480	         1.34409e+58
          1268.84110	         1.54760e+58
          1269.64740	         1.17660e+58
          1270.45370	         1.22162e+58
          1271.26000	         1.18560e+58
          1272.06630	         1.16899e+58
          1272.87260	         1.17597e+58
          1273.67890	         1.31694e+58
          1274.48520	         1.42118e+58
          1275.29150	         1.29056e+58
          1276.09780	         1.14965e+58
          1276.90410	         1.49407e+58
          1277.71040	         1.32020e+58
          1278.51670	         1.24160e+58
          1279.32300	         1.41321e+58
          1280.12930	         1.20457e+58
          1280.93560	         1.06373e+58
          1281.74190	         1.26616e+58
          1282.54820	         1.25204e+58
          1283.35450	         1.15612e+58
          1284.16080	         1.18484e+58
          1284.96710	         1.28659e+58
          1285.77340	         1.00070e+58
          1286.57970	         1.02167e+58
          1287.38600	         1.47272e+58
          1288.19230	         2.00091e+58
          1288.99860	         1.80022e+58
          1289.80490	         1.11147e+58
          1290.61120	         1.37739e+58
          1291.41750	         1.44596e+58
          1292.22380	         1.04634e+58
          1293.03010	         9.61234e+57
          1293.83640	         1.15403e+58
          1294.64270	         9.78177e+57
          1295.44900	         7.64995e+57
          1296.25530	         8.03033e+57
          1297.06160	         1.07296e+58
          1297.86790	         1.03410e+58
          1298.67420	         7.96968e+57
          1299.48050	         8.60341e+57
          1300.28680	         1.07317e+58
          1301.09310	         8.71911e+57
          1301.89940	         4.47562e+57
          1302.70570	         7.14457e+57
          1303.51200	         7.78072e+57
          1304.31830	         9.83457e+57
          1305.12460	         1.14662e+58
          1305.93090	         1.14747e+58
          1306.73720	         1.40205e+58
          1307.54350	         1.74406e+58
          1308.34980	         1.67294e+58
          1309.15610	         1.47566e+58
          1309.96240	         1.41782e+58
          1310.76870	         1.33985e+58
          1311.57500	         1.31601e+58
          1312.38130	         1.09161e+58
          1313.18760	         1.20216e+58
          1313.99390	         1.61413e+58
          1314.80020	         1.55409e+58
          1315.60650	         1.33174e+58
          1316.41280	         1.01581e+58
          1317.21910	         1.02259e+58
          1318.02540	         1.11735e+58
          1318.83170	         1.17606e+58
          1319.63800	         1.13752e+58
          1320.44430	         1.17747e+58
          1321.25060	         1.27692e+58
          1322.05690	         1.25490e+58
          1322.86320	         1.25370e+58
          1323.66950	         1.21620e+58
          1324.47580	         1.00355e+58
          1325.28210	         1.01190e+58
          1326.08840	         1.08789e+58
          1326.89470	         1.14164e+58
          1327.70100	         9.77185e+57
          1328.50730	         8.96551e+57
          1329.31360	         1.12223e+58
          1330.11990	         1.14665e+58
          1330.92620	         9.86626e+57
          1331.73250	         1.10944e+58
          1332.53880	         1.05133e+58
          1333.34510	         8.86430e+57
          1334.15140	         8.10965e+57
          1334.95770	         8.03760e+57
          1335.76400	         9.15362e+57
          1336.57030	         9.47390e+57
          1337.37660	         9.13271e+57
          1338.18290	         1.04380e+58
          1338.98920	         1.10963e+58
          1339.79550	         1.12633e+58
          1340.60180	         1.27244e+58
          1341.40810	         1.47012e+58
          1342.21440	         1.41634e+58
          1343.02070	         1.34864e+58
          1343.82700	         1.30698e+58
          1344.63330	         1.11508e+58
          1345.43960	         1.25879e+58
          1346.24590	         1.13644e+58
          1347.05220	         9.97784e+57
          1347.85850	         1.04575e+58
          1348.66480	         1.27035e+58
          1349.47110	         1.29470e+58
          1350.27740	         1.21449e+58
          1351.08370	         1.15356e+58
          1351.89000	         1.14789e+58
          1352.69630	         1.08096e+58
          1353.50260	         1.21556e+58
          1354.30890	         1.21299e+58
          1355.11520	         1.24085e+58
          1355.92150	         1.22409e+58
          1356.72780	         1.05592e+58
          1357.53410	         1.05009e+58
          1358.34040	         1.03885e+58
          1359.14670	         1.01498e+58
          1359.95300	         1.07510e+58
          1360.75930	         1.03770e+58
          1361.56560	         1.05892e+58
          1362.37190	         1.22863e+58
          1363.17820	         1.19903e+58
          1363.98450	         1.16835e+58
          1364.79080	         1.30788e+58
          1365.59710	         1.43412e+58
          1366.40340	         1.32783e+58
          1367.20970	         1.05618e+58
          1368.01600	         1.02563e+58
          1368.82230	         1.06031e+58
          1369.62860	         1.07917e+58
          1370.43490	         9.33173e+57
          1371.24120	         9.59380e+57
          1372.04750	         9.80143e+57
          1372.85380	         1.13365e+58
          1373.66010	         1.20748e+58
          1374.46640	         1.18993e+58
          1375.27270	         1.16025e+58
          1376.07900	         8.56861e+57
          1376.88530	         7.05159e+57
          1377.69160	         7.44361e+57
          1378.49790	         7.59199e+57
          1379.30420	         8.76155e+57
          1380.11050	         9.64475e+57
          1380.91680	         8.59190e+57
          1381.72310	         7.01040e+57
          1382.52940	         7.98148e+57
          1383.33570	         8.78427e+57
          1384.14200	         9.45544e+57
          1384.94830	         1.01029e+58
          1385.75460	         1.08746e+58
          1386.56090	         1.05118e+58
          1387.36720	         9.80268e+57
          1388.17350	         1.13291e+58
          1388.97980	         1.06201e+58
          1389.78610	         9.37644e+57
          1390.59240	         8.49153e+57
          1391.39870	         7.29742e+57
          1392.20500	         7.79693e+57
          1393.01130	         7.27281e+57
          1393.81760	         7.63563e+57
          1394.62390	         8.34732e+57
          1395.43020	         6.38450e+57
          1396.23650	         5.66931e+57
          1397.04280	         6.99147e+57
          1397.84910	         8.71345e+57
          1398.65540	         8.80736e+57
          1399.46170	         1.03953e+58
          1400.26800	         9.94119e+57
          1401.07430	         7.88104e+57
          1401.88060	         7.46447e+57
          1402.68690	         8.95895e+57
          1403.49320	         9.42697e+57
          1404.29950	         8.07028e+57
          1405.10580	         1.01817e+58
          1405.91210	         1.08686e+58
          1406.71840	         9.88755e+57
          1407.52470	         9.88672e+57
          1408.33100	         1.08017e+58
          1409.13730	         1.14883e+58
          1409.94360	         1.27283e+58
          1410.74990	         1.26058e+58
          1411.55620	         1.14703e+58
          1412.36250	         9.28580e+57
          1413.16880	         8.82241e+57
          1413.97510	         8.85957e+57
          1414.78140	         9.57171e+57
          1415.58770	         1.10888e+58
          1416.39400	         1.06550e+58
          1417.20030	         9.65393e+57
          1418.00660	         9.54244e+57
          1418.81290	         1.00284e+58
          1419.61920	         1.03317e+58
          1420.42550	         1.21570e+58
          1421.23180	         1.32614e+58
          1422.03810	         1.32298e+58
          1422.84440	         1.15480e+58
          1423.65070	         1.33607e+58
          1424.45700	         1.25842e+58
          1425.26330	         8.15848e+57
          1426.06960	         8.18064e+57
          1426.87590	         9.38570e+57
          1427.68220	         9.60867e+57
          1428.48850	         9.80600e+57
          1429.29480	         9.98373e+57
          1430.10110	         9.74075e+57
          1430.90740	         8.29629e+57
          1431.71370	         8.55051e+57
          1432.52000	         8.28509e+57
          1433.32630	         7.64515e+57
          1434.13260	         8.45394e+57
          1434.93890	         8.61601e+57
          1435.74520	         8.94827e+57
          1436.55150	         9.75691e+57
          1437.35780	         9.45977e+57
          1438.16410	         9.92073e+57
          1438.97040	         9.17765e+57
          1439.77670	         8.86793e+57
          1440.58300	         8.31537e+57
          1441.38930	         8.39749e+57
          1442.19560	         9.10488e+57
          1443.00190	         9.19656e+57
          1443.80820	         1.09123e+58
          1444.61450	         9.63032e+57
          1445.42080	         8.16024e+57
          1446.22710	         9.43319e+57
          1447.03340	         9.07482e+57
          1447.83970	         1.01274e+58
          1448.64600	         1.05288e+58
          1449.45230	         9.72907e+57
          1450.25860	         1.01567e+58
          1451.06490	         9.24691e+57
          1451.87120	         7.99839e+57
          1452.67750	         7.90523e+57
          1453.48380	         8.97582e+57
          1454.29010	         8.94271e+57
          1455.09640	         8.07590e+57
          1455.90270	         8.46429e+57
          1456.70900	         7.30901e+57
          1457.51530	         8.93428e+57
          1458.32160	         1.15939e+58
          1459.12790	         1.09346e+58
          1459.93420	         8.79962e+57
          1460.74050	         6.94835e+57
          1461.54680	         7.50493e+57
          1462.35310	         8.12581e+57
          1463.15940	         9.05173e+57
          1463.96570	         1.05726e+58
          1464.77200	         1.26046e+58
          1465.57830	         1.13096e+58
          1466.38460	         9.40856e+57
          1467.19090	         9.59262e+57
          1467.99720	         9.60385e+57
          1468.80350	         9.77494e+57
          1469.60980	         9.59008e+57
          1470.41610	         1.03114e+58
          1471.22240	         9.06983e+57
          1472.02870	         9.09094e+57
          1472.83500	         8.68296e+57
          1473.64130	         9.63860e+57
          1474.44760	         1.01919e+58
          1475.25390	         8.51749e+57
          1476.06020	         7.85415e+57
          1476.86650	         8.11918e+57
          1477.67280	         8.34778e+57
          1478.47910	         6.80733e+57
          1479.28540	         6.12614e+57
          1480.09170	         8.08033e+57
          1480.89800	         8.71643e+57
          1481.70430	         8.68859e+57
          1482.51060	         8.31398e+57
          1483.31690	         7.99235e+57
          1484.12320	         7.92988e+57
          1484.92950	         6.82104e+57
          1485.73580	         7.34132e+57
          1486.54210	         9.38413e+57
          1487.34840	         9.31618e+57
          1488.15470	         9.61207e+57
          1488.96100	         9.86415e+57
          1489.76730	         9.80829e+57
