#sample_394_stacked_spectrum_rest_UV-bands_median_H-alpha_noDC.txt
#median Lum: 1.66828e+42
#Rest-frame wavelength (A) | Luminosity (erg/s/A)
#
          1110.00000	         0.00000e+00
          1110.80630	         1.58631e+59
          1111.61260	        -6.73968e+58
          1112.41890	        -4.20869e+58
          1113.22520	        -6.86536e+58
          1114.03150	        -2.36676e+58
          1114.83780	         3.69197e+59
          1115.64410	         2.49322e+59
          1116.45040	         2.00542e+59
          1117.25670	         1.22772e+58
          1118.06300	         1.11461e+59
          1118.86930	         4.54388e+58
          1119.67560	         1.25009e+59
          1120.48190	         2.48028e+58
          1121.28820	        -1.56714e+59
          1122.09450	        -2.84226e+58
          1122.90080	        -2.71055e+58
          1123.70710	         6.59054e+58
          1124.51340	         7.77181e+58
          1125.31970	        -2.68807e+58
          1126.12600	         1.14901e+58
          1126.93230	        -4.65589e+58
          1127.73860	        -3.85702e+58
          1128.54490	        -5.15180e+56
          1129.35120	         3.74232e+58
          1130.15750	         3.31500e+57
          1130.96380	         2.20862e+57
          1131.77010	         5.51824e+58
          1132.57640	         5.30315e+58
          1133.38270	         5.87167e+58
          1134.18900	         1.38698e+58
          1134.99530	        -4.74889e+57
          1135.80160	         8.09924e+57
          1136.60790	         8.83192e+57
          1137.41420	        -1.77873e+58
          1138.22050	         4.33970e+58
          1139.02680	         4.04657e+58
          1139.83310	         3.55302e+58
          1140.63940	         1.14925e+58
          1141.44570	        -3.09676e+58
          1142.25200	        -1.88800e+57
          1143.05830	        -2.92085e+57
          1143.86460	         1.27578e+58
          1144.67090	         4.99733e+58
          1145.47720	         2.51088e+58
          1146.28350	         8.22313e+57
          1147.08980	         6.16805e+57
          1147.89610	         1.61113e+58
          1148.70240	         3.43475e+58
          1149.50870	         2.67127e+58
          1150.31500	         1.75923e+58
          1151.12130	         5.14632e+57
          1151.92760	         1.05855e+58
          1152.73390	         4.41397e+57
          1153.54020	         9.73918e+57
          1154.34650	         2.97840e+58
          1155.15280	         2.26301e+58
          1155.95910	         6.94257e+57
          1156.76540	         5.30882e+57
          1157.57170	         1.19081e+57
          1158.37800	        -4.62129e+57
          1159.18430	         8.78121e+56
          1159.99060	         1.89653e+57
          1160.79690	         1.31956e+57
          1161.60320	         3.79241e+57
          1162.40950	         1.36373e+58
          1163.21580	         1.11586e+58
          1164.02210	         1.35792e+58
          1164.82840	         1.87416e+58
          1165.63470	         2.32430e+58
          1166.44100	         3.09596e+58
          1167.24730	         2.67020e+58
          1168.05360	         2.01605e+58
          1168.85990	         6.11558e+57
          1169.66620	         4.47602e+57
          1170.47250	         1.26116e+58
          1171.27880	         1.74903e+58
          1172.08510	         1.33355e+58
          1172.89140	         2.96570e+57
          1173.69770	         3.04959e+57
          1174.50400	         1.20512e+58
          1175.31030	         1.82406e+58
          1176.11660	         1.39682e+58
          1176.92290	         1.45000e+58
          1177.72920	         1.11938e+58
          1178.53550	         4.34165e+57
          1179.34180	         3.44546e+57
          1180.14810	         5.43745e+57
          1180.95440	         6.73444e+57
          1181.76070	         7.05443e+57
          1182.56700	         8.04546e+57
          1183.37330	         6.61595e+57
          1184.17960	         1.12869e+58
          1184.98590	         1.20266e+58
          1185.79220	         6.51223e+57
          1186.59850	         8.28086e+57
          1187.40480	         7.06474e+57
          1188.21110	         1.48566e+58
          1189.01740	         1.22290e+58
          1189.82370	         1.37101e+58
          1190.63000	         1.64909e+58
          1191.43630	         1.68164e+58
          1192.24260	         8.67158e+57
          1193.04890	         1.52372e+58
          1193.85520	         1.18487e+58
          1194.66150	         8.55670e+57
          1195.46780	         1.26770e+58
          1196.27410	         1.26801e+58
          1197.08040	         8.95570e+57
          1197.88670	         1.38949e+58
          1198.69300	         1.36362e+58
          1199.49930	         1.03495e+58
          1200.30560	         1.04680e+58
          1201.11190	         1.28402e+58
          1201.91820	         9.58586e+57
          1202.72450	         5.96207e+57
          1203.53080	         1.36104e+58
          1204.33710	         7.10791e+57
          1205.14340	         6.28218e+57
          1205.94970	         7.02545e+57
          1206.75600	         4.30636e+57
          1207.56230	         3.49676e+57
          1208.36860	         4.36922e+57
          1209.17490	         9.31306e+56
          1209.98120	         5.16949e+57
          1210.78750	         1.22469e+58
          1211.59380	         1.34825e+58
          1212.40010	         1.39468e+58
          1213.20640	         1.76183e+58
          1214.01270	         2.01431e+58
          1214.81900	         2.54594e+58
          1215.62530	         4.31830e+58
          1216.43160	         8.80923e+58
          1217.23790	         1.46633e+59
          1218.04420	         1.14468e+59
          1218.85050	         8.81866e+58
          1219.65680	         5.72045e+58
          1220.46310	         3.00425e+58
          1221.26940	         2.36526e+58
          1222.07570	         1.64227e+58
          1222.88200	         9.70107e+57
          1223.68830	         8.83222e+57
          1224.49460	         8.07449e+57
          1225.30090	         7.33955e+57
          1226.10720	         7.62264e+57
          1226.91350	         7.01389e+57
          1227.71980	         8.74830e+57
          1228.52610	         1.22585e+58
          1229.33240	         8.35153e+57
          1230.13870	         9.25325e+57
          1230.94500	         1.00001e+58
          1231.75130	         6.87967e+57
          1232.55760	         7.52788e+57
          1233.36390	         8.58466e+57
          1234.17020	         7.01667e+57
          1234.97650	         7.39230e+57
          1235.78280	         8.65582e+57
          1236.58910	         9.38209e+57
          1237.39540	         1.01125e+58
          1238.20170	         8.72522e+57
          1239.00800	         1.02651e+58
          1239.81430	         1.42152e+58
          1240.62060	         9.63553e+57
          1241.42690	         8.72200e+57
          1242.23320	         1.13260e+58
          1243.03950	         6.75682e+57
          1243.84580	         8.62909e+57
          1244.65210	         1.29638e+58
          1245.45840	         1.32708e+58
          1246.26470	         1.04854e+58
          1247.07100	         9.14607e+57
          1247.87730	         7.84213e+57
          1248.68360	         3.98733e+57
          1249.48990	         6.59292e+57
          1250.29620	         1.17793e+58
          1251.10250	         1.15869e+58
          1251.90880	         5.95360e+57
          1252.71510	         7.84131e+57
          1253.52140	         9.38471e+57
          1254.32770	         1.19641e+58
          1255.13400	         1.51855e+58
          1255.94030	         1.24345e+58
          1256.74660	         1.21451e+58
          1257.55290	         1.23631e+58
          1258.35920	         9.00672e+57
          1259.16550	         5.85740e+57
          1259.97180	         4.11759e+57
          1260.77810	         6.71677e+57
          1261.58440	         1.02838e+58
          1262.39070	         8.47411e+57
          1263.19700	         6.36202e+57
          1264.00330	         7.32615e+57
          1264.80960	         1.04383e+58
          1265.61590	         1.33766e+58
          1266.42220	         1.21244e+58
          1267.22850	         1.10748e+58
          1268.03480	         1.32002e+58
          1268.84110	         1.30094e+58
          1269.64740	         1.09614e+58
          1270.45370	         1.09268e+58
          1271.26000	         1.25293e+58
          1272.06630	         1.45116e+58
          1272.87260	         1.24054e+58
          1273.67890	         1.15957e+58
          1274.48520	         1.32518e+58
          1275.29150	         1.31253e+58
          1276.09780	         1.15861e+58
          1276.90410	         1.42934e+58
          1277.71040	         1.31600e+58
          1278.51670	         1.27581e+58
          1279.32300	         1.43813e+58
          1280.12930	         1.33440e+58
          1280.93560	         1.05830e+58
          1281.74190	         1.24138e+58
          1282.54820	         1.32532e+58
          1283.35450	         1.05073e+58
          1284.16080	         1.20534e+58
          1284.96710	         1.56054e+58
          1285.77340	         1.44772e+58
          1286.57970	         1.29263e+58
          1287.38600	         1.47414e+58
          1288.19230	         1.68573e+58
          1288.99860	         1.54045e+58
          1289.80490	         1.06293e+58
          1290.61120	         1.04088e+58
          1291.41750	         1.16146e+58
          1292.22380	         1.02800e+58
          1293.03010	         1.10084e+58
          1293.83640	         1.07422e+58
          1294.64270	         8.71203e+57
          1295.44900	         5.94395e+57
          1296.25530	         6.87631e+57
          1297.06160	         1.06554e+58
          1297.86790	         1.19730e+58
          1298.67420	         1.14899e+58
          1299.48050	         1.13358e+58
          1300.28680	         1.03144e+58
          1301.09310	         7.10111e+57
          1301.89940	         3.59173e+57
          1302.70570	         5.70039e+57
          1303.51200	         8.18549e+57
          1304.31830	         9.78434e+57
          1305.12460	         1.15675e+58
          1305.93090	         1.11593e+58
          1306.73720	         1.26670e+58
          1307.54350	         1.45538e+58
          1308.34980	         1.59649e+58
          1309.15610	         1.58242e+58
          1309.96240	         1.53639e+58
          1310.76870	         1.48816e+58
          1311.57500	         1.28590e+58
          1312.38130	         1.24607e+58
          1313.18760	         1.19843e+58
          1313.99390	         1.40885e+58
          1314.80020	         1.80234e+58
          1315.60650	         1.59735e+58
          1316.41280	         1.31913e+58
          1317.21910	         1.05081e+58
          1318.02540	         1.18776e+58
          1318.83170	         1.31681e+58
          1319.63800	         1.11039e+58
          1320.44430	         1.03444e+58
          1321.25060	         1.19622e+58
          1322.05690	         1.37372e+58
          1322.86320	         1.25021e+58
          1323.66950	         1.06111e+58
          1324.47580	         1.01375e+58
          1325.28210	         1.05943e+58
          1326.08840	         1.21527e+58
          1326.89470	         1.38424e+58
          1327.70100	         1.10291e+58
          1328.50730	         8.14753e+57
          1329.31360	         8.35846e+57
          1330.11990	         9.31675e+57
          1330.92620	         1.11738e+58
          1331.73250	         1.25792e+58
          1332.53880	         9.04834e+57
          1333.34510	         9.49844e+57
          1334.15140	         9.28022e+57
          1334.95770	         8.94109e+57
          1335.76400	         1.05928e+58
          1336.57030	         1.09232e+58
          1337.37660	         1.08040e+58
          1338.18290	         1.16497e+58
          1338.98920	         1.21403e+58
          1339.79550	         1.28812e+58
          1340.60180	         1.35731e+58
          1341.40810	         1.41288e+58
          1342.21440	         1.22497e+58
          1343.02070	         1.07997e+58
          1343.82700	         1.24431e+58
          1344.63330	         1.41641e+58
          1345.43960	         1.51000e+58
          1346.24590	         1.15613e+58
          1347.05220	         1.12248e+58
          1347.85850	         1.07103e+58
          1348.66480	         1.12803e+58
          1349.47110	         1.23769e+58
          1350.27740	         1.16117e+58
          1351.08370	         1.18276e+58
          1351.89000	         1.19453e+58
          1352.69630	         1.29780e+58
          1353.50260	         1.21610e+58
          1354.30890	         1.28010e+58
          1355.11520	         1.42594e+58
          1355.92150	         1.36527e+58
          1356.72780	         1.19506e+58
          1357.53410	         1.05239e+58
          1358.34040	         1.02696e+58
          1359.14670	         1.12987e+58
          1359.95300	         1.29580e+58
          1360.75930	         1.16799e+58
          1361.56560	         1.06163e+58
          1362.37190	         1.22393e+58
          1363.17820	         1.22176e+58
          1363.98450	         1.23651e+58
          1364.79080	         1.24832e+58
          1365.59710	         1.21494e+58
          1366.40340	         1.14929e+58
          1367.20970	         9.17605e+57
          1368.01600	         9.52552e+57
          1368.82230	         9.68302e+57
          1369.62860	         8.59169e+57
          1370.43490	         9.19017e+57
          1371.24120	         9.43294e+57
          1372.04750	         8.66859e+57
          1372.85380	         1.13448e+58
          1373.66010	         1.15824e+58
          1374.46640	         9.98762e+57
          1375.27270	         1.02470e+58
          1376.07900	         9.14094e+57
          1376.88530	         7.77127e+57
          1377.69160	         8.01331e+57
          1378.49790	         6.25500e+57
          1379.30420	         7.60497e+57
          1380.11050	         1.00913e+58
          1380.91680	         7.70362e+57
          1381.72310	         7.56930e+57
          1382.52940	         8.50528e+57
          1383.33570	         8.72700e+57
          1384.14200	         9.80378e+57
          1384.94830	         1.15095e+58
          1385.75460	         1.11837e+58
          1386.56090	         1.24241e+58
          1387.36720	         1.29274e+58
          1388.17350	         1.35893e+58
          1388.97980	         1.34561e+58
          1389.78610	         1.13524e+58
          1390.59240	         7.66700e+57
          1391.39870	         6.86270e+57
          1392.20500	         8.10149e+57
          1393.01130	         7.35243e+57
          1393.81760	         7.82777e+57
          1394.62390	         8.38949e+57
          1395.43020	         5.33111e+57
          1396.23650	         6.76226e+57
          1397.04280	         8.90718e+57
          1397.84910	         9.28533e+57
          1398.65540	         9.21881e+57
          1399.46170	         9.53657e+57
          1400.26800	         8.37925e+57
          1401.07430	         7.26488e+57
          1401.88060	         8.54323e+57
          1402.68690	         9.30310e+57
          1403.49320	         9.88285e+57
          1404.29950	         9.20270e+57
          1405.10580	         1.04578e+58
          1405.91210	         1.15822e+58
          1406.71840	         1.09044e+58
          1407.52470	         1.09990e+58
          1408.33100	         1.11581e+58
          1409.13730	         1.26381e+58
          1409.94360	         1.21480e+58
          1410.74990	         1.11378e+58
          1411.55620	         1.05032e+58
          1412.36250	         1.11128e+58
          1413.16880	         1.08828e+58
          1413.97510	         8.73899e+57
          1414.78140	         8.87095e+57
          1415.58770	         1.04070e+58
          1416.39400	         1.11409e+58
          1417.20030	         1.09632e+58
          1418.00660	         9.17084e+57
          1418.81290	         1.01750e+58
          1419.61920	         9.61074e+57
          1420.42550	         1.22215e+58
          1421.23180	         1.42704e+58
          1422.03810	         1.26295e+58
          1422.84440	         1.16444e+58
          1423.65070	         1.34544e+58
          1424.45700	         1.26871e+58
          1425.26330	         9.06495e+57
          1426.06960	         8.76012e+57
          1426.87590	         1.05863e+58
          1427.68220	         9.77021e+57
          1428.48850	         1.05739e+58
          1429.29480	         1.14114e+58
          1430.10110	         1.10378e+58
          1430.90740	         9.10801e+57
          1431.71370	         8.31235e+57
          1432.52000	         9.46491e+57
          1433.32630	         8.29581e+57
          1434.13260	         7.16675e+57
          1434.93890	         8.49232e+57
          1435.74520	         9.70243e+57
          1436.55150	         9.33321e+57
          1437.35780	         8.80682e+57
          1438.16410	         8.78934e+57
          1438.97040	         8.86854e+57
          1439.77670	         9.02080e+57
          1440.58300	         8.87884e+57
          1441.38930	         9.59526e+57
          1442.19560	         1.08069e+58
          1443.00190	         1.05292e+58
          1443.80820	         1.12948e+58
          1444.61450	         1.08931e+58
          1445.42080	         9.91773e+57
          1446.22710	         9.46850e+57
          1447.03340	         9.15374e+57
          1447.83970	         9.38380e+57
          1448.64600	         1.03714e+58
          1449.45230	         1.02238e+58
          1450.25860	         1.01269e+58
          1451.06490	         8.67930e+57
          1451.87120	         7.36113e+57
          1452.67750	         7.58678e+57
          1453.48380	         8.38585e+57
          1454.29010	         8.54924e+57
          1455.09640	         8.76738e+57
          1455.90270	         9.70003e+57
          1456.70900	         1.04107e+58
          1457.51530	         1.02638e+58
          1458.32160	         1.23879e+58
          1459.12790	         1.26057e+58
          1459.93420	         1.09959e+58
          1460.74050	         9.33373e+57
          1461.54680	         7.97458e+57
          1462.35310	         8.25532e+57
          1463.15940	         1.02573e+58
          1463.96570	         1.17337e+58
          1464.77200	         1.21527e+58
          1465.57830	         1.16621e+58
          1466.38460	         9.30086e+57
          1467.19090	         7.93475e+57
          1467.99720	         9.50879e+57
          1468.80350	         1.04596e+58
          1469.60980	         1.01055e+58
          1470.41610	         1.03341e+58
          1471.22240	         9.44885e+57
          1472.02870	         1.06409e+58
          1472.83500	         9.52565e+57
          1473.64130	         9.85630e+57
          1474.44760	         1.10064e+58
          1475.25390	         8.98767e+57
          1476.06020	         8.15942e+57
          1476.86650	         7.95349e+57
          1477.67280	         8.32049e+57
          1478.47910	         8.20896e+57
          1479.28540	         8.19618e+57
          1480.09170	         9.48466e+57
          1480.89800	         9.00378e+57
          1481.70430	         9.73309e+57
          1482.51060	         9.23642e+57
          1483.31690	         7.48146e+57
          1484.12320	         8.31633e+57
          1484.92950	         9.01015e+57
          1485.73580	         9.12432e+57
          1486.54210	         9.01789e+57
          1487.34840	         8.69178e+57
          1488.15470	         8.28481e+57
          1488.96100	         8.72933e+57
          1489.76730	         8.74403e+57
