#sample_477_stacked_spectrum_rest_UV-bands_median_H-alpha_noDC.txt
#median Lum: 1.69256e+42
#Rest-frame wavelength (A) | Luminosity (erg/s/A)
#
          1110.00000	         0.00000e+00
          1110.80630	        -3.89170e+58
          1111.61260	         9.59187e+58
          1112.41890	         1.60684e+59
          1113.22520	         8.35223e+58
          1114.03150	        -5.76028e+58
          1114.83780	         5.54001e+58
          1115.64410	         1.21182e+59
          1116.45040	         1.36934e+59
          1117.25670	         9.96946e+58
          1118.06300	         1.45530e+59
          1118.86930	        -2.43734e+58
          1119.67560	         2.10353e+59
          1120.48190	         7.44746e+58
          1121.28820	        -4.95512e+58
          1122.09450	        -3.66344e+58
          1122.90080	        -4.45482e+58
          1123.70710	         4.33741e+58
          1124.51340	         8.95695e+58
          1125.31970	         3.55809e+58
          1126.12600	        -1.00878e+58
          1126.93230	        -1.81153e+58
          1127.73860	        -4.67558e+58
          1128.54490	         1.02040e+58
          1129.35120	         1.83871e+58
          1130.15750	        -2.97461e+58
          1130.96380	        -6.02713e+57
          1131.77010	         1.34232e+58
          1132.57640	        -1.00254e+58
          1133.38270	         2.28516e+57
          1134.18900	         3.08465e+58
          1134.99530	         2.71177e+58
          1135.80160	         2.48739e+58
          1136.60790	        -1.32041e+58
          1137.41420	        -1.05180e+58
          1138.22050	         6.06228e+58
          1139.02680	         1.85689e+58
          1139.83310	         1.07608e+58
          1140.63940	         2.33985e+58
          1141.44570	         1.46132e+58
          1142.25200	        -2.33094e+57
          1143.05830	         2.64702e+57
          1143.86460	         2.46292e+58
          1144.67090	         3.07245e+58
          1145.47720	         1.68316e+58
          1146.28350	         1.74573e+58
          1147.08980	         1.77461e+58
          1147.89610	         1.98979e+58
          1148.70240	         1.49587e+58
          1149.50870	         6.94461e+57
          1150.31500	         1.04785e+58
          1151.12130	         1.49433e+57
          1151.92760	         3.62761e+57
          1152.73390	        -1.46493e+58
          1153.54020	        -1.50630e+58
          1154.34650	         1.64504e+58
          1155.15280	         1.99885e+58
          1155.95910	         1.51692e+58
          1156.76540	         4.74245e+57
          1157.57170	        -6.72475e+57
          1158.37800	        -2.37044e+57
          1159.18430	         1.03739e+57
          1159.99060	         7.62664e+57
          1160.79690	         5.65057e+57
          1161.60320	         1.15276e+58
          1162.40950	         1.51525e+58
          1163.21580	         1.68079e+58
          1164.02210	         1.13806e+58
          1164.82840	         5.79441e+57
          1165.63470	         1.43730e+58
          1166.44100	         2.96066e+58
          1167.24730	         3.05810e+58
          1168.05360	         1.47938e+58
          1168.85990	         1.60566e+58
          1169.66620	         1.57063e+58
          1170.47250	         8.33846e+57
          1171.27880	         7.83673e+57
          1172.08510	         1.14020e+58
          1172.89140	         9.28338e+57
          1173.69770	         1.09955e+58
          1174.50400	         1.34197e+58
          1175.31030	         1.60104e+58
          1176.11660	         1.95363e+58
          1176.92290	         1.51724e+58
          1177.72920	         1.14588e+58
          1178.53550	         8.41565e+57
          1179.34180	         7.81029e+57
          1180.14810	         1.30453e+58
          1180.95440	         1.43023e+58
          1181.76070	         1.46778e+58
          1182.56700	         1.22077e+58
          1183.37330	         8.85037e+57
          1184.17960	         1.19358e+58
          1184.98590	         1.27443e+58
          1185.79220	         7.75588e+57
          1186.59850	         6.97952e+57
          1187.40480	         4.77063e+57
          1188.21110	         1.64181e+58
          1189.01740	         8.30055e+57
          1189.82370	         3.42006e+57
          1190.63000	         1.37751e+58
          1191.43630	         1.69268e+58
          1192.24260	         1.22586e+58
          1193.04890	         1.26452e+58
          1193.85520	         8.50023e+57
          1194.66150	        -5.06122e+56
          1195.46780	         3.57077e+57
          1196.27410	         6.03173e+57
          1197.08040	         9.22009e+57
          1197.88670	         1.48671e+58
          1198.69300	         1.34358e+58
          1199.49930	         1.51030e+58
          1200.30560	         8.34632e+57
          1201.11190	         4.58099e+57
          1201.91820	         9.84372e+57
          1202.72450	         7.54875e+57
          1203.53080	         1.75180e+58
          1204.33710	         1.03220e+58
          1205.14340	         1.22677e+58
          1205.94970	         9.07803e+57
          1206.75600	         8.35086e+57
          1207.56230	         6.98877e+57
          1208.36860	         7.20984e+57
          1209.17490	         5.21223e+57
          1209.98120	         7.12287e+57
          1210.78750	         1.10797e+58
          1211.59380	         1.44174e+58
          1212.40010	         1.97749e+58
          1213.20640	         2.18913e+58
          1214.01270	         2.10929e+58
          1214.81900	         2.76757e+58
          1215.62530	         4.95852e+58
          1216.43160	         9.58205e+58
          1217.23790	         1.51196e+59
          1218.04420	         1.12260e+59
          1218.85050	         8.70903e+58
          1219.65680	         5.38140e+58
          1220.46310	         2.75348e+58
          1221.26940	         2.16032e+58
          1222.07570	         1.59502e+58
          1222.88200	         1.56031e+58
          1223.68830	         1.07331e+58
          1224.49460	         6.76637e+57
          1225.30090	         4.94428e+57
          1226.10720	         5.05793e+57
          1226.91350	         6.19400e+57
          1227.71980	         1.07330e+58
          1228.52610	         1.19466e+58
          1229.33240	         9.62677e+57
          1230.13870	         8.36336e+57
          1230.94500	         8.48644e+57
          1231.75130	         7.95329e+57
          1232.55760	         8.29534e+57
          1233.36390	         9.37758e+57
          1234.17020	         5.92182e+57
          1234.97650	         5.18914e+57
          1235.78280	         6.66887e+57
          1236.58910	         8.11037e+57
          1237.39540	         1.04702e+58
          1238.20170	         1.21441e+58
          1239.00800	         1.39352e+58
          1239.81430	         1.59227e+58
          1240.62060	         1.22588e+58
          1241.42690	         9.91531e+57
          1242.23320	         9.02207e+57
          1243.03950	         6.11407e+57
          1243.84580	         6.33690e+57
          1244.65210	         8.33531e+57
          1245.45840	         8.94194e+57
          1246.26470	         7.00610e+57
          1247.07100	         6.40290e+57
          1247.87730	         5.10882e+57
          1248.68360	         4.01688e+57
          1249.48990	         5.88159e+57
          1250.29620	         8.59972e+57
          1251.10250	         8.83081e+57
          1251.90880	         5.73066e+57
          1252.71510	         6.17619e+57
          1253.52140	         9.51290e+57
          1254.32770	         9.76505e+57
          1255.13400	         1.15532e+58
          1255.94030	         1.04984e+58
          1256.74660	         9.87936e+57
          1257.55290	         1.18055e+58
          1258.35920	         9.27917e+57
          1259.16550	         5.20567e+57
          1259.97180	         4.59388e+57
          1260.77810	         9.09414e+57
          1261.58440	         1.18750e+58
          1262.39070	         9.72917e+57
          1263.19700	         1.06696e+58
          1264.00330	         1.19451e+58
          1264.80960	         1.16713e+58
          1265.61590	         1.09078e+58
          1266.42220	         1.14284e+58
          1267.22850	         1.09138e+58
          1268.03480	         1.41263e+58
          1268.84110	         1.52873e+58
          1269.64740	         1.35630e+58
          1270.45370	         1.35611e+58
          1271.26000	         1.19805e+58
          1272.06630	         1.04658e+58
          1272.87260	         9.46665e+57
          1273.67890	         1.07157e+58
          1274.48520	         1.23973e+58
          1275.29150	         1.13692e+58
          1276.09780	         9.06188e+57
          1276.90410	         1.25707e+58
          1277.71040	         1.12052e+58
          1278.51670	         1.31406e+58
          1279.32300	         1.58956e+58
          1280.12930	         1.19920e+58
          1280.93560	         8.69909e+57
          1281.74190	         1.06842e+58
          1282.54820	         1.36586e+58
          1283.35450	         1.16505e+58
          1284.16080	         1.17941e+58
          1284.96710	         1.50132e+58
          1285.77340	         1.06480e+58
          1286.57970	         1.04538e+58
          1287.38600	         1.56214e+58
          1288.19230	         1.77175e+58
          1288.99860	         1.81216e+58
          1289.80490	         1.22814e+58
          1290.61120	         1.17076e+58
          1291.41750	         1.28543e+58
          1292.22380	         1.28516e+58
          1293.03010	         1.23057e+58
          1293.83640	         1.13172e+58
          1294.64270	         1.00345e+58
          1295.44900	         5.37490e+57
          1296.25530	         5.62907e+57
          1297.06160	         9.40961e+57
          1297.86790	         1.16348e+58
          1298.67420	         1.10615e+58
          1299.48050	         9.46751e+57
          1300.28680	         9.74118e+57
          1301.09310	         9.50676e+57
          1301.89940	         3.60844e+57
          1302.70570	         6.42156e+57
          1303.51200	         9.33765e+57
          1304.31830	         9.35589e+57
          1305.12460	         1.01393e+58
          1305.93090	         1.07899e+58
          1306.73720	         1.25250e+58
          1307.54350	         1.45770e+58
          1308.34980	         1.34778e+58
          1309.15610	         1.33814e+58
          1309.96240	         1.49240e+58
          1310.76870	         1.33265e+58
          1311.57500	         1.04759e+58
          1312.38130	         1.20351e+58
          1313.18760	         1.50915e+58
          1313.99390	         1.71389e+58
          1314.80020	         1.64745e+58
          1315.60650	         1.40546e+58
          1316.41280	         1.33238e+58
          1317.21910	         1.27433e+58
          1318.02540	         1.35615e+58
          1318.83170	         1.26796e+58
          1319.63800	         1.26902e+58
          1320.44430	         1.26326e+58
          1321.25060	         1.19732e+58
          1322.05690	         1.21663e+58
          1322.86320	         1.26362e+58
          1323.66950	         1.01748e+58
          1324.47580	         9.37919e+57
          1325.28210	         1.07112e+58
          1326.08840	         1.20785e+58
          1326.89470	         1.21042e+58
          1327.70100	         1.01022e+58
          1328.50730	         8.29012e+57
          1329.31360	         9.38339e+57
          1330.11990	         9.10186e+57
          1330.92620	         9.58655e+57
          1331.73250	         1.10565e+58
          1332.53880	         1.01614e+58
          1333.34510	         1.01942e+58
          1334.15140	         9.54753e+57
          1334.95770	         8.73648e+57
          1335.76400	         1.01364e+58
          1336.57030	         1.10096e+58
          1337.37660	         1.01231e+58
          1338.18290	         9.76232e+57
          1338.98920	         1.26181e+58
          1339.79550	         1.36078e+58
          1340.60180	         1.17926e+58
          1341.40810	         1.12549e+58
          1342.21440	         9.85173e+57
          1343.02070	         1.04023e+58
          1343.82700	         1.32844e+58
          1344.63330	         1.41995e+58
          1345.43960	         1.32916e+58
          1346.24590	         1.01512e+58
          1347.05220	         1.03158e+58
          1347.85850	         9.47800e+57
          1348.66480	         1.13568e+58
          1349.47110	         1.33442e+58
          1350.27740	         1.19573e+58
          1351.08370	         1.13223e+58
          1351.89000	         1.05985e+58
          1352.69630	         1.15018e+58
          1353.50260	         1.15305e+58
          1354.30890	         1.16394e+58
          1355.11520	         1.19160e+58
          1355.92150	         1.06898e+58
          1356.72780	         1.03421e+58
          1357.53410	         1.11528e+58
          1358.34040	         1.10315e+58
          1359.14670	         1.03093e+58
          1359.95300	         1.11141e+58
          1360.75930	         1.19422e+58
          1361.56560	         1.15005e+58
          1362.37190	         1.12146e+58
          1363.17820	         1.12182e+58
          1363.98450	         1.10240e+58
          1364.79080	         1.27574e+58
          1365.59710	         1.36817e+58
          1366.40340	         1.19575e+58
          1367.20970	         1.02267e+58
          1368.01600	         1.08402e+58
          1368.82230	         9.88728e+57
          1369.62860	         9.61089e+57
          1370.43490	         8.29065e+57
          1371.24120	         9.10271e+57
          1372.04750	         8.00755e+57
          1372.85380	         9.29016e+57
          1373.66010	         1.15484e+58
          1374.46640	         1.05273e+58
          1375.27270	         1.05626e+58
          1376.07900	         9.74652e+57
          1376.88530	         7.79526e+57
          1377.69160	         9.26174e+57
          1378.49790	         8.70447e+57
          1379.30420	         7.78322e+57
          1380.11050	         9.14150e+57
          1380.91680	         7.20561e+57
          1381.72310	         6.96234e+57
          1382.52940	         8.68879e+57
          1383.33570	         9.35217e+57
          1384.14200	         1.10229e+58
          1384.94830	         1.13309e+58
          1385.75460	         1.01029e+58
          1386.56090	         1.00893e+58
          1387.36720	         9.39401e+57
          1388.17350	         1.12295e+58
          1388.97980	         1.11663e+58
          1389.78610	         9.23340e+57
          1390.59240	         7.89576e+57
          1391.39870	         7.28463e+57
          1392.20500	         8.06725e+57
          1393.01130	         8.44158e+57
          1393.81760	         8.36006e+57
          1394.62390	         7.97967e+57
          1395.43020	         7.53267e+57
          1396.23650	         6.68371e+57
          1397.04280	         5.67036e+57
          1397.84910	         7.08007e+57
          1398.65540	         7.98599e+57
          1399.46170	         9.47738e+57
          1400.26800	         9.29531e+57
          1401.07430	         7.53254e+57
          1401.88060	         7.23009e+57
          1402.68690	         9.30023e+57
          1403.49320	         1.02478e+58
          1404.29950	         9.49270e+57
          1405.10580	         1.00551e+58
          1405.91210	         1.04855e+58
          1406.71840	         9.86237e+57
          1407.52470	         1.02001e+58
          1408.33100	         9.96104e+57
          1409.13730	         1.02923e+58
          1409.94360	         1.11874e+58
          1410.74990	         1.13749e+58
          1411.55620	         1.01288e+58
          1412.36250	         9.17111e+57
          1413.16880	         8.98241e+57
          1413.97510	         9.27189e+57
          1414.78140	         8.74203e+57
          1415.58770	         8.53728e+57
          1416.39400	         9.25670e+57
          1417.20030	         9.24948e+57
          1418.00660	         8.38069e+57
          1418.81290	         9.64948e+57
          1419.61920	         1.11827e+58
          1420.42550	         1.16516e+58
          1421.23180	         1.28614e+58
          1422.03810	         1.23680e+58
          1422.84440	         1.14600e+58
          1423.65070	         1.30136e+58
          1424.45700	         1.23239e+58
          1425.26330	         8.89876e+57
          1426.06960	         8.50112e+57
          1426.87590	         1.01673e+58
          1427.68220	         1.01777e+58
          1428.48850	         1.09890e+58
          1429.29480	         1.07735e+58
          1430.10110	         9.86519e+57
          1430.90740	         7.75533e+57
          1431.71370	         7.10571e+57
          1432.52000	         7.63681e+57
          1433.32630	         7.35350e+57
          1434.13260	         7.26068e+57
          1434.93890	         7.41770e+57
          1435.74520	         8.16129e+57
          1436.55150	         7.90844e+57
          1437.35780	         7.91964e+57
          1438.16410	         8.12493e+57
          1438.97040	         8.97016e+57
          1439.77670	         9.38927e+57
          1440.58300	         8.94755e+57
          1441.38930	         9.51970e+57
          1442.19560	         9.53792e+57
          1443.00190	         1.02820e+58
          1443.80820	         1.14142e+58
          1444.61450	         8.55373e+57
          1445.42080	         7.31283e+57
          1446.22710	         9.07512e+57
          1447.03340	         8.69602e+57
          1447.83970	         9.51191e+57
          1448.64600	         9.81336e+57
          1449.45230	         9.11918e+57
          1450.25860	         9.33510e+57
          1451.06490	         8.45923e+57
          1451.87120	         7.14748e+57
          1452.67750	         7.46722e+57
          1453.48380	         8.90705e+57
          1454.29010	         7.12031e+57
          1455.09640	         7.43802e+57
          1455.90270	         8.05674e+57
          1456.70900	         8.08360e+57
          1457.51530	         8.52994e+57
          1458.32160	         1.10144e+58
          1459.12790	         1.03850e+58
          1459.93420	         8.62333e+57
          1460.74050	         7.23340e+57
          1461.54680	         7.36164e+57
          1462.35310	         6.09424e+57
          1463.15940	         8.62670e+57
          1463.96570	         1.13262e+58
          1464.77200	         1.15428e+58
          1465.57830	         9.73565e+57
          1466.38460	         9.38305e+57
          1467.19090	         8.16620e+57
          1467.99720	         8.01509e+57
          1468.80350	         9.01773e+57
          1469.60980	         9.57999e+57
          1470.41610	         9.62879e+57
          1471.22240	         9.05636e+57
          1472.02870	         9.59279e+57
          1472.83500	         1.01116e+58
          1473.64130	         1.06053e+58
          1474.44760	         1.12995e+58
          1475.25390	         1.00901e+58
          1476.06020	         8.35882e+57
          1476.86650	         7.84432e+57
          1477.67280	         7.21261e+57
          1478.47910	         6.61466e+57
          1479.28540	         7.31050e+57
          1480.09170	         7.82541e+57
          1480.89800	         8.47968e+57
          1481.70430	         8.55497e+57
          1482.51060	         8.51423e+57
          1483.31690	         8.39760e+57
          1484.12320	         7.01911e+57
          1484.92950	         7.32246e+57
          1485.73580	         7.62291e+57
          1486.54210	         7.23558e+57
          1487.34840	         7.94981e+57
          1488.15470	         7.83446e+57
          1488.96100	         8.25167e+57
          1489.76730	         8.43487e+57
