#sample_461_stacked_spectrum_rest_UV-bands_median_H-alpha_noDC.txt
#median Lum: 1.68570e+42
#Rest-frame wavelength (A) | Luminosity (erg/s/A)
#
          1110.00000	         0.00000e+00
          1110.80630	         3.60720e+59
          1111.61260	         4.49565e+59
          1112.41890	         1.78627e+59
          1113.22520	        -9.56826e+58
          1114.03150	        -4.90637e+58
          1114.83780	         2.04137e+59
          1115.64410	         1.88397e+58
          1116.45040	         8.73483e+57
          1117.25670	         1.52616e+59
          1118.06300	         1.07483e+59
          1118.86930	        -1.30982e+58
          1119.67560	         1.34340e+59
          1120.48190	         8.26628e+58
          1121.28820	        -9.68641e+58
          1122.09450	        -5.38395e+57
          1122.90080	         1.24093e+58
          1123.70710	         3.47251e+58
          1124.51340	         1.21598e+59
          1125.31970	        -1.26470e+58
          1126.12600	        -1.65341e+58
          1126.93230	        -3.94124e+58
          1127.73860	        -5.76498e+58
          1128.54490	        -1.18894e+58
          1129.35120	         8.54650e+57
          1130.15750	        -5.73821e+57
          1130.96380	        -1.69958e+58
          1131.77010	         5.57132e+58
          1132.57640	         5.46091e+58
          1133.38270	         1.21495e+58
          1134.18900	         5.96290e+57
          1134.99530	         6.22689e+57
          1135.80160	        -4.11121e+57
          1136.60790	         2.94272e+58
          1137.41420	         9.89991e+57
          1138.22050	         5.29641e+58
          1139.02680	         5.06272e+58
          1139.83310	         1.97253e+58
          1140.63940	         1.01394e+58
          1141.44570	        -1.02666e+58
          1142.25200	        -8.47779e+57
          1143.05830	         2.10283e+58
          1143.86460	         3.42003e+58
          1144.67090	         3.38554e+58
          1145.47720	         2.70052e+58
          1146.28350	         1.84095e+58
          1147.08980	         1.22570e+58
          1147.89610	         1.07895e+58
          1148.70240	         1.87334e+58
          1149.50870	         1.23166e+58
          1150.31500	         6.81262e+57
          1151.12130	         1.27473e+58
          1151.92760	         1.21633e+58
          1152.73390	         4.13176e+57
          1153.54020	        -5.80633e+56
          1154.34650	         1.72169e+58
          1155.15280	         2.01759e+58
          1155.95910	         1.81665e+58
          1156.76540	         1.97905e+58
          1157.57170	         1.80925e+57
          1158.37800	        -2.54200e+57
          1159.18430	         4.60225e+57
          1159.99060	         7.74518e+57
          1160.79690	         2.51129e+57
          1161.60320	         7.81428e+57
          1162.40950	         1.92590e+58
          1163.21580	         1.85384e+58
          1164.02210	         8.67096e+57
          1164.82840	         7.48818e+57
          1165.63470	         1.99684e+58
          1166.44100	         3.30963e+58
          1167.24730	         1.60703e+58
          1168.05360	         4.40919e+57
          1168.85990	         1.81592e+57
          1169.66620	         3.94717e+57
          1170.47250	         8.75076e+57
          1171.27880	         1.00545e+58
          1172.08510	         1.07110e+58
          1172.89140	         5.30004e+57
          1173.69770	         8.52778e+57
          1174.50400	         1.67134e+58
          1175.31030	         2.02260e+58
          1176.11660	         2.02885e+58
          1176.92290	         1.26048e+58
          1177.72920	         1.41675e+58
          1178.53550	         1.31642e+58
          1179.34180	         5.96885e+57
          1180.14810	         6.97174e+57
          1180.95440	         1.33782e+58
          1181.76070	         9.59513e+57
          1182.56700	         8.31947e+57
          1183.37330	         1.13570e+58
          1184.17960	         1.11233e+58
          1184.98590	         1.07711e+58
          1185.79220	         1.52139e+58
          1186.59850	         1.57135e+58
          1187.40480	         8.17757e+57
          1188.21110	         9.08104e+57
          1189.01740	         7.55974e+57
          1189.82370	         8.45245e+57
          1190.63000	         1.16746e+58
          1191.43630	         1.14644e+58
          1192.24260	         1.00258e+58
          1193.04890	         1.45356e+58
          1193.85520	         8.15643e+57
          1194.66150	         5.20454e+57
          1195.46780	         1.06742e+58
          1196.27410	         1.08418e+58
          1197.08040	         8.15011e+57
          1197.88670	         1.54767e+58
          1198.69300	         2.04581e+58
          1199.49930	         1.93976e+58
          1200.30560	         1.21663e+58
          1201.11190	         1.17690e+58
          1201.91820	         8.76693e+57
          1202.72450	         6.89410e+57
          1203.53080	         1.18981e+58
          1204.33710	         1.04679e+58
          1205.14340	         8.96580e+57
          1205.94970	         8.38236e+57
          1206.75600	         7.95722e+57
          1207.56230	         4.66233e+57
          1208.36860	         6.97616e+57
          1209.17490	         4.43768e+57
          1209.98120	         5.90036e+57
          1210.78750	         6.55855e+57
          1211.59380	         1.32025e+58
          1212.40010	         1.89774e+58
          1213.20640	         2.16983e+58
          1214.01270	         2.01432e+58
          1214.81900	         2.58890e+58
          1215.62530	         4.76812e+58
          1216.43160	         9.33209e+58
          1217.23790	         1.49412e+59
          1218.04420	         1.12693e+59
          1218.85050	         8.53567e+58
          1219.65680	         5.87583e+58
          1220.46310	         3.36753e+58
          1221.26940	         2.11378e+58
          1222.07570	         1.33595e+58
          1222.88200	         1.12416e+58
          1223.68830	         9.62441e+57
          1224.49460	         6.06157e+57
          1225.30090	         7.47136e+57
          1226.10720	         6.40122e+57
          1226.91350	         3.34283e+57
          1227.71980	         5.57561e+57
          1228.52610	         1.04525e+58
          1229.33240	         9.53300e+57
          1230.13870	         1.05310e+58
          1230.94500	         9.39582e+57
          1231.75130	         3.88317e+57
          1232.55760	         6.90794e+57
          1233.36390	         1.16454e+58
          1234.17020	         1.00684e+58
          1234.97650	         8.32147e+57
          1235.78280	         9.03737e+57
          1236.58910	         1.00768e+58
          1237.39540	         1.06818e+58
          1238.20170	         1.15044e+58
          1239.00800	         1.35404e+58
          1239.81430	         1.35068e+58
          1240.62060	         8.34472e+57
          1241.42690	         7.44913e+57
          1242.23320	         1.06175e+58
          1243.03950	         1.04925e+58
          1243.84580	         1.01959e+58
          1244.65210	         1.04166e+58
          1245.45840	         9.54840e+57
          1246.26470	         8.15970e+57
          1247.07100	         6.30297e+57
          1247.87730	         4.81763e+57
          1248.68360	         3.08814e+57
          1249.48990	         6.68358e+57
          1250.29620	         9.53975e+57
          1251.10250	         6.59307e+57
          1251.90880	         4.21645e+57
          1252.71510	         4.85421e+57
          1253.52140	         6.17058e+57
          1254.32770	         1.05287e+58
          1255.13400	         1.24843e+58
          1255.94030	         1.00750e+58
          1256.74660	         9.16975e+57
          1257.55290	         1.01990e+58
          1258.35920	         6.70104e+57
          1259.16550	         5.74850e+57
          1259.97180	         3.81606e+57
          1260.77810	         9.31871e+57
          1261.58440	         8.26167e+57
          1262.39070	         8.52353e+57
          1263.19700	         9.14540e+57
          1264.00330	         1.03362e+58
          1264.80960	         1.01244e+58
          1265.61590	         1.10700e+58
          1266.42220	         1.27938e+58
          1267.22850	         1.22001e+58
          1268.03480	         1.43992e+58
          1268.84110	         1.43096e+58
          1269.64740	         1.25860e+58
          1270.45370	         1.20447e+58
          1271.26000	         9.01978e+57
          1272.06630	         1.09420e+58
          1272.87260	         1.30414e+58
          1273.67890	         1.24061e+58
          1274.48520	         1.16686e+58
          1275.29150	         1.20457e+58
          1276.09780	         1.35304e+58
          1276.90410	         1.52917e+58
          1277.71040	         1.38574e+58
          1278.51670	         1.26105e+58
          1279.32300	         1.42281e+58
          1280.12930	         1.14029e+58
          1280.93560	         1.11667e+58
          1281.74190	         1.49736e+58
          1282.54820	         1.47488e+58
          1283.35450	         1.21616e+58
          1284.16080	         1.02907e+58
          1284.96710	         1.08171e+58
          1285.77340	         1.07721e+58
          1286.57970	         1.18549e+58
          1287.38600	         1.47004e+58
          1288.19230	         1.68272e+58
          1288.99860	         1.32275e+58
          1289.80490	         8.58386e+57
          1290.61120	         1.15073e+58
          1291.41750	         1.19212e+58
          1292.22380	         1.26572e+58
          1293.03010	         1.13067e+58
          1293.83640	         1.11996e+58
          1294.64270	         1.02009e+58
          1295.44900	         6.53651e+57
          1296.25530	         7.58558e+57
          1297.06160	         8.45260e+57
          1297.86790	         7.60156e+57
          1298.67420	         9.74479e+57
          1299.48050	         1.03156e+58
          1300.28680	         7.75462e+57
          1301.09310	         6.13097e+57
          1301.89940	         4.08448e+57
          1302.70570	         4.33084e+57
          1303.51200	         5.44930e+57
          1304.31830	         9.36068e+57
          1305.12460	         1.15803e+58
          1305.93090	         1.15901e+58
          1306.73720	         1.30210e+58
          1307.54350	         1.44741e+58
          1308.34980	         1.37968e+58
          1309.15610	         1.36103e+58
          1309.96240	         1.43944e+58
          1310.76870	         1.31638e+58
          1311.57500	         1.15936e+58
          1312.38130	         1.05021e+58
          1313.18760	         1.10300e+58
          1313.99390	         1.36023e+58
          1314.80020	         1.53002e+58
          1315.60650	         1.43263e+58
          1316.41280	         1.02935e+58
          1317.21910	         8.39306e+57
          1318.02540	         1.20362e+58
          1318.83170	         1.27413e+58
          1319.63800	         1.08117e+58
          1320.44430	         1.15287e+58
          1321.25060	         1.09862e+58
          1322.05690	         1.03344e+58
          1322.86320	         1.08752e+58
          1323.66950	         1.05720e+58
          1324.47580	         9.62138e+57
          1325.28210	         1.05377e+58
          1326.08840	         1.11719e+58
          1326.89470	         1.03442e+58
          1327.70100	         9.64232e+57
          1328.50730	         8.19633e+57
          1329.31360	         8.43934e+57
          1330.11990	         1.01537e+58
          1330.92620	         9.19870e+57
          1331.73250	         1.06892e+58
          1332.53880	         1.01771e+58
          1333.34510	         8.02647e+57
          1334.15140	         7.80170e+57
          1334.95770	         9.29051e+57
          1335.76400	         1.04338e+58
          1336.57030	         1.04267e+58
          1337.37660	         8.78477e+57
          1338.18290	         9.64668e+57
          1338.98920	         1.11927e+58
          1339.79550	         1.07644e+58
          1340.60180	         1.09289e+58
          1341.40810	         1.22564e+58
          1342.21440	         1.16563e+58
          1343.02070	         1.27970e+58
          1343.82700	         1.44435e+58
          1344.63330	         1.25358e+58
          1345.43960	         1.14678e+58
          1346.24590	         1.23134e+58
          1347.05220	         1.11070e+58
          1347.85850	         9.92403e+57
          1348.66480	         1.23880e+58
          1349.47110	         1.19063e+58
          1350.27740	         1.15247e+58
          1351.08370	         1.29940e+58
          1351.89000	         1.23004e+58
          1352.69630	         1.10175e+58
          1353.50260	         1.08134e+58
          1354.30890	         1.26382e+58
          1355.11520	         1.16912e+58
          1355.92150	         1.03573e+58
          1356.72780	         1.01605e+58
          1357.53410	         1.03227e+58
          1358.34040	         1.09747e+58
          1359.14670	         1.03656e+58
          1359.95300	         1.06114e+58
          1360.75930	         1.11837e+58
          1361.56560	         1.15136e+58
          1362.37190	         1.11329e+58
          1363.17820	         1.06547e+58
          1363.98450	         1.15154e+58
          1364.79080	         1.14747e+58
          1365.59710	         1.15703e+58
          1366.40340	         1.14049e+58
          1367.20970	         9.32246e+57
          1368.01600	         9.23888e+57
          1368.82230	         8.99508e+57
          1369.62860	         9.18290e+57
          1370.43490	         9.89984e+57
          1371.24120	         9.62891e+57
          1372.04750	         8.14078e+57
          1372.85380	         9.14722e+57
          1373.66010	         9.14637e+57
          1374.46640	         8.85961e+57
          1375.27270	         9.33560e+57
          1376.07900	         8.98829e+57
          1376.88530	         8.53427e+57
          1377.69160	         8.52108e+57
          1378.49790	         6.86018e+57
          1379.30420	         6.75714e+57
          1380.11050	         8.30103e+57
          1380.91680	         9.03351e+57
          1381.72310	         8.09056e+57
          1382.52940	         7.53300e+57
          1383.33570	         7.34866e+57
          1384.14200	         1.01097e+58
          1384.94830	         1.01751e+58
          1385.75460	         9.70386e+57
          1386.56090	         1.02077e+58
          1387.36720	         9.00004e+57
          1388.17350	         1.11632e+58
          1388.97980	         9.40782e+57
          1389.78610	         7.85979e+57
          1390.59240	         8.63921e+57
          1391.39870	         8.75157e+57
          1392.20500	         8.41699e+57
          1393.01130	         5.41687e+57
          1393.81760	         6.06338e+57
          1394.62390	         7.64170e+57
          1395.43020	         6.82444e+57
          1396.23650	         6.60588e+57
          1397.04280	         6.68969e+57
          1397.84910	         8.88260e+57
          1398.65540	         1.04844e+58
          1399.46170	         9.53774e+57
          1400.26800	         7.15300e+57
          1401.07430	         6.63858e+57
          1401.88060	         6.65250e+57
          1402.68690	         9.43794e+57
          1403.49320	         1.03175e+58
          1404.29950	         8.83045e+57
          1405.10580	         9.92219e+57
          1405.91210	         1.10375e+58
          1406.71840	         1.08505e+58
          1407.52470	         9.68661e+57
          1408.33100	         9.17577e+57
          1409.13730	         1.05408e+58
          1409.94360	         1.17477e+58
          1410.74990	         1.10395e+58
          1411.55620	         9.62721e+57
          1412.36250	         9.72849e+57
          1413.16880	         9.53599e+57
          1413.97510	         8.08994e+57
          1414.78140	         8.33469e+57
          1415.58770	         9.35921e+57
          1416.39400	         1.06793e+58
          1417.20030	         1.02921e+58
          1418.00660	         9.41031e+57
          1418.81290	         9.94400e+57
          1419.61920	         1.03872e+58
          1420.42550	         1.18973e+58
          1421.23180	         1.26265e+58
          1422.03810	         1.10064e+58
          1422.84440	         9.79510e+57
          1423.65070	         1.16244e+58
          1424.45700	         1.03107e+58
          1425.26330	         8.09089e+57
          1426.06960	         8.81207e+57
          1426.87590	         1.01540e+58
          1427.68220	         1.03061e+58
          1428.48850	         1.13327e+58
          1429.29480	         1.13656e+58
          1430.10110	         1.08764e+58
          1430.90740	         8.28668e+57
          1431.71370	         7.30167e+57
          1432.52000	         7.60826e+57
          1433.32630	         6.61260e+57
          1434.13260	         7.52182e+57
          1434.93890	         8.53149e+57
          1435.74520	         8.43632e+57
          1436.55150	         9.24333e+57
          1437.35780	         9.26423e+57
          1438.16410	         9.71176e+57
          1438.97040	         8.69187e+57
          1439.77670	         8.64094e+57
          1440.58300	         9.42493e+57
          1441.38930	         9.09437e+57
          1442.19560	         8.93866e+57
          1443.00190	         9.30880e+57
          1443.80820	         1.04881e+58
          1444.61450	         8.88711e+57
          1445.42080	         7.33189e+57
          1446.22710	         1.00759e+58
          1447.03340	         9.68222e+57
          1447.83970	         9.50719e+57
          1448.64600	         9.57083e+57
          1449.45230	         9.57911e+57
          1450.25860	         9.07584e+57
          1451.06490	         7.53482e+57
          1451.87120	         6.83088e+57
          1452.67750	         6.16769e+57
          1453.48380	         8.34390e+57
          1454.29010	         8.74961e+57
          1455.09640	         7.93056e+57
          1455.90270	         9.24212e+57
          1456.70900	         9.01351e+57
          1457.51530	         9.85212e+57
          1458.32160	         1.13494e+58
          1459.12790	         1.13070e+58
          1459.93420	         1.01508e+58
          1460.74050	         7.06919e+57
          1461.54680	         7.10770e+57
          1462.35310	         7.66171e+57
          1463.15940	         9.39202e+57
          1463.96570	         1.04472e+58
          1464.77200	         1.10834e+58
          1465.57830	         1.03116e+58
          1466.38460	         8.86777e+57
          1467.19090	         8.60097e+57
          1467.99720	         8.71124e+57
          1468.80350	         8.86466e+57
          1469.60980	         8.70399e+57
          1470.41610	         9.88605e+57
          1471.22240	         9.98059e+57
          1472.02870	         8.81975e+57
          1472.83500	         8.98631e+57
          1473.64130	         1.00437e+58
          1474.44760	         9.36340e+57
          1475.25390	         8.42948e+57
          1476.06020	         8.82316e+57
          1476.86650	         8.40895e+57
          1477.67280	         6.49236e+57
          1478.47910	         7.86182e+57
          1479.28540	         7.77738e+57
          1480.09170	         8.17535e+57
          1480.89800	         9.13565e+57
          1481.70430	         8.80950e+57
          1482.51060	         8.24651e+57
          1483.31690	         7.50532e+57
          1484.12320	         7.57231e+57
          1484.92950	         7.41038e+57
          1485.73580	         8.20083e+57
          1486.54210	         9.49143e+57
          1487.34840	         9.18660e+57
          1488.15470	         7.76571e+57
          1488.96100	         7.81861e+57
          1489.76730	         7.86905e+57
