#sample_144_stacked_spectrum_rest_UV-bands_median_H-alpha_noDC.txt
#median Lum: 1.68387e+42
#Rest-frame wavelength (A) | Luminosity (erg/s/A)
#
          1110.00000	         0.00000e+00
          1110.80630	         1.52722e+58
          1111.61260	         9.24003e+58
          1112.41890	         7.51230e+58
          1113.22520	         8.29279e+58
          1114.03150	         4.39530e+58
          1114.83780	         3.02964e+59
          1115.64410	         1.70875e+59
          1116.45040	         1.90115e+59
          1117.25670	        -1.15082e+59
          1118.06300	         2.58947e+58
          1118.86930	        -2.73954e+58
          1119.67560	         3.53578e+58
          1120.48190	        -2.85945e+58
          1121.28820	        -9.44626e+58
          1122.09450	         9.01344e+57
          1122.90080	        -4.43168e+57
          1123.70710	         1.38103e+58
          1124.51340	         4.65534e+58
          1125.31970	         1.56639e+58
          1126.12600	         5.48952e+58
          1126.93230	        -2.05558e+58
          1127.73860	        -1.48395e+58
          1128.54490	         3.62174e+58
          1129.35120	         7.49135e+57
          1130.15750	        -2.15020e+58
          1130.96380	        -1.21041e+58
          1131.77010	         4.17953e+58
          1132.57640	         4.57489e+58
          1133.38270	         5.67196e+58
          1134.18900	         3.33196e+58
          1134.99530	         1.70100e+58
          1135.80160	         1.85031e+58
          1136.60790	         8.18435e+57
          1137.41420	         7.01025e+57
          1138.22050	         6.36821e+58
          1139.02680	         2.79253e+58
          1139.83310	         2.03223e+57
          1140.63940	         7.81715e+57
          1141.44570	        -1.19762e+58
          1142.25200	        -2.46257e+57
          1143.05830	         1.46646e+58
          1143.86460	         2.24881e+58
          1144.67090	         2.59215e+58
          1145.47720	         1.72610e+58
          1146.28350	         7.90148e+57
          1147.08980	         3.24952e+58
          1147.89610	         1.97067e+58
          1148.70240	         1.77549e+58
          1149.50870	         3.30299e+58
          1150.31500	         1.63398e+58
          1151.12130	         7.14515e+57
          1151.92760	         1.06020e+58
          1152.73390	         6.41294e+57
          1153.54020	        -2.24485e+57
          1154.34650	         2.69423e+58
          1155.15280	         1.91595e+58
          1155.95910	         7.53119e+57
          1156.76540	         1.35111e+58
          1157.57170	         1.16009e+58
          1158.37800	         4.47293e+57
          1159.18430	        -5.21616e+57
          1159.99060	         1.78319e+57
          1160.79690	         5.80897e+57
          1161.60320	         1.31404e+58
          1162.40950	         2.11832e+58
          1163.21580	         1.42187e+58
          1164.02210	         1.01614e+58
          1164.82840	         1.40702e+58
          1165.63470	         1.49963e+58
          1166.44100	         3.52853e+58
          1167.24730	         2.46514e+58
          1168.05360	         9.21485e+57
          1168.85990	         5.47908e+57
          1169.66620	         1.00208e+58
          1170.47250	         1.53422e+58
          1171.27880	         9.71950e+57
          1172.08510	         2.01914e+58
          1172.89140	         2.12094e+58
          1173.69770	         1.08373e+58
          1174.50400	         8.29819e+57
          1175.31030	         1.77317e+58
          1176.11660	         2.06625e+58
          1176.92290	         1.18620e+58
          1177.72920	         1.13724e+58
          1178.53550	         3.82911e+57
          1179.34180	         1.18276e+57
          1180.14810	         8.41019e+57
          1180.95440	         7.85692e+57
          1181.76070	         6.02397e+57
          1182.56700	         3.61059e+57
          1183.37330	         8.40934e+57
          1184.17960	         1.29681e+58
          1184.98590	         9.40503e+57
          1185.79220	         7.89813e+57
          1186.59850	         1.25523e+58
          1187.40480	         1.44106e+58
          1188.21110	         1.53441e+58
          1189.01740	         8.29522e+57
          1189.82370	         9.73686e+57
          1190.63000	         1.11353e+58
          1191.43630	         1.27753e+58
          1192.24260	         1.08793e+58
          1193.04890	         1.08629e+58
          1193.85520	         1.15265e+58
          1194.66150	         1.17135e+58
          1195.46780	         8.16807e+57
          1196.27410	         1.03368e+58
          1197.08040	         1.09398e+58
          1197.88670	         1.26793e+58
          1198.69300	         1.51493e+58
          1199.49930	         1.77260e+58
          1200.30560	         1.54859e+58
          1201.11190	         1.47762e+58
          1201.91820	         1.23450e+58
          1202.72450	         5.95744e+57
          1203.53080	         1.28722e+58
          1204.33710	         9.98604e+57
          1205.14340	         7.73341e+57
          1205.94970	         7.61767e+57
          1206.75600	         7.58190e+57
          1207.56230	         6.83844e+57
          1208.36860	         8.90710e+57
          1209.17490	         3.95155e+57
          1209.98120	         3.98619e+57
          1210.78750	         8.99853e+57
          1211.59380	         1.60535e+58
          1212.40010	         1.92697e+58
          1213.20640	         2.00674e+58
          1214.01270	         2.09145e+58
          1214.81900	         2.43589e+58
          1215.62530	         4.60670e+58
          1216.43160	         9.41291e+58
          1217.23790	         1.56843e+59
          1218.04420	         1.16751e+59
          1218.85050	         8.74135e+58
          1219.65680	         5.83121e+58
          1220.46310	         3.29493e+58
          1221.26940	         2.23861e+58
          1222.07570	         1.30624e+58
          1222.88200	         1.18055e+58
          1223.68830	         1.00820e+58
          1224.49460	         9.03960e+57
          1225.30090	         8.98519e+57
          1226.10720	         9.25685e+57
          1226.91350	         9.87327e+57
          1227.71980	         8.31044e+57
          1228.52610	         1.06244e+58
          1229.33240	         9.14744e+57
          1230.13870	         7.25261e+57
          1230.94500	         7.83745e+57
          1231.75130	         8.10293e+57
          1232.55760	         8.84648e+57
          1233.36390	         7.85463e+57
          1234.17020	         8.51220e+57
          1234.97650	         7.25640e+57
          1235.78280	         6.17822e+57
          1236.58910	         9.52533e+57
          1237.39540	         1.05997e+58
          1238.20170	         8.93025e+57
          1239.00800	         1.14063e+58
          1239.81430	         1.43769e+58
          1240.62060	         9.50943e+57
          1241.42690	         5.76750e+57
          1242.23320	         8.98034e+57
          1243.03950	         8.28883e+57
          1243.84580	         8.05881e+57
          1244.65210	         9.27903e+57
          1245.45840	         8.81469e+57
          1246.26470	         6.15622e+57
          1247.07100	         5.21806e+57
          1247.87730	         8.16422e+57
          1248.68360	         5.34876e+57
          1249.48990	         6.95593e+57
          1250.29620	         6.58283e+57
          1251.10250	         7.17460e+57
          1251.90880	         5.05669e+57
          1252.71510	         6.26936e+57
          1253.52140	         8.49050e+57
          1254.32770	         8.55922e+57
          1255.13400	         1.24293e+58
          1255.94030	         1.13164e+58
          1256.74660	         1.00101e+58
          1257.55290	         1.21046e+58
          1258.35920	         9.65992e+57
          1259.16550	         4.90510e+57
          1259.97180	         3.71949e+57
          1260.77810	         7.22389e+57
          1261.58440	         1.23445e+58
          1262.39070	         8.27230e+57
          1263.19700	         8.63229e+57
          1264.00330	         9.82749e+57
          1264.80960	         1.00314e+58
          1265.61590	         1.30965e+58
          1266.42220	         1.34715e+58
          1267.22850	         1.09997e+58
          1268.03480	         1.34193e+58
          1268.84110	         1.77434e+58
          1269.64740	         1.52911e+58
          1270.45370	         1.29993e+58
          1271.26000	         1.08533e+58
          1272.06630	         1.10263e+58
          1272.87260	         1.27452e+58
          1273.67890	         1.05706e+58
          1274.48520	         1.15905e+58
          1275.29150	         1.31181e+58
          1276.09780	         1.14440e+58
          1276.90410	         1.22156e+58
          1277.71040	         1.06065e+58
          1278.51670	         1.07654e+58
          1279.32300	         1.26383e+58
          1280.12930	         1.22513e+58
          1280.93560	         1.07446e+58
          1281.74190	         1.02354e+58
          1282.54820	         1.03103e+58
          1283.35450	         1.14693e+58
          1284.16080	         1.23287e+58
          1284.96710	         1.36731e+58
          1285.77340	         1.23111e+58
          1286.57970	         1.12432e+58
          1287.38600	         1.76279e+58
          1288.19230	         1.97258e+58
          1288.99860	         1.39386e+58
          1289.80490	         8.33924e+57
          1290.61120	         1.18148e+58
          1291.41750	         1.34464e+58
          1292.22380	         1.14833e+58
          1293.03010	         1.14793e+58
          1293.83640	         1.35766e+58
          1294.64270	         9.19159e+57
          1295.44900	         5.83972e+57
          1296.25530	         8.00938e+57
          1297.06160	         9.77908e+57
          1297.86790	         1.03838e+58
          1298.67420	         8.25759e+57
          1299.48050	         9.42794e+57
          1300.28680	         1.16842e+58
          1301.09310	         9.29929e+57
          1301.89940	         4.09089e+57
          1302.70570	         5.51509e+57
          1303.51200	         7.32873e+57
          1304.31830	         9.15871e+57
          1305.12460	         1.06001e+58
          1305.93090	         1.22446e+58
          1306.73720	         1.38162e+58
          1307.54350	         1.43525e+58
          1308.34980	         1.54574e+58
          1309.15610	         1.52003e+58
          1309.96240	         1.36731e+58
          1310.76870	         1.23679e+58
          1311.57500	         1.06505e+58
          1312.38130	         1.39594e+58
          1313.18760	         1.51762e+58
          1313.99390	         1.62398e+58
          1314.80020	         1.63921e+58
          1315.60650	         1.58221e+58
          1316.41280	         1.31625e+58
          1317.21910	         9.70643e+57
          1318.02540	         1.14782e+58
          1318.83170	         1.29444e+58
          1319.63800	         1.24362e+58
          1320.44430	         1.11400e+58
          1321.25060	         1.21436e+58
          1322.05690	         1.18009e+58
          1322.86320	         1.12560e+58
          1323.66950	         1.01600e+58
          1324.47580	         9.04508e+57
          1325.28210	         9.69211e+57
          1326.08840	         1.21027e+58
          1326.89470	         1.30647e+58
          1327.70100	         9.32394e+57
          1328.50730	         7.00486e+57
          1329.31360	         8.59822e+57
          1330.11990	         1.01523e+58
          1330.92620	         9.47733e+57
          1331.73250	         1.07818e+58
          1332.53880	         1.06126e+58
          1333.34510	         8.64371e+57
          1334.15140	         8.15814e+57
          1334.95770	         7.43919e+57
          1335.76400	         9.37037e+57
          1336.57030	         1.02702e+58
          1337.37660	         9.75131e+57
          1338.18290	         1.17515e+58
          1338.98920	         1.24480e+58
          1339.79550	         1.20259e+58
          1340.60180	         1.20220e+58
          1341.40810	         1.29817e+58
          1342.21440	         1.28310e+58
          1343.02070	         1.35104e+58
          1343.82700	         1.38695e+58
          1344.63330	         1.37503e+58
          1345.43960	         1.39564e+58
          1346.24590	         1.21830e+58
          1347.05220	         1.27677e+58
          1347.85850	         1.21491e+58
          1348.66480	         1.20658e+58
          1349.47110	         1.34056e+58
          1350.27740	         1.27018e+58
          1351.08370	         1.16429e+58
          1351.89000	         1.09773e+58
          1352.69630	         1.11419e+58
          1353.50260	         1.10102e+58
          1354.30890	         1.13634e+58
          1355.11520	         1.12252e+58
          1355.92150	         1.05869e+58
          1356.72780	         9.69925e+57
          1357.53410	         1.01172e+58
          1358.34040	         1.09794e+58
          1359.14670	         9.86105e+57
          1359.95300	         1.08788e+58
          1360.75930	         1.25464e+58
          1361.56560	         1.14968e+58
          1362.37190	         1.22124e+58
          1363.17820	         1.25327e+58
          1363.98450	         1.19208e+58
          1364.79080	         1.32726e+58
          1365.59710	         1.40486e+58
          1366.40340	         1.32833e+58
          1367.20970	         1.09295e+58
          1368.01600	         8.90268e+57
          1368.82230	         8.71528e+57
          1369.62860	         9.91648e+57
          1370.43490	         9.52606e+57
          1371.24120	         1.04522e+58
          1372.04750	         1.03828e+58
          1372.85380	         1.09737e+58
          1373.66010	         1.10046e+58
          1374.46640	         1.06377e+58
          1375.27270	         1.09426e+58
          1376.07900	         9.40585e+57
          1376.88530	         9.17224e+57
          1377.69160	         9.98741e+57
          1378.49790	         7.68734e+57
          1379.30420	         7.09366e+57
          1380.11050	         8.43499e+57
          1380.91680	         7.48489e+57
          1381.72310	         6.56342e+57
          1382.52940	         7.05535e+57
          1383.33570	         7.71836e+57
          1384.14200	         9.45171e+57
          1384.94830	         1.05473e+58
          1385.75460	         9.84730e+57
          1386.56090	         1.08035e+58
          1387.36720	         1.17355e+58
          1388.17350	         1.20729e+58
          1388.97980	         1.09250e+58
          1389.78610	         9.09440e+57
          1390.59240	         8.18228e+57
          1391.39870	         8.00820e+57
          1392.20500	         9.10154e+57
          1393.01130	         7.77470e+57
          1393.81760	         7.06624e+57
          1394.62390	         6.99424e+57
          1395.43020	         6.65324e+57
          1396.23650	         6.76970e+57
          1397.04280	         6.89296e+57
          1397.84910	         7.99842e+57
          1398.65540	         8.70076e+57
          1399.46170	         8.56902e+57
          1400.26800	         6.85516e+57
          1401.07430	         7.12970e+57
          1401.88060	         8.33067e+57
          1402.68690	         9.50368e+57
          1403.49320	         9.15800e+57
          1404.29950	         8.23508e+57
          1405.10580	         1.04083e+58
          1405.91210	         1.15160e+58
          1406.71840	         9.94835e+57
          1407.52470	         9.21834e+57
          1408.33100	         1.01278e+58
          1409.13730	         1.06377e+58
          1409.94360	         1.09240e+58
          1410.74990	         1.19752e+58
          1411.55620	         1.06785e+58
          1412.36250	         7.81930e+57
          1413.16880	         8.16772e+57
          1413.97510	         8.67129e+57
          1414.78140	         9.67006e+57
          1415.58770	         9.95088e+57
          1416.39400	         9.81397e+57
          1417.20030	         1.07386e+58
          1418.00660	         9.99252e+57
          1418.81290	         1.05997e+58
          1419.61920	         9.86580e+57
          1420.42550	         1.20113e+58
          1421.23180	         1.37299e+58
          1422.03810	         1.22881e+58
          1422.84440	         1.12072e+58
          1423.65070	         1.39341e+58
          1424.45700	         1.19142e+58
          1425.26330	         9.37032e+57
          1426.06960	         9.26746e+57
          1426.87590	         1.06088e+58
          1427.68220	         9.70360e+57
          1428.48850	         9.81856e+57
          1429.29480	         1.07509e+58
          1430.10110	         1.03958e+58
          1430.90740	         8.24658e+57
          1431.71370	         8.05210e+57
          1432.52000	         9.00562e+57
          1433.32630	         8.56033e+57
          1434.13260	         8.58731e+57
          1434.93890	         8.39490e+57
          1435.74520	         8.64754e+57
          1436.55150	         9.62652e+57
          1437.35780	         9.02429e+57
          1438.16410	         8.07035e+57
          1438.97040	         8.52250e+57
          1439.77670	         9.01165e+57
          1440.58300	         9.02156e+57
          1441.38930	         1.01146e+58
          1442.19560	         9.17796e+57
          1443.00190	         8.63244e+57
          1443.80820	         1.06257e+58
          1444.61450	         1.02874e+58
          1445.42080	         9.02687e+57
          1446.22710	         1.06162e+58
          1447.03340	         9.21327e+57
          1447.83970	         1.01843e+58
          1448.64600	         1.11406e+58
          1449.45230	         1.13282e+58
          1450.25860	         1.22143e+58
          1451.06490	         9.40463e+57
          1451.87120	         7.02507e+57
          1452.67750	         7.91486e+57
          1453.48380	         8.71008e+57
          1454.29010	         7.50952e+57
          1455.09640	         7.32644e+57
          1455.90270	         8.33243e+57
          1456.70900	         8.17446e+57
          1457.51530	         9.87037e+57
          1458.32160	         1.13856e+58
          1459.12790	         1.03182e+58
          1459.93420	         9.70581e+57
          1460.74050	         7.35163e+57
          1461.54680	         7.74875e+57
          1462.35310	         7.97179e+57
          1463.15940	         9.06681e+57
          1463.96570	         1.02297e+58
          1464.77200	         1.17646e+58
          1465.57830	         1.03363e+58
          1466.38460	         8.15634e+57
          1467.19090	         8.11338e+57
          1467.99720	         8.51483e+57
          1468.80350	         9.31534e+57
          1469.60980	         1.04770e+58
          1470.41610	         1.14943e+58
          1471.22240	         1.02344e+58
          1472.02870	         1.04596e+58
          1472.83500	         9.91754e+57
          1473.64130	         9.29558e+57
          1474.44760	         9.55243e+57
          1475.25390	         9.51076e+57
          1476.06020	         8.83389e+57
          1476.86650	         8.84854e+57
          1477.67280	         8.00095e+57
          1478.47910	         7.07848e+57
          1479.28540	         7.34121e+57
          1480.09170	         8.68934e+57
          1480.89800	         9.75282e+57
          1481.70430	         9.31965e+57
          1482.51060	         8.45212e+57
          1483.31690	         7.84700e+57
          1484.12320	         7.28519e+57
          1484.92950	         8.66455e+57
          1485.73580	         9.18153e+57
          1486.54210	         8.93521e+57
          1487.34840	         8.68558e+57
          1488.15470	         8.36189e+57
          1488.96100	         9.25329e+57
          1489.76730	         9.27028e+57
