#sample_196_stacked_spectrum_rest_UV-bands_median_H-alpha_noDC.txt
#median Lum: 1.70165e+42
#Rest-frame wavelength (A) | Luminosity (erg/s/A)
#
          1110.00000	         0.00000e+00
          1110.80630	         2.85086e+59
          1111.61260	         3.99263e+59
          1112.41890	         5.47055e+59
          1113.22520	         1.28550e+59
          1114.03150	        -3.50621e+59
          1114.83780	         6.06472e+58
          1115.64410	         8.12868e+58
          1116.45040	         7.64965e+57
          1117.25670	         8.50989e+57
          1118.06300	         1.42389e+59
          1118.86930	        -5.72207e+58
          1119.67560	         1.16607e+59
          1120.48190	         4.36004e+58
          1121.28820	        -1.06118e+59
          1122.09450	        -5.47041e+58
          1122.90080	        -1.34874e+57
          1123.70710	         2.73102e+58
          1124.51340	         2.29796e+58
          1125.31970	        -6.84676e+57
          1126.12600	        -3.92343e+58
          1126.93230	        -3.71097e+58
          1127.73860	        -9.73197e+58
          1128.54490	        -8.47378e+57
          1129.35120	         3.43746e+58
          1130.15750	         2.47155e+58
          1130.96380	         2.19512e+57
          1131.77010	         6.57052e+58
          1132.57640	         1.55973e+58
          1133.38270	         2.31383e+58
          1134.18900	         5.72731e+58
          1134.99530	         2.92693e+58
          1135.80160	         2.33474e+58
          1136.60790	         2.80542e+58
          1137.41420	         4.71660e+57
          1138.22050	         4.71326e+58
          1139.02680	         3.60864e+58
          1139.83310	         1.58537e+58
          1140.63940	         2.64927e+58
          1141.44570	        -5.06337e+57
          1142.25200	         1.60100e+57
          1143.05830	         2.95517e+58
          1143.86460	         5.32537e+58
          1144.67090	         2.23980e+58
          1145.47720	         9.26819e+57
          1146.28350	         1.39202e+58
          1147.08980	         1.61233e+58
          1147.89610	         3.44498e+58
          1148.70240	         3.35132e+58
          1149.50870	         2.79626e+58
          1150.31500	         1.38996e+58
          1151.12130	         1.50428e+58
          1151.92760	         8.30710e+57
          1152.73390	         2.35555e+58
          1153.54020	        -3.97899e+56
          1154.34650	         2.24367e+58
          1155.15280	         1.88000e+58
          1155.95910	         1.37719e+58
          1156.76540	         1.44764e+57
          1157.57170	        -7.68013e+57
          1158.37800	        -1.14473e+57
          1159.18430	         3.90690e+56
          1159.99060	         1.04389e+58
          1160.79690	         9.50847e+57
          1161.60320	         1.12394e+58
          1162.40950	         1.61522e+58
          1163.21580	         1.10340e+58
          1164.02210	         2.22860e+58
          1164.82840	         1.33074e+58
          1165.63470	         1.29669e+58
          1166.44100	         2.92104e+58
          1167.24730	         2.22688e+58
          1168.05360	         7.80378e+57
          1168.85990	         3.39085e+56
          1169.66620	         7.56846e+57
          1170.47250	         1.64030e+58
          1171.27880	         8.65682e+57
          1172.08510	         2.89262e+57
          1172.89140	         4.65617e+57
          1173.69770	         8.00287e+56
          1174.50400	         6.40455e+57
          1175.31030	         1.75097e+58
          1176.11660	         1.64554e+58
          1176.92290	         1.63641e+58
          1177.72920	         1.09902e+58
          1178.53550	         1.22309e+58
          1179.34180	         5.01368e+57
          1180.14810	         3.66374e+57
          1180.95440	         2.01593e+57
          1181.76070	         3.68548e+57
          1182.56700	         7.59190e+57
          1183.37330	         5.30307e+57
          1184.17960	         7.93826e+57
          1184.98590	         1.01607e+58
          1185.79220	         6.06224e+57
          1186.59850	         1.01466e+58
          1187.40480	         1.27537e+58
          1188.21110	         9.71753e+57
          1189.01740	         1.41675e+58
          1189.82370	         1.07149e+58
          1190.63000	         1.24730e+58
          1191.43630	         1.44649e+58
          1192.24260	         9.71639e+57
          1193.04890	         1.49748e+58
          1193.85520	         1.08340e+58
          1194.66150	         5.74379e+57
          1195.46780	         9.88836e+57
          1196.27410	         1.01248e+58
          1197.08040	         7.40668e+57
          1197.88670	         1.53227e+58
          1198.69300	         1.62266e+58
          1199.49930	         1.46412e+58
          1200.30560	         1.15017e+58
          1201.11190	         1.09406e+58
          1201.91820	         8.96398e+57
          1202.72450	         5.30183e+57
          1203.53080	         1.09956e+58
          1204.33710	         1.02751e+58
          1205.14340	         8.76066e+57
          1205.94970	         1.03914e+58
          1206.75600	         7.30465e+57
          1207.56230	         1.16951e+58
          1208.36860	         1.17824e+58
          1209.17490	         1.91594e+57
          1209.98120	         2.95930e+57
          1210.78750	         1.05724e+58
          1211.59380	         1.35187e+58
          1212.40010	         1.73761e+58
          1213.20640	         1.84343e+58
          1214.01270	         1.93674e+58
          1214.81900	         2.50252e+58
          1215.62530	         4.37772e+58
          1216.43160	         9.02443e+58
          1217.23790	         1.52476e+59
          1218.04420	         1.15911e+59
          1218.85050	         8.70644e+58
          1219.65680	         5.90700e+58
          1220.46310	         3.12888e+58
          1221.26940	         2.02752e+58
          1222.07570	         1.28526e+58
          1222.88200	         1.22188e+58
          1223.68830	         9.92195e+57
          1224.49460	         6.21586e+57
          1225.30090	         5.35141e+57
          1226.10720	         5.38149e+57
          1226.91350	         5.47528e+57
          1227.71980	         1.01788e+58
          1228.52610	         1.23564e+58
          1229.33240	         7.88093e+57
          1230.13870	         6.37319e+57
          1230.94500	         8.60673e+57
          1231.75130	         7.50481e+57
          1232.55760	         9.66467e+57
          1233.36390	         9.95416e+57
          1234.17020	         6.95044e+57
          1234.97650	         8.07181e+57
          1235.78280	         9.69959e+57
          1236.58910	         9.78056e+57
          1237.39540	         1.18027e+58
          1238.20170	         9.55855e+57
          1239.00800	         1.09602e+58
          1239.81430	         1.44353e+58
          1240.62060	         1.20399e+58
          1241.42690	         1.13226e+58
          1242.23320	         1.05830e+58
          1243.03950	         8.05757e+57
          1243.84580	         9.30847e+57
          1244.65210	         1.00623e+58
          1245.45840	         9.65505e+57
          1246.26470	         7.97463e+57
          1247.07100	         6.73454e+57
          1247.87730	         5.28088e+57
          1248.68360	         4.93800e+57
          1249.48990	         9.78247e+57
          1250.29620	         1.08451e+58
          1251.10250	         7.88975e+57
          1251.90880	         4.58675e+57
          1252.71510	         6.41342e+57
          1253.52140	         7.66601e+57
          1254.32770	         1.25378e+58
          1255.13400	         1.50745e+58
          1255.94030	         1.17140e+58
          1256.74660	         1.11761e+58
          1257.55290	         1.31551e+58
          1258.35920	         9.94991e+57
          1259.16550	         4.70636e+57
          1259.97180	         5.70093e+57
          1260.77810	         9.83066e+57
          1261.58440	         1.15758e+58
          1262.39070	         8.12551e+57
          1263.19700	         6.94515e+57
          1264.00330	         7.70445e+57
          1264.80960	         1.06986e+58
          1265.61590	         1.34430e+58
          1266.42220	         1.17980e+58
          1267.22850	         1.02965e+58
          1268.03480	         1.49036e+58
          1268.84110	         1.70816e+58
          1269.64740	         1.41003e+58
          1270.45370	         1.18918e+58
          1271.26000	         1.18509e+58
          1272.06630	         1.11016e+58
          1272.87260	         1.04390e+58
          1273.67890	         1.26968e+58
          1274.48520	         1.40369e+58
          1275.29150	         1.49036e+58
          1276.09780	         1.24553e+58
          1276.90410	         1.38826e+58
          1277.71040	         1.33076e+58
          1278.51670	         1.15909e+58
          1279.32300	         1.41297e+58
          1280.12930	         1.20022e+58
          1280.93560	         9.24156e+57
          1281.74190	         1.38955e+58
          1282.54820	         1.35506e+58
          1283.35450	         1.00220e+58
          1284.16080	         1.13665e+58
          1284.96710	         1.33130e+58
          1285.77340	         1.05504e+58
          1286.57970	         9.67869e+57
          1287.38600	         1.30668e+58
          1288.19230	         1.68031e+58
          1288.99860	         1.35470e+58
          1289.80490	         1.04385e+58
          1290.61120	         1.25214e+58
          1291.41750	         1.40797e+58
          1292.22380	         1.23321e+58
          1293.03010	         1.14993e+58
          1293.83640	         1.30662e+58
          1294.64270	         1.08532e+58
          1295.44900	         5.55568e+57
          1296.25530	         6.91565e+57
          1297.06160	         1.04806e+58
          1297.86790	         1.06703e+58
          1298.67420	         1.00816e+58
          1299.48050	         1.09927e+58
          1300.28680	         1.09338e+58
          1301.09310	         6.88655e+57
          1301.89940	         4.28695e+57
          1302.70570	         6.89170e+57
          1303.51200	         8.22540e+57
          1304.31830	         1.02290e+58
          1305.12460	         1.15549e+58
          1305.93090	         1.16600e+58
          1306.73720	         1.29360e+58
          1307.54350	         1.38027e+58
          1308.34980	         1.39806e+58
          1309.15610	         1.34712e+58
          1309.96240	         1.48529e+58
          1310.76870	         1.45586e+58
          1311.57500	         1.21869e+58
          1312.38130	         1.08455e+58
          1313.18760	         1.41046e+58
          1313.99390	         1.46895e+58
          1314.80020	         1.44191e+58
          1315.60650	         1.49732e+58
          1316.41280	         1.38613e+58
          1317.21910	         1.15300e+58
          1318.02540	         1.16455e+58
          1318.83170	         1.32672e+58
          1319.63800	         1.25038e+58
          1320.44430	         1.20003e+58
          1321.25060	         1.16945e+58
          1322.05690	         1.12815e+58
          1322.86320	         1.10531e+58
          1323.66950	         1.21548e+58
          1324.47580	         1.08673e+58
          1325.28210	         1.03508e+58
          1326.08840	         1.08549e+58
          1326.89470	         1.21137e+58
          1327.70100	         1.06803e+58
          1328.50730	         8.26719e+57
          1329.31360	         9.97119e+57
          1330.11990	         1.04609e+58
          1330.92620	         9.05257e+57
          1331.73250	         1.03541e+58
          1332.53880	         1.12614e+58
          1333.34510	         9.40022e+57
          1334.15140	         1.03111e+58
          1334.95770	         1.00392e+58
          1335.76400	         1.05560e+58
          1336.57030	         1.09292e+58
          1337.37660	         1.13450e+58
          1338.18290	         1.16707e+58
          1338.98920	         1.07585e+58
          1339.79550	         9.77725e+57
          1340.60180	         1.17130e+58
          1341.40810	         1.38948e+58
          1342.21440	         1.15743e+58
          1343.02070	         1.16139e+58
          1343.82700	         1.23570e+58
          1344.63330	         1.22218e+58
          1345.43960	         1.33381e+58
          1346.24590	         1.18614e+58
          1347.05220	         1.16967e+58
          1347.85850	         1.02584e+58
          1348.66480	         1.15143e+58
          1349.47110	         1.19508e+58
          1350.27740	         1.13639e+58
          1351.08370	         1.19070e+58
          1351.89000	         1.17119e+58
          1352.69630	         1.08904e+58
          1353.50260	         1.12193e+58
          1354.30890	         1.14469e+58
          1355.11520	         1.31269e+58
          1355.92150	         1.23169e+58
          1356.72780	         1.07202e+58
          1357.53410	         9.89361e+57
          1358.34040	         1.17443e+58
          1359.14670	         9.96825e+57
          1359.95300	         9.77603e+57
          1360.75930	         1.23456e+58
          1361.56560	         1.13077e+58
          1362.37190	         1.13542e+58
          1363.17820	         1.17009e+58
          1363.98450	         1.11449e+58
          1364.79080	         1.02339e+58
          1365.59710	         1.04482e+58
          1366.40340	         1.19577e+58
          1367.20970	         1.14707e+58
          1368.01600	         1.05951e+58
          1368.82230	         8.79051e+57
          1369.62860	         9.61107e+57
          1370.43490	         9.28889e+57
          1371.24120	         8.57284e+57
          1372.04750	         9.63627e+57
          1372.85380	         1.03041e+58
          1373.66010	         9.87795e+57
          1374.46640	         9.88926e+57
          1375.27270	         1.13677e+58
          1376.07900	         1.04595e+58
          1376.88530	         9.52927e+57
          1377.69160	         8.75255e+57
          1378.49790	         8.02533e+57
          1379.30420	         7.79476e+57
          1380.11050	         8.11153e+57
          1380.91680	         8.02759e+57
          1381.72310	         7.48644e+57
          1382.52940	         8.50528e+57
          1383.33570	         9.15438e+57
          1384.14200	         9.79037e+57
          1384.94830	         1.21277e+58
          1385.75460	         1.12031e+58
          1386.56090	         1.04617e+58
          1387.36720	         1.04751e+58
          1388.17350	         1.17920e+58
          1388.97980	         1.00704e+58
          1389.78610	         9.91408e+57
          1390.59240	         9.70687e+57
          1391.39870	         8.92492e+57
          1392.20500	         9.45553e+57
          1393.01130	         6.67900e+57
          1393.81760	         6.07148e+57
          1394.62390	         6.61949e+57
          1395.43020	         5.45057e+57
          1396.23650	         5.82929e+57
          1397.04280	         7.53352e+57
          1397.84910	         8.92057e+57
          1398.65540	         7.96040e+57
          1399.46170	         9.42125e+57
          1400.26800	         9.18121e+57
          1401.07430	         6.90665e+57
          1401.88060	         7.89647e+57
          1402.68690	         9.29335e+57
          1403.49320	         9.53367e+57
          1404.29950	         1.01325e+58
          1405.10580	         1.08839e+58
          1405.91210	         1.17825e+58
          1406.71840	         1.19340e+58
          1407.52470	         1.12331e+58
          1408.33100	         1.04341e+58
          1409.13730	         1.03608e+58
          1409.94360	         1.21650e+58
          1410.74990	         1.18560e+58
          1411.55620	         1.07462e+58
          1412.36250	         9.18045e+57
          1413.16880	         9.30631e+57
          1413.97510	         8.86656e+57
          1414.78140	         8.08589e+57
          1415.58770	         9.48627e+57
          1416.39400	         9.88805e+57
          1417.20030	         1.02390e+58
          1418.00660	         1.02263e+58
          1418.81290	         1.27289e+58
          1419.61920	         1.20024e+58
          1420.42550	         1.27146e+58
          1421.23180	         1.31541e+58
          1422.03810	         1.07926e+58
          1422.84440	         1.14950e+58
          1423.65070	         1.30055e+58
          1424.45700	         1.22155e+58
          1425.26330	         1.03025e+58
          1426.06960	         1.01938e+58
          1426.87590	         9.52511e+57
          1427.68220	         9.99299e+57
          1428.48850	         1.15547e+58
          1429.29480	         1.12075e+58
          1430.10110	         9.53830e+57
          1430.90740	         8.61506e+57
          1431.71370	         8.82900e+57
          1432.52000	         8.60395e+57
          1433.32630	         7.97460e+57
          1434.13260	         8.06665e+57
          1434.93890	         8.85942e+57
          1435.74520	         1.03985e+58
          1436.55150	         1.06057e+58
          1437.35780	         9.29754e+57
          1438.16410	         9.50752e+57
          1438.97040	         1.00526e+58
          1439.77670	         9.80103e+57
          1440.58300	         1.04613e+58
          1441.38930	         1.02113e+58
          1442.19560	         1.03573e+58
          1443.00190	         1.09355e+58
          1443.80820	         1.11655e+58
          1444.61450	         1.03365e+58
          1445.42080	         9.17223e+57
          1446.22710	         1.05419e+58
          1447.03340	         1.14990e+58
          1447.83970	         1.23546e+58
          1448.64600	         1.06861e+58
          1449.45230	         9.75734e+57
          1450.25860	         9.71078e+57
          1451.06490	         9.67206e+57
          1451.87120	         7.75910e+57
          1452.67750	         7.30203e+57
          1453.48380	         8.91807e+57
          1454.29010	         9.41058e+57
          1455.09640	         8.22217e+57
          1455.90270	         9.59333e+57
          1456.70900	         9.14530e+57
          1457.51530	         9.35697e+57
          1458.32160	         1.21728e+58
          1459.12790	         1.13547e+58
          1459.93420	         9.94084e+57
          1460.74050	         8.45869e+57
          1461.54680	         8.25082e+57
          1462.35310	         8.05223e+57
          1463.15940	         9.28576e+57
          1463.96570	         1.13403e+58
          1464.77200	         1.21212e+58
          1465.57830	         9.97687e+57
          1466.38460	         9.16252e+57
          1467.19090	         8.89638e+57
          1467.99720	         8.18080e+57
          1468.80350	         8.53522e+57
          1469.60980	         9.42503e+57
          1470.41610	         1.04386e+58
          1471.22240	         8.44704e+57
          1472.02870	         8.33881e+57
          1472.83500	         9.88693e+57
          1473.64130	         1.04130e+58
          1474.44760	         9.42061e+57
          1475.25390	         9.48504e+57
          1476.06020	         9.11661e+57
          1476.86650	         8.90207e+57
          1477.67280	         8.97935e+57
          1478.47910	         7.99457e+57
          1479.28540	         6.85152e+57
          1480.09170	         7.23649e+57
          1480.89800	         8.03748e+57
          1481.70430	         8.56093e+57
          1482.51060	         8.27913e+57
          1483.31690	         8.57682e+57
          1484.12320	         7.84467e+57
          1484.92950	         7.23319e+57
          1485.73580	         8.60705e+57
          1486.54210	         8.78422e+57
          1487.34840	         8.34610e+57
          1488.15470	         8.09632e+57
          1488.96100	         6.97853e+57
          1489.76730	         7.78557e+57
