#sample_366_stacked_spectrum_rest_UV-bands_median_H-alpha_noDC.txt
#median Lum: 1.67380e+42
#Rest-frame wavelength (A) | Luminosity (erg/s/A)
#
          1110.00000	         0.00000e+00
          1110.80630	         4.46252e+59
          1111.61260	         4.36688e+59
          1112.41890	         1.24594e+59
          1113.22520	         3.65956e+58
          1114.03150	        -1.91977e+58
          1114.83780	         1.36301e+57
          1115.64410	         5.76331e+58
          1116.45040	         2.61280e+59
          1117.25670	         1.28878e+59
          1118.06300	         1.89825e+59
          1118.86930	         7.38442e+58
          1119.67560	         1.41725e+59
          1120.48190	        -1.06082e+57
          1121.28820	        -1.19078e+59
          1122.09450	        -1.88080e+58
          1122.90080	         2.14092e+58
          1123.70710	         1.12903e+59
          1124.51340	         5.82036e+58
          1125.31970	        -2.79184e+58
          1126.12600	         1.52669e+58
          1126.93230	        -1.26633e+58
          1127.73860	        -5.58675e+58
          1128.54490	        -2.67806e+58
          1129.35120	         4.93702e+58
          1130.15750	         4.08559e+57
          1130.96380	        -9.73032e+57
          1131.77010	         5.17520e+58
          1132.57640	         5.86551e+58
          1133.38270	         2.94700e+58
          1134.18900	         3.77058e+58
          1134.99530	         3.12772e+58
          1135.80160	         4.17217e+58
          1136.60790	         1.07350e+58
          1137.41420	        -9.02713e+57
          1138.22050	         5.44603e+58
          1139.02680	         2.57356e+58
          1139.83310	         8.94158e+57
          1140.63940	         2.96971e+58
          1141.44570	         5.30024e+57
          1142.25200	        -1.85760e+56
          1143.05830	         8.12780e+57
          1143.86460	         1.66990e+58
          1144.67090	         2.63271e+58
          1145.47720	         1.44055e+58
          1146.28350	         1.42638e+58
          1147.08980	         5.39057e+57
          1147.89610	         1.31385e+58
          1148.70240	         1.45231e+58
          1149.50870	         1.98343e+58
          1150.31500	         9.96649e+57
          1151.12130	         1.53915e+58
          1151.92760	         1.07294e+58
          1152.73390	         9.85822e+57
          1153.54020	         1.11866e+58
          1154.34650	         1.27594e+58
          1155.15280	         1.30781e+58
          1155.95910	         1.02740e+58
          1156.76540	         2.50224e+58
          1157.57170	         8.20389e+57
          1158.37800	        -5.66750e+56
          1159.18430	        -6.53637e+57
          1159.99060	         1.18472e+58
          1160.79690	         1.26709e+58
          1161.60320	         1.64205e+58
          1162.40950	         1.62130e+58
          1163.21580	         1.57551e+58
          1164.02210	         1.02805e+58
          1164.82840	         1.28738e+58
          1165.63470	         1.88368e+58
          1166.44100	         2.88471e+58
          1167.24730	         1.71289e+58
          1168.05360	         1.08268e+58
          1168.85990	         6.34404e+57
          1169.66620	         9.78097e+57
          1170.47250	         1.78413e+58
          1171.27880	         1.47194e+58
          1172.08510	         1.17120e+58
          1172.89140	         1.32010e+58
          1173.69770	         5.29931e+57
          1174.50400	         1.08160e+58
          1175.31030	         1.59433e+58
          1176.11660	         1.76628e+58
          1176.92290	         1.50624e+58
          1177.72920	         8.79065e+57
          1178.53550	         6.82368e+57
          1179.34180	         2.81109e+57
          1180.14810	         5.24762e+57
          1180.95440	         6.60672e+57
          1181.76070	         5.43697e+57
          1182.56700	         6.13705e+57
          1183.37330	         7.57671e+57
          1184.17960	         1.18866e+58
          1184.98590	         1.21961e+58
          1185.79220	         6.77585e+57
          1186.59850	         1.24449e+58
          1187.40480	         9.92458e+57
          1188.21110	         1.42205e+58
          1189.01740	         8.80936e+57
          1189.82370	         9.03582e+57
          1190.63000	         1.24151e+58
          1191.43630	         1.48099e+58
          1192.24260	         9.35974e+57
          1193.04890	         1.11307e+58
          1193.85520	         1.09143e+58
          1194.66150	         9.24119e+57
          1195.46780	         1.29637e+58
          1196.27410	         1.10265e+58
          1197.08040	         4.96255e+57
          1197.88670	         1.59011e+58
          1198.69300	         1.58273e+58
          1199.49930	         1.54178e+58
          1200.30560	         1.21830e+58
          1201.11190	         1.13559e+58
          1201.91820	         9.38448e+57
          1202.72450	         7.68803e+57
          1203.53080	         1.56923e+58
          1204.33710	         1.12533e+58
          1205.14340	         7.35963e+57
          1205.94970	         7.23331e+57
          1206.75600	         5.32911e+57
          1207.56230	         6.05444e+57
          1208.36860	         9.15918e+57
          1209.17490	         4.80839e+57
          1209.98120	         5.66652e+57
          1210.78750	         1.38247e+58
          1211.59380	         1.36539e+58
          1212.40010	         1.84152e+58
          1213.20640	         1.95960e+58
          1214.01270	         1.96017e+58
          1214.81900	         2.63051e+58
          1215.62530	         4.62140e+58
          1216.43160	         9.13556e+58
          1217.23790	         1.53195e+59
          1218.04420	         1.17094e+59
          1218.85050	         8.95938e+58
          1219.65680	         5.86269e+58
          1220.46310	         3.56290e+58
          1221.26940	         2.34841e+58
          1222.07570	         1.45490e+58
          1222.88200	         1.09946e+58
          1223.68830	         1.06008e+58
          1224.49460	         1.04836e+58
          1225.30090	         7.24270e+57
          1226.10720	         5.31108e+57
          1226.91350	         7.16567e+57
          1227.71980	         7.58837e+57
          1228.52610	         1.30331e+58
          1229.33240	         1.41988e+58
          1230.13870	         1.18570e+58
          1230.94500	         7.19045e+57
          1231.75130	         6.12520e+57
          1232.55760	         9.40150e+57
          1233.36390	         8.71253e+57
          1234.17020	         8.76769e+57
          1234.97650	         7.92832e+57
          1235.78280	         1.00396e+58
          1236.58910	         9.64889e+57
          1237.39540	         1.08489e+58
          1238.20170	         1.09956e+58
          1239.00800	         1.34826e+58
          1239.81430	         1.44989e+58
          1240.62060	         1.06644e+58
          1241.42690	         1.23834e+58
          1242.23320	         1.43861e+58
          1243.03950	         8.95882e+57
          1243.84580	         8.85192e+57
          1244.65210	         1.09841e+58
          1245.45840	         1.06221e+58
          1246.26470	         1.08854e+58
          1247.07100	         1.13610e+58
          1247.87730	         7.28507e+57
          1248.68360	         6.22501e+57
          1249.48990	         1.06433e+58
          1250.29620	         1.04252e+58
          1251.10250	         7.25730e+57
          1251.90880	         5.53251e+57
          1252.71510	         4.48587e+57
          1253.52140	         4.08458e+57
          1254.32770	         7.08357e+57
          1255.13400	         1.21240e+58
          1255.94030	         1.36445e+58
          1256.74660	         1.10410e+58
          1257.55290	         1.11642e+58
          1258.35920	         9.34050e+57
          1259.16550	         6.21813e+57
          1259.97180	         5.16894e+57
          1260.77810	         1.05410e+58
          1261.58440	         1.14331e+58
          1262.39070	         6.61658e+57
          1263.19700	         8.62091e+57
          1264.00330	         1.05211e+58
          1264.80960	         1.09315e+58
          1265.61590	         1.14176e+58
          1266.42220	         1.08652e+58
          1267.22850	         1.16079e+58
          1268.03480	         1.47496e+58
          1268.84110	         1.41396e+58
          1269.64740	         1.28116e+58
          1270.45370	         1.36791e+58
          1271.26000	         1.13465e+58
          1272.06630	         1.18488e+58
          1272.87260	         1.22242e+58
          1273.67890	         1.14035e+58
          1274.48520	         1.25193e+58
          1275.29150	         1.46125e+58
          1276.09780	         1.26357e+58
          1276.90410	         1.35568e+58
          1277.71040	         1.25658e+58
          1278.51670	         1.03527e+58
          1279.32300	         1.29521e+58
          1280.12930	         1.23849e+58
          1280.93560	         1.19893e+58
          1281.74190	         1.12473e+58
          1282.54820	         1.28798e+58
          1283.35450	         1.13945e+58
          1284.16080	         1.23465e+58
          1284.96710	         1.50113e+58
          1285.77340	         1.07117e+58
          1286.57970	         9.22828e+57
          1287.38600	         1.26876e+58
          1288.19230	         1.82478e+58
          1288.99860	         1.58693e+58
          1289.80490	         1.08693e+58
          1290.61120	         1.44426e+58
          1291.41750	         1.59218e+58
          1292.22380	         1.11373e+58
          1293.03010	         9.21177e+57
          1293.83640	         1.09471e+58
          1294.64270	         9.93380e+57
          1295.44900	         6.20060e+57
          1296.25530	         8.79168e+57
          1297.06160	         1.04757e+58
          1297.86790	         9.53498e+57
          1298.67420	         9.80064e+57
          1299.48050	         1.02172e+58
          1300.28680	         1.00346e+58
          1301.09310	         6.93057e+57
          1301.89940	         4.07502e+57
          1302.70570	         6.51699e+57
          1303.51200	         7.26455e+57
          1304.31830	         9.08195e+57
          1305.12460	         1.06314e+58
          1305.93090	         1.19919e+58
          1306.73720	         1.14726e+58
          1307.54350	         1.32994e+58
          1308.34980	         1.49190e+58
          1309.15610	         1.49424e+58
          1309.96240	         1.63528e+58
          1310.76870	         1.50241e+58
          1311.57500	         1.18247e+58
          1312.38130	         1.14594e+58
          1313.18760	         1.32820e+58
          1313.99390	         1.50942e+58
          1314.80020	         1.61564e+58
          1315.60650	         1.47382e+58
          1316.41280	         1.16404e+58
          1317.21910	         1.12598e+58
          1318.02540	         1.16418e+58
          1318.83170	         1.17574e+58
          1319.63800	         1.17479e+58
          1320.44430	         1.08676e+58
          1321.25060	         1.07375e+58
          1322.05690	         1.10416e+58
          1322.86320	         1.21428e+58
          1323.66950	         1.10559e+58
          1324.47580	         8.58885e+57
          1325.28210	         9.14392e+57
          1326.08840	         1.09795e+58
          1326.89470	         1.27365e+58
          1327.70100	         1.11423e+58
          1328.50730	         8.83120e+57
          1329.31360	         1.07076e+58
          1330.11990	         1.02451e+58
          1330.92620	         9.48642e+57
          1331.73250	         1.21581e+58
          1332.53880	         1.08770e+58
          1333.34510	         8.79400e+57
          1334.15140	         9.78962e+57
          1334.95770	         9.60500e+57
          1335.76400	         1.12864e+58
          1336.57030	         1.09690e+58
          1337.37660	         9.63920e+57
          1338.18290	         9.31945e+57
          1338.98920	         9.40090e+57
          1339.79550	         1.06684e+58
          1340.60180	         1.08873e+58
          1341.40810	         1.22538e+58
          1342.21440	         1.09199e+58
          1343.02070	         9.41077e+57
          1343.82700	         1.14503e+58
          1344.63330	         1.20763e+58
          1345.43960	         1.23820e+58
          1346.24590	         1.17960e+58
          1347.05220	         1.22853e+58
          1347.85850	         1.19179e+58
          1348.66480	         1.19736e+58
          1349.47110	         1.18646e+58
          1350.27740	         1.22933e+58
          1351.08370	         1.11707e+58
          1351.89000	         1.22440e+58
          1352.69630	         1.24734e+58
          1353.50260	         1.03623e+58
          1354.30890	         1.08974e+58
          1355.11520	         1.28152e+58
          1355.92150	         1.17835e+58
          1356.72780	         1.03344e+58
          1357.53410	         9.24883e+57
          1358.34040	         1.17479e+58
          1359.14670	         1.28527e+58
          1359.95300	         1.11054e+58
          1360.75930	         1.13594e+58
          1361.56560	         1.17761e+58
          1362.37190	         1.16937e+58
          1363.17820	         1.15828e+58
          1363.98450	         1.17210e+58
          1364.79080	         1.18099e+58
          1365.59710	         1.26178e+58
          1366.40340	         1.14915e+58
          1367.20970	         1.16126e+58
          1368.01600	         1.03211e+58
          1368.82230	         1.04848e+58
          1369.62860	         1.24504e+58
          1370.43490	         9.17614e+57
          1371.24120	         9.71142e+57
          1372.04750	         8.36175e+57
          1372.85380	         9.55046e+57
          1373.66010	         1.05778e+58
          1374.46640	         1.08658e+58
          1375.27270	         1.18806e+58
          1376.07900	         1.01800e+58
          1376.88530	         9.49375e+57
          1377.69160	         9.05784e+57
          1378.49790	         8.13729e+57
          1379.30420	         7.28227e+57
          1380.11050	         9.08882e+57
          1380.91680	         9.23046e+57
          1381.72310	         8.08475e+57
          1382.52940	         8.43449e+57
          1383.33570	         9.91249e+57
          1384.14200	         1.05713e+58
          1384.94830	         1.09602e+58
          1385.75460	         1.14936e+58
          1386.56090	         1.25415e+58
          1387.36720	         1.20729e+58
          1388.17350	         1.19498e+58
          1388.97980	         1.05659e+58
          1389.78610	         8.68050e+57
          1390.59240	         7.56807e+57
          1391.39870	         7.19576e+57
          1392.20500	         8.57464e+57
          1393.01130	         7.38348e+57
          1393.81760	         7.41681e+57
          1394.62390	         7.55067e+57
          1395.43020	         5.99435e+57
          1396.23650	         6.34247e+57
          1397.04280	         7.54876e+57
          1397.84910	         8.17974e+57
          1398.65540	         7.95127e+57
          1399.46170	         8.83151e+57
          1400.26800	         8.94466e+57
          1401.07430	         7.26705e+57
          1401.88060	         7.99263e+57
          1402.68690	         9.33931e+57
          1403.49320	         9.97167e+57
          1404.29950	         9.49933e+57
          1405.10580	         9.61540e+57
          1405.91210	         1.08734e+58
          1406.71840	         1.05545e+58
          1407.52470	         1.13694e+58
          1408.33100	         1.06010e+58
          1409.13730	         1.03159e+58
          1409.94360	         1.15267e+58
          1410.74990	         1.06297e+58
          1411.55620	         9.45062e+57
          1412.36250	         9.14071e+57
          1413.16880	         8.40023e+57
          1413.97510	         7.54749e+57
          1414.78140	         7.71710e+57
          1415.58770	         1.01578e+58
          1416.39400	         1.11553e+58
          1417.20030	         1.08327e+58
          1418.00660	         9.56841e+57
          1418.81290	         9.99421e+57
          1419.61920	         1.19057e+58
          1420.42550	         1.23503e+58
          1421.23180	         1.31144e+58
          1422.03810	         1.25227e+58
          1422.84440	         1.21068e+58
          1423.65070	         1.29963e+58
          1424.45700	         1.19982e+58
          1425.26330	         9.86717e+57
          1426.06960	         8.51344e+57
          1426.87590	         8.95374e+57
          1427.68220	         1.01508e+58
          1428.48850	         1.07383e+58
          1429.29480	         1.12744e+58
          1430.10110	         1.16409e+58
          1430.90740	         1.00428e+58
          1431.71370	         8.94223e+57
          1432.52000	         8.54836e+57
          1433.32630	         8.11073e+57
          1434.13260	         8.24460e+57
          1434.93890	         8.58950e+57
          1435.74520	         8.39244e+57
          1436.55150	         9.09192e+57
          1437.35780	         9.01203e+57
          1438.16410	         9.89562e+57
          1438.97040	         9.76805e+57
          1439.77670	         9.05700e+57
          1440.58300	         9.31257e+57
          1441.38930	         9.31259e+57
          1442.19560	         9.60214e+57
          1443.00190	         1.03165e+58
          1443.80820	         1.12496e+58
          1444.61450	         9.95935e+57
          1445.42080	         9.38892e+57
          1446.22710	         1.11445e+58
          1447.03340	         9.94979e+57
          1447.83970	         1.06123e+58
          1448.64600	         1.07641e+58
          1449.45230	         1.01745e+58
          1450.25860	         9.02812e+57
          1451.06490	         8.78461e+57
          1451.87120	         7.40635e+57
          1452.67750	         7.51034e+57
          1453.48380	         8.88624e+57
          1454.29010	         7.72490e+57
          1455.09640	         7.57217e+57
          1455.90270	         9.32850e+57
          1456.70900	         8.98117e+57
          1457.51530	         9.05627e+57
          1458.32160	         1.21202e+58
          1459.12790	         1.12938e+58
          1459.93420	         1.00333e+58
          1460.74050	         9.27866e+57
          1461.54680	         8.84674e+57
          1462.35310	         8.27307e+57
          1463.15940	         9.92029e+57
          1463.96570	         1.06503e+58
          1464.77200	         1.04741e+58
          1465.57830	         9.70737e+57
          1466.38460	         9.12559e+57
          1467.19090	         9.31415e+57
          1467.99720	         9.89173e+57
          1468.80350	         1.09111e+58
          1469.60980	         1.06006e+58
          1470.41610	         1.06380e+58
          1471.22240	         9.41575e+57
          1472.02870	         9.73975e+57
          1472.83500	         1.01493e+58
          1473.64130	         9.58703e+57
          1474.44760	         1.03362e+58
          1475.25390	         9.94844e+57
          1476.06020	         9.71648e+57
          1476.86650	         8.65009e+57
          1477.67280	         8.26574e+57
          1478.47910	         7.67022e+57
          1479.28540	         7.50251e+57
          1480.09170	         8.79713e+57
          1480.89800	         8.84588e+57
          1481.70430	         8.38309e+57
          1482.51060	         9.00542e+57
          1483.31690	         8.39031e+57
          1484.12320	         8.07858e+57
          1484.92950	         7.43522e+57
          1485.73580	         8.25024e+57
          1486.54210	         8.51422e+57
          1487.34840	         9.81881e+57
          1488.15470	         8.41090e+57
          1488.96100	         7.83867e+57
          1489.76730	         9.21144e+57
