#sample_422_stacked_spectrum_rest_UV-bands_median_H-alpha_noDC.txt
#median Lum: 1.68433e+42
#Rest-frame wavelength (A) | Luminosity (erg/s/A)
#
          1110.00000	         0.00000e+00
          1110.80630	        -2.92502e+59
          1111.61260	        -2.57779e+59
          1112.41890	        -4.63968e+58
          1113.22520	         2.50150e+58
          1114.03150	        -3.69742e+58
          1114.83780	         2.44434e+59
          1115.64410	         2.33201e+59
          1116.45040	         2.77653e+59
          1117.25670	         5.84978e+58
          1118.06300	         1.30832e+59
          1118.86930	        -1.04643e+59
          1119.67560	         7.13495e+58
          1120.48190	        -2.54244e+58
          1121.28820	        -6.82531e+58
          1122.09450	        -7.41264e+58
          1122.90080	         5.63823e+57
          1123.70710	         1.05220e+59
          1124.51340	         1.42191e+59
          1125.31970	         9.52216e+57
          1126.12600	         5.46918e+58
          1126.93230	        -4.93904e+58
          1127.73860	         3.48989e+57
          1128.54490	         3.13571e+58
          1129.35120	         2.52941e+58
          1130.15750	        -4.14565e+58
          1130.96380	        -8.19467e+58
          1131.77010	        -7.29746e+57
          1132.57640	         4.55904e+58
          1133.38270	         3.15544e+58
          1134.18900	         1.27100e+58
          1134.99530	         3.16438e+58
          1135.80160	         3.14482e+58
          1136.60790	         1.79725e+58
          1137.41420	        -9.03611e+57
          1138.22050	         4.98992e+58
          1139.02680	         4.53969e+58
          1139.83310	         2.55336e+58
          1140.63940	         3.32674e+58
          1141.44570	        -2.58377e+57
          1142.25200	         2.60175e+56
          1143.05830	         2.01848e+58
          1143.86460	         1.79254e+58
          1144.67090	         9.93832e+57
          1145.47720	         1.21063e+58
          1146.28350	         1.71805e+58
          1147.08980	         1.68345e+58
          1147.89610	         1.34030e+58
          1148.70240	         2.13573e+58
          1149.50870	         2.60532e+58
          1150.31500	         5.42065e+57
          1151.12130	         9.46464e+57
          1151.92760	         9.41520e+57
          1152.73390	         6.54575e+57
          1153.54020	         9.93164e+57
          1154.34650	         2.25101e+58
          1155.15280	         2.52871e+58
          1155.95910	         3.77997e+57
          1156.76540	         1.10211e+58
          1157.57170	        -4.33824e+57
          1158.37800	        -9.12056e+56
          1159.18430	        -3.71325e+57
          1159.99060	         4.93869e+57
          1160.79690	         7.13332e+57
          1161.60320	         1.66246e+58
          1162.40950	         1.97208e+58
          1163.21580	         1.93814e+58
          1164.02210	         1.16909e+58
          1164.82840	         9.85160e+57
          1165.63470	         1.80186e+58
          1166.44100	         3.04612e+58
          1167.24730	         2.66617e+58
          1168.05360	         1.63897e+58
          1168.85990	         9.36593e+57
          1169.66620	         1.74195e+58
          1170.47250	         1.02308e+58
          1171.27880	         5.29754e+57
          1172.08510	         1.27406e+58
          1172.89140	         8.81442e+57
          1173.69770	         6.83709e+57
          1174.50400	         1.01819e+58
          1175.31030	         1.53597e+58
          1176.11660	         1.40969e+58
          1176.92290	         1.30185e+58
          1177.72920	         1.05428e+58
          1178.53550	         5.34567e+57
          1179.34180	        -2.80694e+57
          1180.14810	         8.00399e+57
          1180.95440	         1.29811e+58
          1181.76070	         1.22433e+58
          1182.56700	         1.17615e+58
          1183.37330	         1.00427e+58
          1184.17960	         1.09072e+58
          1184.98590	         8.63939e+57
          1185.79220	         4.25671e+57
          1186.59850	         7.10378e+57
          1187.40480	         8.24616e+57
          1188.21110	         1.30103e+58
          1189.01740	         1.32656e+58
          1189.82370	         1.16504e+58
          1190.63000	         9.45195e+57
          1191.43630	         1.33285e+58
          1192.24260	         1.41112e+58
          1193.04890	         1.36972e+58
          1193.85520	         1.22014e+58
          1194.66150	         6.43735e+57
          1195.46780	         9.57568e+57
          1196.27410	         1.32944e+58
          1197.08040	         8.81592e+57
          1197.88670	         1.14211e+58
          1198.69300	         1.19974e+58
          1199.49930	         1.29709e+58
          1200.30560	         1.33647e+58
          1201.11190	         1.35279e+58
          1201.91820	         1.25756e+58
          1202.72450	         9.88338e+57
          1203.53080	         9.54343e+57
          1204.33710	         5.68085e+57
          1205.14340	         4.01121e+57
          1205.94970	         3.61579e+57
          1206.75600	         6.76291e+57
          1207.56230	         7.73893e+57
          1208.36860	         1.11578e+58
          1209.17490	         7.35355e+57
          1209.98120	         7.22661e+57
          1210.78750	         7.45157e+57
          1211.59380	         1.08855e+58
          1212.40010	         1.98240e+58
          1213.20640	         2.02254e+58
          1214.01270	         1.99128e+58
          1214.81900	         2.81289e+58
          1215.62530	         4.71386e+58
          1216.43160	         9.08793e+58
          1217.23790	         1.52463e+59
          1218.04420	         1.16357e+59
          1218.85050	         8.24959e+58
          1219.65680	         5.31794e+58
          1220.46310	         3.54470e+58
          1221.26940	         2.32167e+58
          1222.07570	         1.77300e+58
          1222.88200	         1.54334e+58
          1223.68830	         9.13537e+57
          1224.49460	         7.00175e+57
          1225.30090	         6.48814e+57
          1226.10720	         5.18479e+57
          1226.91350	         8.49667e+57
          1227.71980	         9.44337e+57
          1228.52610	         1.30865e+58
          1229.33240	         8.42127e+57
          1230.13870	         8.31717e+57
          1230.94500	         1.21764e+58
          1231.75130	         9.72139e+57
          1232.55760	         1.10781e+58
          1233.36390	         9.17609e+57
          1234.17020	         8.01836e+57
          1234.97650	         8.13020e+57
          1235.78280	         5.53285e+57
          1236.58910	         5.59247e+57
          1237.39540	         8.61503e+57
          1238.20170	         1.09945e+58
          1239.00800	         1.51418e+58
          1239.81430	         1.62643e+58
          1240.62060	         1.04218e+58
          1241.42690	         7.86978e+57
          1242.23320	         9.70099e+57
          1243.03950	         8.18579e+57
          1243.84580	         6.83351e+57
          1244.65210	         8.54042e+57
          1245.45840	         1.07834e+58
          1246.26470	         1.09413e+58
          1247.07100	         6.98542e+57
          1247.87730	         4.95435e+57
          1248.68360	         4.00316e+57
          1249.48990	         8.56862e+57
          1250.29620	         1.01251e+58
          1251.10250	         1.03251e+58
          1251.90880	         5.80867e+57
          1252.71510	         5.61119e+57
          1253.52140	         8.80011e+57
          1254.32770	         1.09747e+58
          1255.13400	         1.21555e+58
          1255.94030	         1.32906e+58
          1256.74660	         9.77097e+57
          1257.55290	         9.86665e+57
          1258.35920	         1.05768e+58
          1259.16550	         6.39003e+57
          1259.97180	         5.61114e+57
          1260.77810	         8.84876e+57
          1261.58440	         9.99133e+57
          1262.39070	         8.39897e+57
          1263.19700	         8.62913e+57
          1264.00330	         7.88884e+57
          1264.80960	         9.09973e+57
          1265.61590	         1.36552e+58
          1266.42220	         1.44916e+58
          1267.22850	         1.17602e+58
          1268.03480	         1.46037e+58
          1268.84110	         1.48434e+58
          1269.64740	         1.06206e+58
          1270.45370	         1.11158e+58
          1271.26000	         1.13984e+58
          1272.06630	         1.31865e+58
          1272.87260	         1.36624e+58
          1273.67890	         1.07411e+58
          1274.48520	         1.00276e+58
          1275.29150	         9.87365e+57
          1276.09780	         1.00676e+58
          1276.90410	         1.51722e+58
          1277.71040	         1.39794e+58
          1278.51670	         1.27481e+58
          1279.32300	         1.50094e+58
          1280.12930	         1.35992e+58
          1280.93560	         1.26691e+58
          1281.74190	         1.32824e+58
          1282.54820	         1.12839e+58
          1283.35450	         1.03462e+58
          1284.16080	         1.13138e+58
          1284.96710	         1.24028e+58
          1285.77340	         1.33914e+58
          1286.57970	         1.35662e+58
          1287.38600	         1.41287e+58
          1288.19230	         1.69687e+58
          1288.99860	         1.56379e+58
          1289.80490	         1.23083e+58
          1290.61120	         1.34331e+58
          1291.41750	         1.44700e+58
          1292.22380	         1.21004e+58
          1293.03010	         1.16183e+58
          1293.83640	         1.30015e+58
          1294.64270	         1.05755e+58
          1295.44900	         6.74521e+57
          1296.25530	         5.30906e+57
          1297.06160	         7.72167e+57
          1297.86790	         9.54869e+57
          1298.67420	         8.26616e+57
          1299.48050	         8.95140e+57
          1300.28680	         1.06636e+58
          1301.09310	         8.05379e+57
          1301.89940	         3.74874e+57
          1302.70570	         6.16176e+57
          1303.51200	         8.42822e+57
          1304.31830	         1.02180e+58
          1305.12460	         1.01908e+58
          1305.93090	         1.14359e+58
          1306.73720	         1.28924e+58
          1307.54350	         1.45555e+58
          1308.34980	         1.56940e+58
          1309.15610	         1.60179e+58
          1309.96240	         1.52406e+58
          1310.76870	         1.18716e+58
          1311.57500	         1.07584e+58
          1312.38130	         1.07202e+58
          1313.18760	         1.29392e+58
          1313.99390	         1.49004e+58
          1314.80020	         1.60361e+58
          1315.60650	         1.57652e+58
          1316.41280	         1.39885e+58
          1317.21910	         1.11230e+58
          1318.02540	         1.06638e+58
          1318.83170	         1.29857e+58
          1319.63800	         1.30612e+58
          1320.44430	         1.10513e+58
          1321.25060	         1.12038e+58
          1322.05690	         1.24586e+58
          1322.86320	         1.18412e+58
          1323.66950	         1.03322e+58
          1324.47580	         7.84450e+57
          1325.28210	         9.28052e+57
          1326.08840	         1.17131e+58
          1326.89470	         1.09766e+58
          1327.70100	         9.93585e+57
          1328.50730	         7.78233e+57
          1329.31360	         7.81696e+57
          1330.11990	         9.37813e+57
          1330.92620	         8.16185e+57
          1331.73250	         8.41159e+57
          1332.53880	         8.94212e+57
          1333.34510	         9.70805e+57
          1334.15140	         8.49110e+57
          1334.95770	         9.24985e+57
          1335.76400	         1.23204e+58
          1336.57030	         1.21731e+58
          1337.37660	         1.16548e+58
          1338.18290	         1.21194e+58
          1338.98920	         1.23489e+58
          1339.79550	         1.13707e+58
          1340.60180	         1.30229e+58
          1341.40810	         1.48852e+58
          1342.21440	         1.34952e+58
          1343.02070	         1.37928e+58
          1343.82700	         1.19442e+58
          1344.63330	         1.10873e+58
          1345.43960	         1.23133e+58
          1346.24590	         1.07261e+58
          1347.05220	         1.11354e+58
          1347.85850	         9.23513e+57
          1348.66480	         1.17898e+58
          1349.47110	         1.30135e+58
          1350.27740	         1.32746e+58
          1351.08370	         1.18793e+58
          1351.89000	         1.10429e+58
          1352.69630	         1.10039e+58
          1353.50260	         9.90427e+57
          1354.30890	         1.18680e+58
          1355.11520	         1.34282e+58
          1355.92150	         1.06034e+58
          1356.72780	         8.92268e+57
          1357.53410	         1.09656e+58
          1358.34040	         1.14851e+58
          1359.14670	         1.10611e+58
          1359.95300	         1.08422e+58
          1360.75930	         1.13618e+58
          1361.56560	         1.15132e+58
          1362.37190	         1.10399e+58
          1363.17820	         1.20716e+58
          1363.98450	         1.43398e+58
          1364.79080	         1.48780e+58
          1365.59710	         1.43922e+58
          1366.40340	         1.09679e+58
          1367.20970	         9.68274e+57
          1368.01600	         9.28234e+57
          1368.82230	         8.22089e+57
          1369.62860	         1.05674e+58
          1370.43490	         9.34037e+57
          1371.24120	         9.38374e+57
          1372.04750	         1.07726e+58
          1372.85380	         1.17775e+58
          1373.66010	         1.15079e+58
          1374.46640	         1.06727e+58
          1375.27270	         1.04910e+58
          1376.07900	         9.06190e+57
          1376.88530	         8.39421e+57
          1377.69160	         8.76376e+57
          1378.49790	         7.68669e+57
          1379.30420	         7.81345e+57
          1380.11050	         7.58246e+57
          1380.91680	         7.17669e+57
          1381.72310	         7.57084e+57
          1382.52940	         8.56928e+57
          1383.33570	         9.60179e+57
          1384.14200	         8.79592e+57
          1384.94830	         9.23084e+57
          1385.75460	         1.20982e+58
          1386.56090	         1.23462e+58
          1387.36720	         1.02378e+58
          1388.17350	         1.24121e+58
          1388.97980	         1.16229e+58
          1389.78610	         9.26233e+57
          1390.59240	         7.85526e+57
          1391.39870	         7.24664e+57
          1392.20500	         8.13227e+57
          1393.01130	         8.29126e+57
          1393.81760	         7.76305e+57
          1394.62390	         8.08005e+57
          1395.43020	         7.66777e+57
          1396.23650	         6.90642e+57
          1397.04280	         7.75481e+57
          1397.84910	         9.06051e+57
          1398.65540	         9.38601e+57
          1399.46170	         1.08361e+58
          1400.26800	         8.49537e+57
          1401.07430	         6.46422e+57
          1401.88060	         7.95327e+57
          1402.68690	         8.34040e+57
          1403.49320	         8.37695e+57
          1404.29950	         9.36438e+57
          1405.10580	         1.05894e+58
          1405.91210	         1.16649e+58
          1406.71840	         1.21067e+58
          1407.52470	         1.19923e+58
          1408.33100	         1.07497e+58
          1409.13730	         1.10441e+58
          1409.94360	         1.16573e+58
          1410.74990	         1.05909e+58
          1411.55620	         9.13893e+57
          1412.36250	         9.72006e+57
          1413.16880	         9.74037e+57
          1413.97510	         9.33440e+57
          1414.78140	         9.33778e+57
          1415.58770	         1.00115e+58
          1416.39400	         1.02790e+58
          1417.20030	         1.15149e+58
          1418.00660	         1.08176e+58
          1418.81290	         9.97025e+57
          1419.61920	         9.78131e+57
          1420.42550	         1.22305e+58
          1421.23180	         1.34393e+58
          1422.03810	         1.13617e+58
          1422.84440	         1.17038e+58
          1423.65070	         1.36964e+58
          1424.45700	         1.17040e+58
          1425.26330	         1.00083e+58
          1426.06960	         1.00794e+58
          1426.87590	         1.06357e+58
          1427.68220	         9.74314e+57
          1428.48850	         1.04013e+58
          1429.29480	         1.12272e+58
          1430.10110	         1.16828e+58
          1430.90740	         9.99550e+57
          1431.71370	         9.57242e+57
          1432.52000	         9.02964e+57
          1433.32630	         6.99372e+57
          1434.13260	         7.03732e+57
          1434.93890	         8.22206e+57
          1435.74520	         8.96098e+57
          1436.55150	         1.03022e+58
          1437.35780	         9.98239e+57
          1438.16410	         8.89775e+57
          1438.97040	         9.15936e+57
          1439.77670	         9.37602e+57
          1440.58300	         9.27639e+57
          1441.38930	         9.67211e+57
          1442.19560	         9.77150e+57
          1443.00190	         9.64354e+57
          1443.80820	         1.06565e+58
          1444.61450	         9.40518e+57
          1445.42080	         7.96906e+57
          1446.22710	         9.78082e+57
          1447.03340	         9.65961e+57
          1447.83970	         1.05138e+58
          1448.64600	         1.06121e+58
          1449.45230	         9.94611e+57
          1450.25860	         9.89293e+57
          1451.06490	         9.65410e+57
          1451.87120	         8.39128e+57
          1452.67750	         8.15996e+57
          1453.48380	         8.04654e+57
          1454.29010	         7.58844e+57
          1455.09640	         8.12542e+57
          1455.90270	         8.68994e+57
          1456.70900	         8.48777e+57
          1457.51530	         9.77750e+57
          1458.32160	         1.16934e+58
          1459.12790	         1.12207e+58
          1459.93420	         9.47253e+57
          1460.74050	         8.25898e+57
          1461.54680	         9.08032e+57
          1462.35310	         8.93996e+57
          1463.15940	         1.03661e+58
          1463.96570	         1.07431e+58
          1464.77200	         1.09268e+58
          1465.57830	         1.10981e+58
          1466.38460	         1.04325e+58
          1467.19090	         9.28441e+57
          1467.99720	         9.07149e+57
          1468.80350	         1.04295e+58
          1469.60980	         1.13695e+58
          1470.41610	         1.09363e+58
          1471.22240	         9.24360e+57
          1472.02870	         9.47469e+57
          1472.83500	         1.06744e+58
          1473.64130	         9.58490e+57
          1474.44760	         9.97004e+57
          1475.25390	         1.00592e+58
          1476.06020	         9.37716e+57
          1476.86650	         9.15714e+57
          1477.67280	         8.02710e+57
          1478.47910	         7.94615e+57
          1479.28540	         7.67549e+57
          1480.09170	         8.37312e+57
          1480.89800	         8.87658e+57
          1481.70430	         8.36013e+57
          1482.51060	         8.63001e+57
          1483.31690	         8.68773e+57
          1484.12320	         8.66394e+57
          1484.92950	         7.78723e+57
          1485.73580	         7.98291e+57
          1486.54210	         9.27457e+57
          1487.34840	         9.53049e+57
          1488.15470	         8.49530e+57
          1488.96100	         8.13674e+57
          1489.76730	         9.64417e+57
