#sample_47_stacked_spectrum_rest_UV-bands_median_H-alpha_noDC.txt
#median Lum: 1.71552e+42
#Rest-frame wavelength (A) | Luminosity (erg/s/A)
#
          1110.00000	         0.00000e+00
          1110.80630	         1.00388e+59
          1111.61260	         3.53752e+58
          1112.41890	         2.07011e+59
          1113.22520	         1.12503e+59
          1114.03150	         1.36625e+58
          1114.83780	        -7.06934e+58
          1115.64410	         7.23180e+58
          1116.45040	         1.01008e+59
          1117.25670	        -1.60422e+58
          1118.06300	         6.99185e+58
          1118.86930	        -3.09950e+58
          1119.67560	         1.27565e+59
          1120.48190	        -8.55922e+57
          1121.28820	        -7.41827e+58
          1122.09450	        -8.78715e+58
          1122.90080	        -4.38069e+57
          1123.70710	         1.18572e+59
          1124.51340	         1.06471e+59
          1125.31970	        -4.52176e+58
          1126.12600	         1.17759e+58
          1126.93230	        -4.75887e+58
          1127.73860	        -3.95610e+58
          1128.54490	         9.04361e+57
          1129.35120	        -2.19157e+57
          1130.15750	         1.27340e+58
          1130.96380	        -1.30755e+58
          1131.77010	         3.40310e+58
          1132.57640	         3.95227e+58
          1133.38270	         2.16510e+58
          1134.18900	         1.29085e+58
          1134.99530	         5.00937e+58
          1135.80160	         7.34859e+58
          1136.60790	         1.72408e+58
          1137.41420	         1.12614e+58
          1138.22050	         3.50060e+58
          1139.02680	         3.56212e+58
          1139.83310	         1.57364e+58
          1140.63940	         2.28699e+58
          1141.44570	        -1.35038e+58
          1142.25200	         5.41016e+56
          1143.05830	         1.78086e+58
          1143.86460	         3.86712e+58
          1144.67090	         2.58855e+58
          1145.47720	         8.85776e+57
          1146.28350	         1.15207e+58
          1147.08980	         1.02014e+58
          1147.89610	         1.84796e+58
          1148.70240	         2.05458e+58
          1149.50870	         3.07212e+58
          1150.31500	         1.15617e+58
          1151.12130	         5.39574e+57
          1151.92760	         5.98787e+57
          1152.73390	        -7.33630e+57
          1153.54020	         7.19482e+57
          1154.34650	         1.70051e+58
          1155.15280	         1.35412e+58
          1155.95910	         7.29370e+57
          1156.76540	         6.24163e+57
          1157.57170	         7.36725e+57
          1158.37800	         1.08188e+58
          1159.18430	         3.42159e+57
          1159.99060	         1.25484e+58
          1160.79690	         4.33853e+57
          1161.60320	         1.24061e+58
          1162.40950	         1.46029e+58
          1163.21580	         1.67988e+58
          1164.02210	         1.43368e+58
          1164.82840	         5.37914e+57
          1165.63470	         1.24185e+58
          1166.44100	         2.87449e+58
          1167.24730	         2.25725e+58
          1168.05360	         6.02747e+57
          1168.85990	         5.90089e+57
          1169.66620	         8.70342e+57
          1170.47250	         9.13477e+57
          1171.27880	         1.02752e+58
          1172.08510	         9.95888e+57
          1172.89140	         1.20718e+58
          1173.69770	         3.88751e+57
          1174.50400	         7.74350e+57
          1175.31030	         8.06221e+57
          1176.11660	         1.27917e+58
          1176.92290	         1.25283e+58
          1177.72920	         1.04675e+58
          1178.53550	         7.85820e+57
          1179.34180	         8.00733e+57
          1180.14810	         7.86581e+57
          1180.95440	         1.05599e+58
          1181.76070	         1.25455e+58
          1182.56700	         8.87865e+57
          1183.37330	         4.93508e+57
          1184.17960	         9.68051e+57
          1184.98590	         8.68603e+57
          1185.79220	         9.48529e+57
          1186.59850	         9.66614e+57
          1187.40480	         1.15662e+58
          1188.21110	         2.25769e+58
          1189.01740	         1.01579e+58
          1189.82370	         1.51476e+58
          1190.63000	         1.26773e+58
          1191.43630	         1.09432e+58
          1192.24260	         4.98717e+57
          1193.04890	         8.37874e+57
          1193.85520	         9.23021e+57
          1194.66150	         5.47323e+56
          1195.46780	         8.96882e+57
          1196.27410	         1.32625e+58
          1197.08040	         7.53635e+57
          1197.88670	         1.18875e+58
          1198.69300	         1.48556e+58
          1199.49930	         1.42906e+58
          1200.30560	         9.95506e+57
          1201.11190	         7.95295e+57
          1201.91820	         1.23508e+58
          1202.72450	         1.06911e+58
          1203.53080	         1.74032e+58
          1204.33710	         1.25831e+58
          1205.14340	         9.71939e+57
          1205.94970	         6.94249e+57
          1206.75600	         9.99161e+57
          1207.56230	         6.61502e+57
          1208.36860	         6.41862e+57
          1209.17490	         5.90633e+57
          1209.98120	         4.71329e+57
          1210.78750	         5.04472e+57
          1211.59380	         1.18100e+58
          1212.40010	         1.81293e+58
          1213.20640	         2.06283e+58
          1214.01270	         2.44715e+58
          1214.81900	         2.61779e+58
          1215.62530	         4.29686e+58
          1216.43160	         9.02865e+58
          1217.23790	         1.53594e+59
          1218.04420	         1.15673e+59
          1218.85050	         8.79108e+58
          1219.65680	         5.75438e+58
          1220.46310	         3.19860e+58
          1221.26940	         2.44962e+58
          1222.07570	         1.75701e+58
          1222.88200	         1.20531e+58
          1223.68830	         9.59547e+57
          1224.49460	         7.31383e+57
          1225.30090	         7.97002e+57
          1226.10720	         8.28499e+57
          1226.91350	         8.64546e+57
          1227.71980	         8.16949e+57
          1228.52610	         9.19447e+57
          1229.33240	         9.49234e+57
          1230.13870	         9.51749e+57
          1230.94500	         1.13525e+58
          1231.75130	         7.87153e+57
          1232.55760	         8.41806e+57
          1233.36390	         8.81603e+57
          1234.17020	         1.10932e+58
          1234.97650	         1.09673e+58
          1235.78280	         9.62952e+57
          1236.58910	         8.26027e+57
          1237.39540	         1.04895e+58
          1238.20170	         1.20719e+58
          1239.00800	         1.39659e+58
          1239.81430	         1.52315e+58
          1240.62060	         1.22399e+58
          1241.42690	         1.14634e+58
          1242.23320	         1.18336e+58
          1243.03950	         8.65600e+57
          1243.84580	         7.77628e+57
          1244.65210	         9.73087e+57
          1245.45840	         9.48050e+57
          1246.26470	         6.31296e+57
          1247.07100	         3.46447e+57
          1247.87730	         4.30930e+57
          1248.68360	         4.65913e+57
          1249.48990	         8.90151e+57
          1250.29620	         9.95801e+57
          1251.10250	         8.11582e+57
          1251.90880	         7.38278e+57
          1252.71510	         6.26752e+57
          1253.52140	         7.27300e+57
          1254.32770	         1.21320e+58
          1255.13400	         1.34280e+58
          1255.94030	         1.28806e+58
          1256.74660	         1.09223e+58
          1257.55290	         9.71854e+57
          1258.35920	         9.51841e+57
          1259.16550	         8.24046e+57
          1259.97180	         6.78571e+57
          1260.77810	         1.12187e+58
          1261.58440	         1.29595e+58
          1262.39070	         7.51209e+57
          1263.19700	         8.41083e+57
          1264.00330	         9.93856e+57
          1264.80960	         1.04284e+58
          1265.61590	         1.14282e+58
          1266.42220	         1.20140e+58
          1267.22850	         1.02398e+58
          1268.03480	         1.41234e+58
          1268.84110	         1.45196e+58
          1269.64740	         1.26136e+58
          1270.45370	         1.64233e+58
          1271.26000	         1.56795e+58
          1272.06630	         1.16300e+58
          1272.87260	         1.22213e+58
          1273.67890	         1.48623e+58
          1274.48520	         1.48462e+58
          1275.29150	         1.35938e+58
          1276.09780	         1.29870e+58
          1276.90410	         1.44977e+58
          1277.71040	         1.45034e+58
          1278.51670	         1.34692e+58
          1279.32300	         1.38085e+58
          1280.12930	         1.27055e+58
          1280.93560	         1.18382e+58
          1281.74190	         1.23054e+58
          1282.54820	         1.35381e+58
          1283.35450	         1.14660e+58
          1284.16080	         1.27856e+58
          1284.96710	         1.56833e+58
          1285.77340	         1.33638e+58
          1286.57970	         1.10231e+58
          1287.38600	         1.46703e+58
          1288.19230	         1.70131e+58
          1288.99860	         1.35857e+58
          1289.80490	         1.06762e+58
          1290.61120	         1.33089e+58
          1291.41750	         1.51431e+58
          1292.22380	         1.36468e+58
          1293.03010	         1.11530e+58
          1293.83640	         1.16626e+58
          1294.64270	         9.95371e+57
          1295.44900	         5.90719e+57
          1296.25530	         6.09347e+57
          1297.06160	         8.34039e+57
          1297.86790	         9.90937e+57
          1298.67420	         9.14752e+57
          1299.48050	         9.58898e+57
          1300.28680	         9.67874e+57
          1301.09310	         7.52970e+57
          1301.89940	         3.51956e+57
          1302.70570	         6.28686e+57
          1303.51200	         8.73625e+57
          1304.31830	         1.04416e+58
          1305.12460	         1.19782e+58
          1305.93090	         1.26025e+58
          1306.73720	         1.37710e+58
          1307.54350	         1.41927e+58
          1308.34980	         1.40635e+58
          1309.15610	         1.62022e+58
          1309.96240	         1.83461e+58
          1310.76870	         1.74137e+58
          1311.57500	         1.18930e+58
          1312.38130	         1.15994e+58
          1313.18760	         1.43415e+58
          1313.99390	         1.68414e+58
          1314.80020	         1.79268e+58
          1315.60650	         1.64571e+58
          1316.41280	         1.39047e+58
          1317.21910	         1.12050e+58
          1318.02540	         1.19603e+58
          1318.83170	         1.32063e+58
          1319.63800	         1.16543e+58
          1320.44430	         9.71118e+57
          1321.25060	         1.08341e+58
          1322.05690	         1.19076e+58
          1322.86320	         1.17904e+58
          1323.66950	         1.06522e+58
          1324.47580	         9.11526e+57
          1325.28210	         1.02345e+58
          1326.08840	         1.21892e+58
          1326.89470	         1.20085e+58
          1327.70100	         1.04939e+58
          1328.50730	         8.48988e+57
          1329.31360	         9.44775e+57
          1330.11990	         1.01633e+58
          1330.92620	         9.71487e+57
          1331.73250	         1.08960e+58
          1332.53880	         9.47869e+57
          1333.34510	         8.52963e+57
          1334.15140	         8.31670e+57
          1334.95770	         9.22531e+57
          1335.76400	         1.06944e+58
          1336.57030	         1.14651e+58
          1337.37660	         1.16451e+58
          1338.18290	         1.11107e+58
          1338.98920	         1.15033e+58
          1339.79550	         1.30557e+58
          1340.60180	         1.31208e+58
          1341.40810	         1.36009e+58
          1342.21440	         1.26578e+58
          1343.02070	         1.19445e+58
          1343.82700	         1.41049e+58
          1344.63330	         1.28794e+58
          1345.43960	         1.14876e+58
          1346.24590	         9.74260e+57
          1347.05220	         1.02210e+58
          1347.85850	         1.13017e+58
          1348.66480	         1.15407e+58
          1349.47110	         1.21893e+58
          1350.27740	         1.28732e+58
          1351.08370	         1.27803e+58
          1351.89000	         1.20826e+58
          1352.69630	         1.26087e+58
          1353.50260	         1.28275e+58
          1354.30890	         1.22469e+58
          1355.11520	         1.25898e+58
          1355.92150	         1.14408e+58
          1356.72780	         1.09576e+58
          1357.53410	         1.18478e+58
          1358.34040	         1.10910e+58
          1359.14670	         1.06719e+58
          1359.95300	         1.12357e+58
          1360.75930	         1.18718e+58
          1361.56560	         1.11870e+58
          1362.37190	         1.14350e+58
          1363.17820	         1.07752e+58
          1363.98450	         1.17152e+58
          1364.79080	         1.32997e+58
          1365.59710	         1.15757e+58
          1366.40340	         8.99410e+57
          1367.20970	         9.04947e+57
          1368.01600	         9.22540e+57
          1368.82230	         8.31772e+57
          1369.62860	         1.09237e+58
          1370.43490	         1.08714e+58
          1371.24120	         1.06088e+58
          1372.04750	         9.39157e+57
          1372.85380	         1.21189e+58
          1373.66010	         1.23764e+58
          1374.46640	         1.00862e+58
          1375.27270	         9.99937e+57
          1376.07900	         9.00357e+57
          1376.88530	         9.03891e+57
          1377.69160	         9.69695e+57
          1378.49790	         7.40093e+57
          1379.30420	         5.58484e+57
          1380.11050	         7.19396e+57
          1380.91680	         8.23625e+57
          1381.72310	         7.82196e+57
          1382.52940	         7.59321e+57
          1383.33570	         8.88362e+57
          1384.14200	         1.01640e+58
          1384.94830	         1.14047e+58
          1385.75460	         1.11617e+58
          1386.56090	         1.01709e+58
          1387.36720	         1.08098e+58
          1388.17350	         1.27970e+58
          1388.97980	         1.13548e+58
          1389.78610	         8.47308e+57
          1390.59240	         8.66686e+57
          1391.39870	         8.47963e+57
          1392.20500	         8.57886e+57
          1393.01130	         7.58578e+57
          1393.81760	         8.04756e+57
          1394.62390	         8.81634e+57
          1395.43020	         8.03176e+57
          1396.23650	         7.23246e+57
          1397.04280	         7.87730e+57
          1397.84910	         8.24029e+57
          1398.65540	         9.35713e+57
          1399.46170	         1.12329e+58
          1400.26800	         8.76502e+57
          1401.07430	         8.08028e+57
          1401.88060	         9.10892e+57
          1402.68690	         9.45843e+57
          1403.49320	         1.05696e+58
          1404.29950	         9.79803e+57
          1405.10580	         1.00337e+58
          1405.91210	         1.12047e+58
          1406.71840	         1.12353e+58
          1407.52470	         1.04952e+58
          1408.33100	         9.61722e+57
          1409.13730	         9.42987e+57
          1409.94360	         1.07604e+58
          1410.74990	         1.11210e+58
          1411.55620	         1.00975e+58
          1412.36250	         9.72262e+57
          1413.16880	         9.43357e+57
          1413.97510	         7.86829e+57
          1414.78140	         9.60656e+57
          1415.58770	         1.06936e+58
          1416.39400	         1.10532e+58
          1417.20030	         1.07114e+58
          1418.00660	         9.20543e+57
          1418.81290	         1.00541e+58
          1419.61920	         1.08166e+58
          1420.42550	         1.29068e+58
          1421.23180	         1.28134e+58
          1422.03810	         1.18799e+58
          1422.84440	         1.17585e+58
          1423.65070	         1.30105e+58
          1424.45700	         1.10383e+58
          1425.26330	         9.17189e+57
          1426.06960	         8.68454e+57
          1426.87590	         9.82305e+57
          1427.68220	         1.01293e+58
          1428.48850	         1.12077e+58
          1429.29480	         1.11993e+58
          1430.10110	         9.15387e+57
          1430.90740	         8.36695e+57
          1431.71370	         7.98297e+57
          1432.52000	         8.07042e+57
          1433.32630	         7.92115e+57
          1434.13260	         7.74553e+57
          1434.93890	         8.04298e+57
          1435.74520	         8.88859e+57
          1436.55150	         9.64633e+57
          1437.35780	         1.00055e+58
          1438.16410	         9.20402e+57
          1438.97040	         8.68149e+57
          1439.77670	         9.20633e+57
          1440.58300	         8.83791e+57
          1441.38930	         8.56738e+57
          1442.19560	         8.31585e+57
          1443.00190	         8.47589e+57
          1443.80820	         1.04397e+58
          1444.61450	         9.88589e+57
          1445.42080	         8.32813e+57
          1446.22710	         1.00498e+58
          1447.03340	         1.06726e+58
          1447.83970	         1.02018e+58
          1448.64600	         1.01596e+58
          1449.45230	         1.01458e+58
          1450.25860	         9.71158e+57
          1451.06490	         8.72817e+57
          1451.87120	         7.63795e+57
          1452.67750	         8.37541e+57
          1453.48380	         9.73577e+57
          1454.29010	         8.91816e+57
          1455.09640	         8.45872e+57
          1455.90270	         8.97119e+57
          1456.70900	         9.29600e+57
          1457.51530	         9.71304e+57
          1458.32160	         1.23637e+58
          1459.12790	         1.29141e+58
          1459.93420	         1.12497e+58
          1460.74050	         9.44903e+57
          1461.54680	         7.82901e+57
          1462.35310	         7.01372e+57
          1463.15940	         9.21989e+57
          1463.96570	         1.10861e+58
          1464.77200	         1.16872e+58
          1465.57830	         9.42958e+57
          1466.38460	         8.14654e+57
          1467.19090	         8.77652e+57
          1467.99720	         8.22010e+57
          1468.80350	         9.69312e+57
          1469.60980	         1.15371e+58
          1470.41610	         1.16447e+58
          1471.22240	         9.68410e+57
          1472.02870	         9.50154e+57
          1472.83500	         1.01964e+58
          1473.64130	         9.75086e+57
          1474.44760	         9.69395e+57
          1475.25390	         9.70974e+57
          1476.06020	         8.62121e+57
          1476.86650	         8.45659e+57
          1477.67280	         8.14582e+57
          1478.47910	         8.15367e+57
          1479.28540	         8.01994e+57
          1480.09170	         8.23895e+57
          1480.89800	         8.23883e+57
          1481.70430	         9.05799e+57
          1482.51060	         7.88887e+57
          1483.31690	         6.82501e+57
          1484.12320	         7.35966e+57
          1484.92950	         6.69953e+57
          1485.73580	         8.73164e+57
          1486.54210	         1.04304e+58
          1487.34840	         1.03534e+58
          1488.15470	         9.03140e+57
          1488.96100	         8.37637e+57
          1489.76730	         9.02154e+57
