#sample_433_stacked_spectrum_rest_UV-bands_median_H-alpha_noDC.txt
#median Lum: 1.71215e+42
#Rest-frame wavelength (A) | Luminosity (erg/s/A)
#
          1110.00000	         0.00000e+00
          1110.80630	        -9.23163e+58
          1111.61260	        -1.52868e+59
          1112.41890	        -1.67232e+59
          1113.22520	        -2.25691e+59
          1114.03150	        -4.05232e+58
          1114.83780	         2.72281e+59
          1115.64410	         6.89594e+57
          1116.45040	         2.30888e+59
          1117.25670	         4.62491e+58
          1118.06300	         1.60428e+59
          1118.86930	        -2.69862e+58
          1119.67560	         1.80910e+59
          1120.48190	         6.38029e+58
          1121.28820	        -6.85223e+58
          1122.09450	        -2.48002e+58
          1122.90080	         5.58800e+58
          1123.70710	         9.84836e+58
          1124.51340	         4.20895e+58
          1125.31970	         3.22164e+58
          1126.12600	         2.64322e+58
          1126.93230	        -9.64298e+57
          1127.73860	        -9.70120e+58
          1128.54490	        -2.25625e+58
          1129.35120	        -1.97746e+57
          1130.15750	        -2.26325e+58
          1130.96380	        -1.71206e+58
          1131.77010	         4.36326e+58
          1132.57640	         7.26417e+56
          1133.38270	         4.41170e+58
          1134.18900	         1.16293e+58
          1134.99530	        -4.07680e+56
          1135.80160	         3.31956e+58
          1136.60790	         9.96262e+57
          1137.41420	        -2.23788e+57
          1138.22050	         2.48504e+58
          1139.02680	         2.83131e+58
          1139.83310	         3.24739e+58
          1140.63940	         1.79454e+58
          1141.44570	        -1.92875e+58
          1142.25200	         3.38101e+57
          1143.05830	         2.52525e+58
          1143.86460	         9.74149e+57
          1144.67090	         1.15883e+58
          1145.47720	        -7.19993e+57
          1146.28350	         1.58886e+58
          1147.08980	         2.26888e+58
          1147.89610	         3.31643e+58
          1148.70240	         2.32754e+58
          1149.50870	         2.96257e+58
          1150.31500	         1.04638e+58
          1151.12130	         1.14111e+58
          1151.92760	         8.37898e+57
          1152.73390	        -4.10259e+57
          1153.54020	        -3.63019e+57
          1154.34650	         2.92203e+58
          1155.15280	         1.83435e+58
          1155.95910	         9.81743e+57
          1156.76540	         1.20045e+57
          1157.57170	        -2.47002e+57
          1158.37800	        -1.61974e+56
          1159.18430	        -8.44568e+57
          1159.99060	        -3.31516e+57
          1160.79690	         3.49417e+57
          1161.60320	         1.74839e+58
          1162.40950	         1.46392e+58
          1163.21580	         1.04939e+58
          1164.02210	         1.22526e+58
          1164.82840	         6.69442e+57
          1165.63470	         1.82021e+58
          1166.44100	         3.47987e+58
          1167.24730	         2.29635e+58
          1168.05360	         8.48297e+57
          1168.85990	         1.34784e+57
          1169.66620	        -4.55019e+56
          1170.47250	         8.11415e+57
          1171.27880	         1.16615e+58
          1172.08510	         2.43041e+58
          1172.89140	         1.80257e+58
          1173.69770	         7.74403e+57
          1174.50400	         9.56817e+57
          1175.31030	         1.50213e+58
          1176.11660	         1.69981e+58
          1176.92290	         1.16738e+58
          1177.72920	         1.16563e+58
          1178.53550	         6.12608e+57
          1179.34180	         9.52410e+56
          1180.14810	         3.49794e+57
          1180.95440	         4.13473e+57
          1181.76070	         7.31353e+57
          1182.56700	         5.97301e+57
          1183.37330	         2.03503e+56
          1184.17960	         1.09982e+58
          1184.98590	         9.33409e+57
          1185.79220	         4.24754e+57
          1186.59850	         9.86074e+57
          1187.40480	         1.37195e+58
          1188.21110	         1.46511e+58
          1189.01740	         9.05278e+57
          1189.82370	         1.14756e+58
          1190.63000	         1.44156e+58
          1191.43630	         1.08787e+58
          1192.24260	         1.08679e+58
          1193.04890	         1.33930e+58
          1193.85520	         9.39621e+57
          1194.66150	         7.49531e+57
          1195.46780	         1.26896e+58
          1196.27410	         1.77917e+58
          1197.08040	         1.44642e+58
          1197.88670	         1.81463e+58
          1198.69300	         1.69024e+58
          1199.49930	         1.57136e+58
          1200.30560	         1.14675e+58
          1201.11190	         8.73088e+57
          1201.91820	         1.01173e+58
          1202.72450	         7.78449e+57
          1203.53080	         1.24155e+58
          1204.33710	         6.88199e+57
          1205.14340	         5.41514e+57
          1205.94970	         7.00441e+57
          1206.75600	         5.51023e+57
          1207.56230	         7.51125e+57
          1208.36860	         9.50543e+57
          1209.17490	         5.07849e+57
          1209.98120	         6.04305e+57
          1210.78750	         1.40422e+58
          1211.59380	         1.60163e+58
          1212.40010	         1.73484e+58
          1213.20640	         1.92259e+58
          1214.01270	         2.10225e+58
          1214.81900	         2.39169e+58
          1215.62530	         4.41835e+58
          1216.43160	         9.33665e+58
          1217.23790	         1.50898e+59
          1218.04420	         1.11813e+59
          1218.85050	         8.11258e+58
          1219.65680	         5.37657e+58
          1220.46310	         3.19045e+58
          1221.26940	         2.23320e+58
          1222.07570	         1.75474e+58
          1222.88200	         1.51121e+58
          1223.68830	         1.21547e+58
          1224.49460	         5.61296e+57
          1225.30090	         4.43104e+57
          1226.10720	         9.12725e+57
          1226.91350	         6.73576e+57
          1227.71980	         8.01695e+57
          1228.52610	         9.56442e+57
          1229.33240	         9.20791e+57
          1230.13870	         9.13806e+57
          1230.94500	         9.18655e+57
          1231.75130	         5.79245e+57
          1232.55760	         5.96660e+57
          1233.36390	         7.98164e+57
          1234.17020	         9.09158e+57
          1234.97650	         9.44226e+57
          1235.78280	         1.04035e+58
          1236.58910	         9.05930e+57
          1237.39540	         1.03080e+58
          1238.20170	         1.12091e+58
          1239.00800	         1.33637e+58
          1239.81430	         1.33229e+58
          1240.62060	         9.89302e+57
          1241.42690	         1.13594e+58
          1242.23320	         1.30581e+58
          1243.03950	         8.30029e+57
          1243.84580	         7.44855e+57
          1244.65210	         8.91144e+57
          1245.45840	         7.05019e+57
          1246.26470	         7.39255e+57
          1247.07100	         6.73999e+57
          1247.87730	         5.82751e+57
          1248.68360	         3.24630e+57
          1249.48990	         4.74268e+57
          1250.29620	         6.65759e+57
          1251.10250	         7.85588e+57
          1251.90880	         8.53807e+57
          1252.71510	         7.31994e+57
          1253.52140	         7.00702e+57
          1254.32770	         9.96701e+57
          1255.13400	         1.34308e+58
          1255.94030	         1.28168e+58
          1256.74660	         9.98200e+57
          1257.55290	         1.03850e+58
          1258.35920	         7.50654e+57
          1259.16550	         4.14953e+57
          1259.97180	         5.61587e+57
          1260.77810	         7.73043e+57
          1261.58440	         9.36894e+57
          1262.39070	         6.93285e+57
          1263.19700	         6.66490e+57
          1264.00330	         9.88777e+57
          1264.80960	         1.10007e+58
          1265.61590	         1.32767e+58
          1266.42220	         1.29618e+58
          1267.22850	         1.18031e+58
          1268.03480	         1.56922e+58
          1268.84110	         1.74317e+58
          1269.64740	         1.38663e+58
          1270.45370	         1.52287e+58
          1271.26000	         1.26957e+58
          1272.06630	         1.05241e+58
          1272.87260	         1.27529e+58
          1273.67890	         1.24679e+58
          1274.48520	         1.22576e+58
          1275.29150	         1.29556e+58
          1276.09780	         1.14011e+58
          1276.90410	         1.26834e+58
          1277.71040	         1.45158e+58
          1278.51670	         1.26324e+58
          1279.32300	         1.29247e+58
          1280.12930	         1.22019e+58
          1280.93560	         1.16265e+58
          1281.74190	         1.26588e+58
          1282.54820	         1.27528e+58
          1283.35450	         1.14141e+58
          1284.16080	         1.11701e+58
          1284.96710	         1.23054e+58
          1285.77340	         1.17222e+58
          1286.57970	         1.26640e+58
          1287.38600	         1.62809e+58
          1288.19230	         1.85235e+58
          1288.99860	         1.35478e+58
          1289.80490	         1.04740e+58
          1290.61120	         1.28208e+58
          1291.41750	         1.44675e+58
          1292.22380	         1.35589e+58
          1293.03010	         1.24409e+58
          1293.83640	         1.19848e+58
          1294.64270	         1.02760e+58
          1295.44900	         8.05889e+57
          1296.25530	         9.78149e+57
          1297.06160	         1.17149e+58
          1297.86790	         1.09705e+58
          1298.67420	         8.60237e+57
          1299.48050	         1.00011e+58
          1300.28680	         1.33925e+58
          1301.09310	         9.69488e+57
          1301.89940	         4.75768e+57
          1302.70570	         5.44181e+57
          1303.51200	         6.64968e+57
          1304.31830	         9.26493e+57
          1305.12460	         1.08960e+58
          1305.93090	         1.19770e+58
          1306.73720	         1.19104e+58
          1307.54350	         1.33334e+58
          1308.34980	         1.46780e+58
          1309.15610	         1.65800e+58
          1309.96240	         1.54344e+58
          1310.76870	         1.39429e+58
          1311.57500	         1.47132e+58
          1312.38130	         1.23416e+58
          1313.18760	         1.37155e+58
          1313.99390	         1.57324e+58
          1314.80020	         1.57396e+58
          1315.60650	         1.38406e+58
          1316.41280	         1.07903e+58
          1317.21910	         1.11544e+58
          1318.02540	         1.04605e+58
          1318.83170	         1.02544e+58
          1319.63800	         1.17848e+58
          1320.44430	         1.12861e+58
          1321.25060	         1.15644e+58
          1322.05690	         1.28018e+58
          1322.86320	         1.20070e+58
          1323.66950	         1.16410e+58
          1324.47580	         1.03120e+58
          1325.28210	         9.25719e+57
          1326.08840	         1.02272e+58
          1326.89470	         1.32277e+58
          1327.70100	         1.23212e+58
          1328.50730	         9.53203e+57
          1329.31360	         1.08446e+58
          1330.11990	         1.05236e+58
          1330.92620	         8.78246e+57
          1331.73250	         9.39621e+57
          1332.53880	         1.06073e+58
          1333.34510	         8.96824e+57
          1334.15140	         8.94416e+57
          1334.95770	         7.87452e+57
          1335.76400	         9.79124e+57
          1336.57030	         1.23358e+58
          1337.37660	         1.05592e+58
          1338.18290	         1.04419e+58
          1338.98920	         1.15678e+58
          1339.79550	         1.22339e+58
          1340.60180	         1.16841e+58
          1341.40810	         1.12021e+58
          1342.21440	         1.04978e+58
          1343.02070	         1.22572e+58
          1343.82700	         1.37159e+58
          1344.63330	         1.30477e+58
          1345.43960	         1.26621e+58
          1346.24590	         1.01341e+58
          1347.05220	         1.19801e+58
          1347.85850	         1.10329e+58
          1348.66480	         1.22379e+58
          1349.47110	         1.35329e+58
          1350.27740	         1.21129e+58
          1351.08370	         1.17168e+58
          1351.89000	         1.22711e+58
          1352.69630	         1.18729e+58
          1353.50260	         1.28447e+58
          1354.30890	         1.27057e+58
          1355.11520	         1.18909e+58
          1355.92150	         9.45693e+57
          1356.72780	         9.61151e+57
          1357.53410	         1.06581e+58
          1358.34040	         1.22398e+58
          1359.14670	         1.18724e+58
          1359.95300	         1.08824e+58
          1360.75930	         1.05071e+58
          1361.56560	         1.01991e+58
          1362.37190	         1.22362e+58
          1363.17820	         1.22276e+58
          1363.98450	         1.12372e+58
          1364.79080	         1.26824e+58
          1365.59710	         1.45649e+58
          1366.40340	         1.31050e+58
          1367.20970	         9.70093e+57
          1368.01600	         9.68303e+57
          1368.82230	         1.06305e+58
          1369.62860	         1.12426e+58
          1370.43490	         1.03740e+58
          1371.24120	         9.44778e+57
          1372.04750	         9.11168e+57
          1372.85380	         1.16009e+58
          1373.66010	         1.17317e+58
          1374.46640	         1.12234e+58
          1375.27270	         1.16004e+58
          1376.07900	         9.67149e+57
          1376.88530	         9.19828e+57
          1377.69160	         9.75795e+57
          1378.49790	         8.25776e+57
          1379.30420	         7.59942e+57
          1380.11050	         7.88851e+57
          1380.91680	         6.89810e+57
          1381.72310	         5.81385e+57
          1382.52940	         7.96428e+57
          1383.33570	         7.98281e+57
          1384.14200	         8.99569e+57
          1384.94830	         1.03076e+58
          1385.75460	         9.68804e+57
          1386.56090	         1.16958e+58
          1387.36720	         1.07441e+58
          1388.17350	         1.20253e+58
          1388.97980	         1.09374e+58
          1389.78610	         8.58158e+57
          1390.59240	         8.16343e+57
          1391.39870	         7.30642e+57
          1392.20500	         7.92620e+57
          1393.01130	         6.90131e+57
          1393.81760	         6.50925e+57
          1394.62390	         7.19161e+57
          1395.43020	         7.49620e+57
          1396.23650	         7.03432e+57
          1397.04280	         8.03659e+57
          1397.84910	         9.46007e+57
          1398.65540	         9.97778e+57
          1399.46170	         9.61950e+57
          1400.26800	         8.82215e+57
          1401.07430	         8.62499e+57
          1401.88060	         8.45349e+57
          1402.68690	         8.54658e+57
          1403.49320	         8.08562e+57
          1404.29950	         7.92781e+57
          1405.10580	         9.65463e+57
          1405.91210	         1.05338e+58
          1406.71840	         1.06022e+58
          1407.52470	         1.05577e+58
          1408.33100	         1.10081e+58
          1409.13730	         1.22890e+58
          1409.94360	         1.17281e+58
          1410.74990	         1.06955e+58
          1411.55620	         8.17577e+57
          1412.36250	         7.80385e+57
          1413.16880	         8.95204e+57
          1413.97510	         8.38024e+57
          1414.78140	         9.12594e+57
          1415.58770	         1.04725e+58
          1416.39400	         1.04333e+58
          1417.20030	         1.04769e+58
          1418.00660	         8.18551e+57
          1418.81290	         1.02351e+58
          1419.61920	         1.06036e+58
          1420.42550	         1.20111e+58
          1421.23180	         1.33183e+58
          1422.03810	         1.14180e+58
          1422.84440	         1.09300e+58
          1423.65070	         1.34797e+58
          1424.45700	         1.30845e+58
          1425.26330	         1.01070e+58
          1426.06960	         8.92506e+57
          1426.87590	         1.01688e+58
          1427.68220	         9.69661e+57
          1428.48850	         1.03195e+58
          1429.29480	         1.01355e+58
          1430.10110	         8.97703e+57
          1430.90740	         8.70872e+57
          1431.71370	         8.59752e+57
          1432.52000	         9.52932e+57
          1433.32630	         8.28571e+57
          1434.13260	         7.80115e+57
          1434.93890	         8.26020e+57
          1435.74520	         8.90672e+57
          1436.55150	         8.93752e+57
          1437.35780	         9.01729e+57
          1438.16410	         8.70804e+57
          1438.97040	         8.78931e+57
          1439.77670	         8.95965e+57
          1440.58300	         8.34548e+57
          1441.38930	         8.12078e+57
          1442.19560	         9.77722e+57
          1443.00190	         1.06224e+58
          1443.80820	         1.12951e+58
          1444.61450	         1.02382e+58
          1445.42080	         9.19729e+57
          1446.22710	         1.07575e+58
          1447.03340	         1.02695e+58
          1447.83970	         1.04264e+58
          1448.64600	         1.02534e+58
          1449.45230	         9.70443e+57
          1450.25860	         9.12221e+57
          1451.06490	         8.03568e+57
          1451.87120	         7.66738e+57
          1452.67750	         7.61459e+57
          1453.48380	         9.81962e+57
          1454.29010	         9.43063e+57
          1455.09640	         7.72367e+57
          1455.90270	         8.39828e+57
          1456.70900	         8.56344e+57
          1457.51530	         9.11891e+57
          1458.32160	         1.20274e+58
          1459.12790	         1.15497e+58
          1459.93420	         9.26467e+57
          1460.74050	         8.06459e+57
          1461.54680	         8.76222e+57
          1462.35310	         7.93026e+57
          1463.15940	         9.45676e+57
          1463.96570	         1.11436e+58
          1464.77200	         1.11108e+58
          1465.57830	         1.07513e+58
          1466.38460	         8.76680e+57
          1467.19090	         7.89460e+57
          1467.99720	         8.81021e+57
          1468.80350	         9.91055e+57
          1469.60980	         1.06221e+58
          1470.41610	         1.11766e+58
          1471.22240	         9.35797e+57
          1472.02870	         9.14535e+57
          1472.83500	         9.97393e+57
          1473.64130	         9.83044e+57
          1474.44760	         9.76127e+57
          1475.25390	         8.36692e+57
          1476.06020	         6.45820e+57
          1476.86650	         7.91515e+57
          1477.67280	         8.23230e+57
          1478.47910	         6.73077e+57
          1479.28540	         7.13710e+57
          1480.09170	         7.81639e+57
          1480.89800	         8.08968e+57
          1481.70430	         8.54262e+57
          1482.51060	         8.35314e+57
          1483.31690	         7.65554e+57
          1484.12320	         8.07679e+57
          1484.92950	         7.98300e+57
          1485.73580	         7.73325e+57
          1486.54210	         8.36839e+57
          1487.34840	         9.42264e+57
          1488.15470	         8.67422e+57
          1488.96100	         8.88866e+57
          1489.76730	         9.17179e+57
