#sample_236_stacked_spectrum_rest_UV-bands_median_H-alpha_noDC.txt
#median Lum: 1.69501e+42
#Rest-frame wavelength (A) | Luminosity (erg/s/A)
#
          1110.00000	         0.00000e+00
          1110.80630	         3.05870e+58
          1111.61260	        -1.50610e+59
          1112.41890	        -3.46790e+58
          1113.22520	        -5.08493e+58
          1114.03150	        -1.09486e+59
          1114.83780	         2.87456e+59
          1115.64410	         2.36326e+58
          1116.45040	         1.81609e+59
          1117.25670	         2.44397e+59
          1118.06300	         1.86576e+58
          1118.86930	        -5.46701e+58
          1119.67560	         7.35184e+58
          1120.48190	         1.51250e+58
          1121.28820	        -3.81075e+58
          1122.09450	         7.04682e+57
          1122.90080	        -1.26926e+58
          1123.70710	         8.99108e+58
          1124.51340	         9.20518e+58
          1125.31970	        -6.15473e+57
          1126.12600	        -3.28454e+58
          1126.93230	        -7.05009e+58
          1127.73860	        -7.12212e+58
          1128.54490	        -3.54776e+58
          1129.35120	        -2.20096e+57
          1130.15750	        -2.49389e+58
          1130.96380	        -8.16987e+57
          1131.77010	         1.67114e+58
          1132.57640	         4.53314e+58
          1133.38270	         5.48802e+58
          1134.18900	         4.38104e+58
          1134.99530	         5.76252e+56
          1135.80160	         3.56618e+56
          1136.60790	         3.32959e+57
          1137.41420	        -1.45655e+58
          1138.22050	         2.97516e+58
          1139.02680	         2.72880e+58
          1139.83310	         2.37782e+58
          1140.63940	         2.66775e+58
          1141.44570	        -3.57592e+58
          1142.25200	        -1.56308e+58
          1143.05830	         2.30373e+58
          1143.86460	         2.60235e+58
          1144.67090	         1.49846e+58
          1145.47720	         1.99926e+58
          1146.28350	         1.72057e+58
          1147.08980	         1.76905e+58
          1147.89610	         1.35806e+58
          1148.70240	         1.38299e+58
          1149.50870	         1.97537e+58
          1150.31500	         1.50253e+58
          1151.12130	         1.19756e+58
          1151.92760	         4.01774e+57
          1152.73390	         7.16511e+57
          1153.54020	         6.41930e+57
          1154.34650	         1.82567e+58
          1155.15280	         2.25489e+58
          1155.95910	         1.14982e+58
          1156.76540	         1.50592e+58
          1157.57170	         9.85163e+56
          1158.37800	         5.87147e+57
          1159.18430	        -5.16087e+56
          1159.99060	         8.76941e+57
          1160.79690	         8.25790e+57
          1161.60320	         1.28204e+58
          1162.40950	         1.03900e+58
          1163.21580	         1.36929e+57
          1164.02210	         1.47433e+58
          1164.82840	         6.75661e+57
          1165.63470	         1.02784e+58
          1166.44100	         2.45850e+58
          1167.24730	         2.26430e+58
          1168.05360	         8.41265e+57
          1168.85990	         6.01398e+57
          1169.66620	         2.20224e+56
          1170.47250	         1.18775e+58
          1171.27880	         7.07347e+57
          1172.08510	         8.24156e+57
          1172.89140	         1.09776e+58
          1173.69770	         5.56708e+57
          1174.50400	         9.21546e+57
          1175.31030	         1.93971e+58
          1176.11660	         1.82729e+58
          1176.92290	         1.58145e+58
          1177.72920	         1.56004e+58
          1178.53550	         8.68695e+57
          1179.34180	         9.93251e+56
          1180.14810	         6.19552e+57
          1180.95440	         1.17661e+58
          1181.76070	         6.62848e+57
          1182.56700	         5.39067e+57
          1183.37330	        -4.60866e+55
          1184.17960	         6.73862e+57
          1184.98590	         7.07217e+57
          1185.79220	         3.59689e+57
          1186.59850	         5.44758e+57
          1187.40480	         1.03225e+58
          1188.21110	         1.89584e+58
          1189.01740	         1.05318e+58
          1189.82370	         1.05457e+58
          1190.63000	         1.35426e+58
          1191.43630	         1.26918e+58
          1192.24260	         5.55712e+57
          1193.04890	         1.13349e+58
          1193.85520	         1.42084e+58
          1194.66150	         3.87786e+57
          1195.46780	         9.23562e+57
          1196.27410	         1.46395e+58
          1197.08040	         8.24175e+57
          1197.88670	         1.49809e+58
          1198.69300	         1.74618e+58
          1199.49930	         1.88743e+58
          1200.30560	         1.01933e+58
          1201.11190	         5.49682e+57
          1201.91820	         9.04902e+57
          1202.72450	         9.59548e+57
          1203.53080	         1.40803e+58
          1204.33710	         6.02807e+57
          1205.14340	         8.82088e+56
          1205.94970	         2.39878e+57
          1206.75600	         5.50395e+57
          1207.56230	         6.19179e+57
          1208.36860	         1.04694e+58
          1209.17490	         7.31011e+57
          1209.98120	         5.35387e+57
          1210.78750	         1.16282e+58
          1211.59380	         1.38988e+58
          1212.40010	         1.60701e+58
          1213.20640	         2.10801e+58
          1214.01270	         2.06620e+58
          1214.81900	         2.56346e+58
          1215.62530	         4.89568e+58
          1216.43160	         9.10999e+58
          1217.23790	         1.49384e+59
          1218.04420	         1.16886e+59
          1218.85050	         8.89838e+58
          1219.65680	         5.83636e+58
          1220.46310	         3.34715e+58
          1221.26940	         2.37416e+58
          1222.07570	         1.52064e+58
          1222.88200	         1.11030e+58
          1223.68830	         7.99100e+57
          1224.49460	         8.33410e+57
          1225.30090	         1.06900e+58
          1226.10720	         1.01654e+58
          1226.91350	         9.46952e+57
          1227.71980	         8.79242e+57
          1228.52610	         1.01231e+58
          1229.33240	         8.92426e+57
          1230.13870	         1.06130e+58
          1230.94500	         8.27336e+57
          1231.75130	         5.98742e+57
          1232.55760	         9.51565e+57
          1233.36390	         1.02940e+58
          1234.17020	         8.99744e+57
          1234.97650	         9.74426e+57
          1235.78280	         8.61430e+57
          1236.58910	         6.31440e+57
          1237.39540	         1.02469e+58
          1238.20170	         1.01082e+58
          1239.00800	         9.59885e+57
          1239.81430	         1.21549e+58
          1240.62060	         8.46591e+57
          1241.42690	         8.83685e+57
          1242.23320	         1.01312e+58
          1243.03950	         7.37001e+57
          1243.84580	         8.69127e+57
          1244.65210	         8.45376e+57
          1245.45840	         7.08239e+57
          1246.26470	         5.69994e+57
          1247.07100	         6.64591e+57
          1247.87730	         7.23199e+57
          1248.68360	         4.19871e+57
          1249.48990	         5.15233e+57
          1250.29620	         6.88692e+57
          1251.10250	         4.93250e+57
          1251.90880	         6.59087e+57
          1252.71510	         1.02444e+58
          1253.52140	         1.08678e+58
          1254.32770	         1.12811e+58
          1255.13400	         1.27854e+58
          1255.94030	         1.10871e+58
          1256.74660	         1.08652e+58
          1257.55290	         1.05286e+58
          1258.35920	         7.60749e+57
          1259.16550	         4.28868e+57
          1259.97180	         4.69793e+57
          1260.77810	         1.03338e+58
          1261.58440	         1.30123e+58
          1262.39070	         1.05424e+58
          1263.19700	         8.91871e+57
          1264.00330	         1.00314e+58
          1264.80960	         1.12479e+58
          1265.61590	         1.20262e+58
          1266.42220	         1.22386e+58
          1267.22850	         1.00890e+58
          1268.03480	         1.33333e+58
          1268.84110	         1.56496e+58
          1269.64740	         1.22491e+58
          1270.45370	         1.25843e+58
          1271.26000	         1.27657e+58
          1272.06630	         1.32957e+58
          1272.87260	         1.47341e+58
          1273.67890	         1.35798e+58
          1274.48520	         1.38910e+58
          1275.29150	         1.41229e+58
          1276.09780	         1.18490e+58
          1276.90410	         1.50378e+58
          1277.71040	         1.32816e+58
          1278.51670	         9.33746e+57
          1279.32300	         1.30622e+58
          1280.12930	         1.27319e+58
          1280.93560	         9.75735e+57
          1281.74190	         1.21559e+58
          1282.54820	         1.65259e+58
          1283.35450	         1.15200e+58
          1284.16080	         8.97122e+57
          1284.96710	         1.29418e+58
          1285.77340	         1.30709e+58
          1286.57970	         1.15275e+58
          1287.38600	         1.54565e+58
          1288.19230	         1.82071e+58
          1288.99860	         1.49496e+58
          1289.80490	         1.36622e+58
          1290.61120	         1.42301e+58
          1291.41750	         1.46974e+58
          1292.22380	         1.18591e+58
          1293.03010	         9.30908e+57
          1293.83640	         9.91187e+57
          1294.64270	         1.05866e+58
          1295.44900	         8.49194e+57
          1296.25530	         6.91057e+57
          1297.06160	         8.52384e+57
          1297.86790	         1.18624e+58
          1298.67420	         1.09033e+58
          1299.48050	         1.11060e+58
          1300.28680	         1.14922e+58
          1301.09310	         7.26437e+57
          1301.89940	         5.08582e+57
          1302.70570	         7.39392e+57
          1303.51200	         8.64955e+57
          1304.31830	         1.08418e+58
          1305.12460	         1.10323e+58
          1305.93090	         1.01904e+58
          1306.73720	         1.26627e+58
          1307.54350	         1.31678e+58
          1308.34980	         1.36263e+58
          1309.15610	         1.53943e+58
          1309.96240	         1.53757e+58
          1310.76870	         1.22979e+58
          1311.57500	         1.08076e+58
          1312.38130	         1.30296e+58
          1313.18760	         1.61433e+58
          1313.99390	         1.63472e+58
          1314.80020	         1.42006e+58
          1315.60650	         1.59745e+58
          1316.41280	         1.57594e+58
          1317.21910	         1.22381e+58
          1318.02540	         1.11179e+58
          1318.83170	         1.31763e+58
          1319.63800	         1.21362e+58
          1320.44430	         1.03615e+58
          1321.25060	         1.29064e+58
          1322.05690	         1.37055e+58
          1322.86320	         1.29307e+58
          1323.66950	         1.07896e+58
          1324.47580	         9.57183e+57
          1325.28210	         1.12752e+58
          1326.08840	         1.17658e+58
          1326.89470	         1.24661e+58
          1327.70100	         1.03036e+58
          1328.50730	         6.94747e+57
          1329.31360	         7.91552e+57
          1330.11990	         9.56971e+57
          1330.92620	         8.67742e+57
          1331.73250	         9.80807e+57
          1332.53880	         1.10145e+58
          1333.34510	         9.68205e+57
          1334.15140	         8.50213e+57
          1334.95770	         8.41084e+57
          1335.76400	         9.94940e+57
          1336.57030	         1.06751e+58
          1337.37660	         1.02615e+58
          1338.18290	         1.13258e+58
          1338.98920	         1.14688e+58
          1339.79550	         1.04964e+58
          1340.60180	         1.30515e+58
          1341.40810	         1.37823e+58
          1342.21440	         1.18313e+58
          1343.02070	         1.30478e+58
          1343.82700	         1.42520e+58
          1344.63330	         1.32441e+58
          1345.43960	         1.36671e+58
          1346.24590	         1.10874e+58
          1347.05220	         1.15315e+58
          1347.85850	         1.03264e+58
          1348.66480	         1.13603e+58
          1349.47110	         1.14706e+58
          1350.27740	         1.17388e+58
          1351.08370	         1.11708e+58
          1351.89000	         1.13249e+58
          1352.69630	         1.17181e+58
          1353.50260	         1.20564e+58
          1354.30890	         1.19525e+58
          1355.11520	         1.14775e+58
          1355.92150	         1.03400e+58
          1356.72780	         9.79199e+57
          1357.53410	         9.56312e+57
          1358.34040	         1.10852e+58
          1359.14670	         1.02211e+58
          1359.95300	         1.16090e+58
          1360.75930	         1.16947e+58
          1361.56560	         1.00294e+58
          1362.37190	         1.13672e+58
          1363.17820	         1.13880e+58
          1363.98450	         1.10273e+58
          1364.79080	         1.22161e+58
          1365.59710	         1.40585e+58
          1366.40340	         1.19813e+58
          1367.20970	         1.04969e+58
          1368.01600	         1.04107e+58
          1368.82230	         7.94327e+57
          1369.62860	         1.01592e+58
          1370.43490	         1.02941e+58
          1371.24120	         8.94745e+57
          1372.04750	         9.00334e+57
          1372.85380	         1.11494e+58
          1373.66010	         1.14406e+58
          1374.46640	         1.13711e+58
          1375.27270	         1.11422e+58
          1376.07900	         1.05575e+58
          1376.88530	         9.31696e+57
          1377.69160	         8.00038e+57
          1378.49790	         6.89729e+57
          1379.30420	         7.68229e+57
          1380.11050	         9.35951e+57
          1380.91680	         8.99251e+57
          1381.72310	         7.04966e+57
          1382.52940	         7.25679e+57
          1383.33570	         8.71951e+57
          1384.14200	         9.82674e+57
          1384.94830	         1.12292e+58
          1385.75460	         1.10044e+58
          1386.56090	         1.14666e+58
          1387.36720	         1.05623e+58
          1388.17350	         1.08831e+58
          1388.97980	         9.61787e+57
          1389.78610	         6.87984e+57
          1390.59240	         6.57922e+57
          1391.39870	         8.11476e+57
          1392.20500	         8.63241e+57
          1393.01130	         7.43300e+57
          1393.81760	         6.41760e+57
          1394.62390	         7.22652e+57
          1395.43020	         6.66640e+57
          1396.23650	         5.40023e+57
          1397.04280	         8.39692e+57
          1397.84910	         9.46547e+57
          1398.65540	         7.97363e+57
          1399.46170	         9.34350e+57
          1400.26800	         8.12100e+57
          1401.07430	         6.20958e+57
          1401.88060	         7.91461e+57
          1402.68690	         8.63216e+57
          1403.49320	         8.58995e+57
          1404.29950	         7.69161e+57
          1405.10580	         9.36862e+57
          1405.91210	         1.16652e+58
          1406.71840	         1.18359e+58
          1407.52470	         1.03869e+58
          1408.33100	         9.79535e+57
          1409.13730	         1.07577e+58
          1409.94360	         1.15488e+58
          1410.74990	         1.09107e+58
          1411.55620	         1.07577e+58
          1412.36250	         9.94766e+57
          1413.16880	         8.24437e+57
          1413.97510	         9.07404e+57
          1414.78140	         8.61743e+57
          1415.58770	         9.70097e+57
          1416.39400	         1.18868e+58
          1417.20030	         1.14002e+58
          1418.00660	         9.97887e+57
          1418.81290	         1.12466e+58
          1419.61920	         1.20596e+58
          1420.42550	         1.28215e+58
          1421.23180	         1.37288e+58
          1422.03810	         1.21884e+58
          1422.84440	         1.21759e+58
          1423.65070	         1.33787e+58
          1424.45700	         1.16691e+58
          1425.26330	         9.39524e+57
          1426.06960	         8.82334e+57
          1426.87590	         9.26127e+57
          1427.68220	         9.91023e+57
          1428.48850	         1.09974e+58
          1429.29480	         1.01318e+58
          1430.10110	         1.00103e+58
          1430.90740	         8.98403e+57
          1431.71370	         9.25534e+57
          1432.52000	         8.87058e+57
          1433.32630	         7.95741e+57
          1434.13260	         8.24488e+57
          1434.93890	         8.07250e+57
          1435.74520	         9.26858e+57
          1436.55150	         9.86343e+57
          1437.35780	         9.49893e+57
          1438.16410	         9.20957e+57
          1438.97040	         9.16489e+57
          1439.77670	         9.50377e+57
          1440.58300	         9.41792e+57
          1441.38930	         8.87108e+57
          1442.19560	         8.86603e+57
          1443.00190	         8.71989e+57
          1443.80820	         8.50214e+57
          1444.61450	         9.42514e+57
          1445.42080	         9.95864e+57
          1446.22710	         1.05188e+58
          1447.03340	         9.65542e+57
          1447.83970	         1.02548e+58
          1448.64600	         1.14487e+58
          1449.45230	         1.01287e+58
          1450.25860	         1.06000e+58
          1451.06490	         1.01577e+58
          1451.87120	         7.43603e+57
          1452.67750	         6.92198e+57
          1453.48380	         8.01944e+57
          1454.29010	         7.87294e+57
          1455.09640	         7.19513e+57
          1455.90270	         8.51674e+57
          1456.70900	         9.25600e+57
          1457.51530	         1.04647e+58
          1458.32160	         1.17831e+58
          1459.12790	         1.16702e+58
          1459.93420	         9.81496e+57
          1460.74050	         8.08778e+57
          1461.54680	         8.51155e+57
          1462.35310	         6.59450e+57
          1463.15940	         7.47848e+57
          1463.96570	         9.61660e+57
          1464.77200	         1.16255e+58
          1465.57830	         1.18520e+58
          1466.38460	         9.82742e+57
          1467.19090	         9.06733e+57
          1467.99720	         8.46149e+57
          1468.80350	         9.09699e+57
          1469.60980	         9.21310e+57
          1470.41610	         1.01087e+58
          1471.22240	         1.02487e+58
          1472.02870	         9.24509e+57
          1472.83500	         9.74391e+57
          1473.64130	         1.08745e+58
          1474.44760	         9.90786e+57
          1475.25390	         8.97230e+57
          1476.06020	         8.87569e+57
          1476.86650	         8.62838e+57
          1477.67280	         8.36613e+57
          1478.47910	         7.01048e+57
          1479.28540	         6.22319e+57
          1480.09170	         8.04651e+57
          1480.89800	         8.22495e+57
          1481.70430	         7.97431e+57
          1482.51060	         7.62327e+57
          1483.31690	         6.53866e+57
          1484.12320	         5.81785e+57
          1484.92950	         7.28128e+57
          1485.73580	         7.89312e+57
          1486.54210	         8.68663e+57
          1487.34840	         9.30291e+57
          1488.15470	         8.48036e+57
          1488.96100	         8.85207e+57
          1489.76730	         8.50564e+57
