#sample_352_stacked_spectrum_rest_UV-bands_median_H-alpha_noDC.txt
#median Lum: 1.71590e+42
#Rest-frame wavelength (A) | Luminosity (erg/s/A)
#
          1110.00000	         0.00000e+00
          1110.80630	        -5.22113e+59
          1111.61260	         1.78279e+58
          1112.41890	         2.60701e+59
          1113.22520	         3.47223e+58
          1114.03150	        -1.70240e+59
          1114.83780	         2.29763e+59
          1115.64410	         2.41134e+59
          1116.45040	         2.39481e+59
          1117.25670	         2.22973e+59
          1118.06300	         9.14335e+58
          1118.86930	         1.20156e+59
          1119.67560	         1.12739e+59
          1120.48190	        -1.28550e+58
          1121.28820	        -1.41610e+59
          1122.09450	        -7.14222e+58
          1122.90080	         6.09471e+57
          1123.70710	         6.47369e+58
          1124.51340	         8.02284e+58
          1125.31970	         1.10009e+58
          1126.12600	         1.60174e+58
          1126.93230	        -7.68555e+58
          1127.73860	        -8.15269e+58
          1128.54490	         2.96089e+58
          1129.35120	         1.26127e+58
          1130.15750	        -8.39745e+57
          1130.96380	        -2.73788e+58
          1131.77010	         5.33204e+58
          1132.57640	         3.21390e+58
          1133.38270	         6.25419e+58
          1134.18900	         2.53122e+58
          1134.99530	        -2.77347e+58
          1135.80160	         4.02141e+57
          1136.60790	         6.33680e+57
          1137.41420	         1.17490e+57
          1138.22050	         4.85648e+58
          1139.02680	         2.56994e+58
          1139.83310	        -2.88449e+57
          1140.63940	         1.73320e+58
          1141.44570	        -1.02542e+58
          1142.25200	         1.11296e+58
          1143.05830	         1.72337e+58
          1143.86460	         1.99474e+58
          1144.67090	         3.18392e+58
          1145.47720	         5.53940e+57
          1146.28350	        -3.34093e+57
          1147.08980	         1.38728e+58
          1147.89610	         1.99787e+58
          1148.70240	         2.08668e+58
          1149.50870	         1.40379e+58
          1150.31500	         5.04634e+57
          1151.12130	        -9.18275e+56
          1151.92760	         4.10969e+57
          1152.73390	         1.49464e+58
          1153.54020	         9.47988e+57
          1154.34650	         2.85871e+58
          1155.15280	         2.74466e+58
          1155.95910	         1.63050e+58
          1156.76540	         1.04841e+58
          1157.57170	         9.12067e+57
          1158.37800	        -6.91584e+56
          1159.18430	        -6.23369e+57
          1159.99060	         4.63165e+57
          1160.79690	         5.22851e+57
          1161.60320	         1.02090e+58
          1162.40950	         1.72845e+58
          1163.21580	         1.63229e+58
          1164.02210	         1.21775e+58
          1164.82840	         1.71921e+58
          1165.63470	         1.65821e+58
          1166.44100	         3.01162e+58
          1167.24730	         1.50815e+58
          1168.05360	         5.60453e+57
          1168.85990	         7.16096e+56
          1169.66620	         8.24081e+56
          1170.47250	         1.62590e+58
          1171.27880	         1.46919e+58
          1172.08510	         8.13522e+57
          1172.89140	         1.36506e+58
          1173.69770	         6.79320e+57
          1174.50400	         1.62541e+58
          1175.31030	         2.16757e+58
          1176.11660	         1.32708e+58
          1176.92290	         1.60983e+58
          1177.72920	         1.45353e+58
          1178.53550	         7.54985e+57
          1179.34180	         4.26775e+57
          1180.14810	         2.80827e+57
          1180.95440	         7.00535e+57
          1181.76070	         6.03163e+57
          1182.56700	         7.88767e+57
          1183.37330	         8.62504e+57
          1184.17960	         1.68853e+58
          1184.98590	         1.36182e+58
          1185.79220	         7.81700e+57
          1186.59850	         1.13090e+58
          1187.40480	         1.47256e+58
          1188.21110	         1.71240e+58
          1189.01740	         1.29932e+58
          1189.82370	         8.22083e+57
          1190.63000	         1.03800e+58
          1191.43630	         1.59767e+58
          1192.24260	         1.43072e+58
          1193.04890	         1.31247e+58
          1193.85520	         1.34680e+58
          1194.66150	         2.04067e+57
          1195.46780	         5.21925e+57
          1196.27410	         1.28064e+58
          1197.08040	         1.19683e+58
          1197.88670	         1.52606e+58
          1198.69300	         1.53433e+58
          1199.49930	         1.49712e+58
          1200.30560	         1.36511e+58
          1201.11190	         1.22938e+58
          1201.91820	         1.07497e+58
          1202.72450	         5.13445e+57
          1203.53080	         1.35092e+58
          1204.33710	         9.49982e+57
          1205.14340	         9.28052e+57
          1205.94970	         8.50318e+57
          1206.75600	         6.30222e+57
          1207.56230	         5.55759e+57
          1208.36860	         7.18769e+57
          1209.17490	         3.23173e+57
          1209.98120	         6.90204e+57
          1210.78750	         1.03424e+58
          1211.59380	         1.75648e+58
          1212.40010	         1.92464e+58
          1213.20640	         2.41789e+58
          1214.01270	         2.42941e+58
          1214.81900	         2.68169e+58
          1215.62530	         4.42619e+58
          1216.43160	         9.22364e+58
          1217.23790	         1.54213e+59
          1218.04420	         1.12268e+59
          1218.85050	         8.08581e+58
          1219.65680	         4.81436e+58
          1220.46310	         3.03156e+58
          1221.26940	         2.36061e+58
          1222.07570	         1.64752e+58
          1222.88200	         1.42172e+58
          1223.68830	         1.22508e+58
          1224.49460	         9.46453e+57
          1225.30090	         6.65980e+57
          1226.10720	         7.06557e+57
          1226.91350	         1.01082e+58
          1227.71980	         1.01507e+58
          1228.52610	         1.24886e+58
          1229.33240	         1.20856e+58
          1230.13870	         1.16259e+58
          1230.94500	         8.98792e+57
          1231.75130	         5.64999e+57
          1232.55760	         7.17824e+57
          1233.36390	         9.89849e+57
          1234.17020	         1.01813e+58
          1234.97650	         9.13830e+57
          1235.78280	         7.25572e+57
          1236.58910	         6.73397e+57
          1237.39540	         8.76154e+57
          1238.20170	         8.66298e+57
          1239.00800	         1.15129e+58
          1239.81430	         1.33980e+58
          1240.62060	         9.10195e+57
          1241.42690	         1.10554e+58
          1242.23320	         1.20634e+58
          1243.03950	         9.05611e+57
          1243.84580	         8.30811e+57
          1244.65210	         1.09305e+58
          1245.45840	         1.04325e+58
          1246.26470	         1.01583e+58
          1247.07100	         8.60684e+57
          1247.87730	         4.79357e+57
          1248.68360	         4.71663e+57
          1249.48990	         9.05771e+57
          1250.29620	         7.54937e+57
          1251.10250	         6.61861e+57
          1251.90880	         6.66365e+57
          1252.71510	         4.83641e+57
          1253.52140	         6.37379e+57
          1254.32770	         8.91417e+57
          1255.13400	         1.26682e+58
          1255.94030	         1.16903e+58
          1256.74660	         1.15392e+58
          1257.55290	         1.18052e+58
          1258.35920	         8.77510e+57
          1259.16550	         6.47262e+57
          1259.97180	         4.70361e+57
          1260.77810	         8.55986e+57
          1261.58440	         1.21632e+58
          1262.39070	         9.54554e+57
          1263.19700	         8.02891e+57
          1264.00330	         7.82434e+57
          1264.80960	         8.86259e+57
          1265.61590	         1.25983e+58
          1266.42220	         1.30454e+58
          1267.22850	         1.03000e+58
          1268.03480	         1.38686e+58
          1268.84110	         1.57796e+58
          1269.64740	         1.38481e+58
          1270.45370	         1.44305e+58
          1271.26000	         1.29577e+58
          1272.06630	         1.36241e+58
          1272.87260	         1.21348e+58
          1273.67890	         1.43560e+58
          1274.48520	         1.37607e+58
          1275.29150	         1.38575e+58
          1276.09780	         1.24518e+58
          1276.90410	         1.28049e+58
          1277.71040	         1.10766e+58
          1278.51670	         1.14447e+58
          1279.32300	         1.51247e+58
          1280.12930	         1.20640e+58
          1280.93560	         1.14707e+58
          1281.74190	         1.18053e+58
          1282.54820	         1.28395e+58
          1283.35450	         1.33699e+58
          1284.16080	         1.34049e+58
          1284.96710	         1.39138e+58
          1285.77340	         1.20290e+58
          1286.57970	         1.05425e+58
          1287.38600	         1.33991e+58
          1288.19230	         1.58289e+58
          1288.99860	         1.56403e+58
          1289.80490	         1.11945e+58
          1290.61120	         1.28589e+58
          1291.41750	         1.43098e+58
          1292.22380	         1.22753e+58
          1293.03010	         1.06933e+58
          1293.83640	         1.04011e+58
          1294.64270	         9.36357e+57
          1295.44900	         6.74520e+57
          1296.25530	         6.54191e+57
          1297.06160	         8.42187e+57
          1297.86790	         8.86279e+57
          1298.67420	         8.68458e+57
          1299.48050	         8.77262e+57
          1300.28680	         1.02093e+58
          1301.09310	         8.03051e+57
          1301.89940	         4.69372e+57
          1302.70570	         7.08081e+57
          1303.51200	         7.34116e+57
          1304.31830	         9.04125e+57
          1305.12460	         9.16846e+57
          1305.93090	         9.67371e+57
          1306.73720	         1.14291e+58
          1307.54350	         1.40722e+58
          1308.34980	         1.50105e+58
          1309.15610	         1.47893e+58
          1309.96240	         1.76499e+58
          1310.76870	         1.63328e+58
          1311.57500	         1.23582e+58
          1312.38130	         1.16343e+58
          1313.18760	         1.60839e+58
          1313.99390	         1.75719e+58
          1314.80020	         1.55976e+58
          1315.60650	         1.40966e+58
          1316.41280	         1.21151e+58
          1317.21910	         1.18431e+58
          1318.02540	         1.33249e+58
          1318.83170	         1.35496e+58
          1319.63800	         1.31411e+58
          1320.44430	         1.10929e+58
          1321.25060	         1.14348e+58
          1322.05690	         1.28478e+58
          1322.86320	         1.30969e+58
          1323.66950	         1.17984e+58
          1324.47580	         1.01355e+58
          1325.28210	         1.02394e+58
          1326.08840	         1.13749e+58
          1326.89470	         1.05720e+58
          1327.70100	         9.53171e+57
          1328.50730	         8.74501e+57
          1329.31360	         9.29483e+57
          1330.11990	         9.37260e+57
          1330.92620	         8.09095e+57
          1331.73250	         1.10930e+58
          1332.53880	         1.08446e+58
          1333.34510	         9.25309e+57
          1334.15140	         7.94267e+57
          1334.95770	         8.32903e+57
          1335.76400	         1.04244e+58
          1336.57030	         1.12147e+58
          1337.37660	         1.08689e+58
          1338.18290	         1.09551e+58
          1338.98920	         1.18902e+58
          1339.79550	         1.32660e+58
          1340.60180	         1.21021e+58
          1341.40810	         1.20213e+58
          1342.21440	         1.15667e+58
          1343.02070	         1.19630e+58
          1343.82700	         1.29697e+58
          1344.63330	         1.15113e+58
          1345.43960	         1.31213e+58
          1346.24590	         1.26930e+58
          1347.05220	         1.16915e+58
          1347.85850	         9.69189e+57
          1348.66480	         1.13229e+58
          1349.47110	         1.25557e+58
          1350.27740	         1.15805e+58
          1351.08370	         1.08140e+58
          1351.89000	         1.06796e+58
          1352.69630	         1.15990e+58
          1353.50260	         1.29641e+58
          1354.30890	         1.36194e+58
          1355.11520	         1.22837e+58
          1355.92150	         1.09310e+58
          1356.72780	         1.04962e+58
          1357.53410	         9.97051e+57
          1358.34040	         9.56920e+57
          1359.14670	         9.62783e+57
          1359.95300	         1.19964e+58
          1360.75930	         1.15016e+58
          1361.56560	         1.07169e+58
          1362.37190	         1.22699e+58
          1363.17820	         1.12148e+58
          1363.98450	         1.06738e+58
          1364.79080	         1.10153e+58
          1365.59710	         1.16571e+58
          1366.40340	         1.28461e+58
          1367.20970	         1.14304e+58
          1368.01600	         9.69181e+57
          1368.82230	         7.14744e+57
          1369.62860	         9.55654e+57
          1370.43490	         9.18454e+57
          1371.24120	         8.12002e+57
          1372.04750	         8.44158e+57
          1372.85380	         1.11096e+58
          1373.66010	         1.15487e+58
          1374.46640	         1.01708e+58
          1375.27270	         1.04863e+58
          1376.07900	         9.16100e+57
          1376.88530	         8.38565e+57
          1377.69160	         7.97922e+57
          1378.49790	         7.64208e+57
          1379.30420	         9.15341e+57
          1380.11050	         9.33748e+57
          1380.91680	         7.23783e+57
          1381.72310	         6.48221e+57
          1382.52940	         8.19582e+57
          1383.33570	         8.94887e+57
          1384.14200	         9.47461e+57
          1384.94830	         1.16290e+58
          1385.75460	         1.19115e+58
          1386.56090	         1.10751e+58
          1387.36720	         1.19569e+58
          1388.17350	         1.31501e+58
          1388.97980	         1.12377e+58
          1389.78610	         1.09086e+58
          1390.59240	         9.62875e+57
          1391.39870	         8.56077e+57
          1392.20500	         7.96150e+57
          1393.01130	         7.35414e+57
          1393.81760	         8.31165e+57
          1394.62390	         7.82658e+57
          1395.43020	         6.89738e+57
          1396.23650	         6.48713e+57
          1397.04280	         6.92434e+57
          1397.84910	         8.06901e+57
          1398.65540	         8.34101e+57
          1399.46170	         1.02506e+58
          1400.26800	         9.87401e+57
          1401.07430	         7.37590e+57
          1401.88060	         7.92664e+57
          1402.68690	         9.91831e+57
          1403.49320	         9.57168e+57
          1404.29950	         8.69849e+57
          1405.10580	         9.71548e+57
          1405.91210	         1.09032e+58
          1406.71840	         1.07746e+58
          1407.52470	         1.06163e+58
          1408.33100	         1.10474e+58
          1409.13730	         1.17628e+58
          1409.94360	         1.17700e+58
          1410.74990	         1.23439e+58
          1411.55620	         1.10533e+58
          1412.36250	         1.00136e+58
          1413.16880	         8.79968e+57
          1413.97510	         9.07977e+57
          1414.78140	         9.18595e+57
          1415.58770	         9.14018e+57
          1416.39400	         8.87771e+57
          1417.20030	         1.09455e+58
          1418.00660	         9.87769e+57
          1418.81290	         9.80645e+57
          1419.61920	         1.06939e+58
          1420.42550	         1.24544e+58
          1421.23180	         1.41422e+58
          1422.03810	         1.25684e+58
          1422.84440	         1.11075e+58
          1423.65070	         1.20340e+58
          1424.45700	         1.18549e+58
          1425.26330	         7.91087e+57
          1426.06960	         8.32642e+57
          1426.87590	         1.07959e+58
          1427.68220	         1.03252e+58
          1428.48850	         1.04637e+58
          1429.29480	         1.03602e+58
          1430.10110	         9.51644e+57
          1430.90740	         9.30661e+57
          1431.71370	         9.71219e+57
          1432.52000	         8.81429e+57
          1433.32630	         7.52397e+57
          1434.13260	         7.90498e+57
          1434.93890	         8.82782e+57
          1435.74520	         1.00976e+58
          1436.55150	         1.00159e+58
          1437.35780	         9.59446e+57
          1438.16410	         1.00806e+58
          1438.97040	         9.92780e+57
          1439.77670	         8.47664e+57
          1440.58300	         8.01589e+57
          1441.38930	         8.62461e+57
          1442.19560	         9.14272e+57
          1443.00190	         1.02117e+58
          1443.80820	         1.15508e+58
          1444.61450	         1.08996e+58
          1445.42080	         9.61699e+57
          1446.22710	         9.64605e+57
          1447.03340	         9.41862e+57
          1447.83970	         1.03336e+58
          1448.64600	         9.40506e+57
          1449.45230	         8.91679e+57
          1450.25860	         9.52056e+57
          1451.06490	         9.06910e+57
          1451.87120	         7.34737e+57
          1452.67750	         7.31731e+57
          1453.48380	         8.09118e+57
          1454.29010	         7.06622e+57
          1455.09640	         7.19834e+57
          1455.90270	         8.97727e+57
          1456.70900	         9.45892e+57
          1457.51530	         1.00392e+58
          1458.32160	         1.26296e+58
          1459.12790	         1.18495e+58
          1459.93420	         8.98904e+57
          1460.74050	         7.56440e+57
          1461.54680	         7.63874e+57
          1462.35310	         7.86509e+57
          1463.15940	         9.21136e+57
          1463.96570	         1.02602e+58
          1464.77200	         1.12714e+58
          1465.57830	         1.12169e+58
          1466.38460	         9.45277e+57
          1467.19090	         7.65841e+57
          1467.99720	         7.94229e+57
          1468.80350	         9.83423e+57
          1469.60980	         1.05376e+58
          1470.41610	         1.14386e+58
          1471.22240	         1.03505e+58
          1472.02870	         9.77760e+57
          1472.83500	         9.56402e+57
          1473.64130	         1.00474e+58
          1474.44760	         9.87454e+57
          1475.25390	         7.78374e+57
          1476.06020	         8.55119e+57
          1476.86650	         7.82840e+57
          1477.67280	         8.08428e+57
          1478.47910	         7.34276e+57
          1479.28540	         6.82534e+57
          1480.09170	         8.79520e+57
          1480.89800	         9.75352e+57
          1481.70430	         9.12209e+57
          1482.51060	         7.40130e+57
          1483.31690	         7.87536e+57
          1484.12320	         8.19188e+57
          1484.92950	         7.53971e+57
          1485.73580	         7.03756e+57
          1486.54210	         7.74242e+57
          1487.34840	         8.20489e+57
          1488.15470	         8.36218e+57
          1488.96100	         8.00531e+57
          1489.76730	         8.95334e+57
