#sample_135_stacked_spectrum_rest_UV-bands_median_H-alpha_noDC.txt
#median Lum: 1.69490e+42
#Rest-frame wavelength (A) | Luminosity (erg/s/A)
#
          1110.00000	         0.00000e+00
          1110.80630	         1.20126e+59
          1111.61260	         2.19392e+58
          1112.41890	         2.96352e+59
          1113.22520	         1.48972e+59
          1114.03150	         1.45237e+58
          1114.83780	         1.50661e+59
          1115.64410	         1.41273e+59
          1116.45040	         2.29328e+59
          1117.25670	        -3.94030e+56
          1118.06300	         1.48146e+58
          1118.86930	        -5.93234e+58
          1119.67560	        -3.03374e+58
          1120.48190	         1.24800e+58
          1121.28820	        -9.96636e+58
          1122.09450	         3.36256e+58
          1122.90080	        -2.41207e+58
          1123.70710	         8.87986e+57
          1124.51340	         2.96740e+58
          1125.31970	        -2.50366e+58
          1126.12600	        -1.87910e+58
          1126.93230	        -4.64562e+58
          1127.73860	        -7.66066e+58
          1128.54490	        -2.86292e+58
          1129.35120	         1.22751e+58
          1130.15750	        -2.14859e+58
          1130.96380	        -3.02467e+58
          1131.77010	         4.07408e+58
          1132.57640	         7.44618e+58
          1133.38270	         6.60738e+58
          1134.18900	         5.39996e+58
          1134.99530	         3.31787e+58
          1135.80160	         1.08668e+58
          1136.60790	         1.01952e+58
          1137.41420	         1.40408e+58
          1138.22050	         4.74587e+58
          1139.02680	         6.23705e+58
          1139.83310	         3.75491e+58
          1140.63940	         1.34967e+58
          1141.44570	        -2.66257e+58
          1142.25200	        -2.76524e+57
          1143.05830	         2.91860e+58
          1143.86460	         1.45507e+58
          1144.67090	         2.81649e+58
          1145.47720	         1.28260e+58
          1146.28350	         9.71086e+57
          1147.08980	         1.92406e+58
          1147.89610	         2.11027e+58
          1148.70240	         2.43349e+58
          1149.50870	         2.21667e+58
          1150.31500	         1.57711e+58
          1151.12130	         5.79688e+57
          1151.92760	         9.93611e+57
          1152.73390	         9.41925e+57
          1153.54020	        -2.39854e+57
          1154.34650	         2.26154e+58
          1155.15280	         1.15675e+58
          1155.95910	         9.46315e+57
          1156.76540	         4.46980e+57
          1157.57170	        -4.33421e+57
          1158.37800	         3.53801e+57
          1159.18430	         1.29202e+57
          1159.99060	         9.45320e+57
          1160.79690	         1.03043e+58
          1161.60320	         6.83137e+57
          1162.40950	         1.87051e+58
          1163.21580	         1.40486e+58
          1164.02210	         1.77519e+58
          1164.82840	         1.17971e+58
          1165.63470	         2.18852e+58
          1166.44100	         3.02496e+58
          1167.24730	         2.21650e+58
          1168.05360	         1.26081e+58
          1168.85990	         7.69834e+57
          1169.66620	         1.02762e+58
          1170.47250	         9.88030e+57
          1171.27880	         1.41749e+58
          1172.08510	         2.26636e+58
          1172.89140	         1.14715e+58
          1173.69770	         4.14291e+57
          1174.50400	         1.01683e+58
          1175.31030	         1.93817e+58
          1176.11660	         1.66525e+58
          1176.92290	         1.35589e+58
          1177.72920	         1.01844e+58
          1178.53550	         6.39696e+57
          1179.34180	         1.70958e+57
          1180.14810	         4.89225e+57
          1180.95440	         4.73589e+57
          1181.76070	         6.81802e+57
          1182.56700	         1.25984e+58
          1183.37330	         7.63525e+57
          1184.17960	         1.28901e+58
          1184.98590	         1.05663e+58
          1185.79220	         3.02828e+57
          1186.59850	         8.53815e+57
          1187.40480	         5.74895e+57
          1188.21110	         1.71140e+58
          1189.01740	         8.97738e+57
          1189.82370	         9.19825e+57
          1190.63000	         9.95659e+57
          1191.43630	         1.08555e+58
          1192.24260	         7.10494e+57
          1193.04890	         1.10924e+58
          1193.85520	         8.53083e+57
          1194.66150	         5.19878e+57
          1195.46780	         1.03062e+58
          1196.27410	         1.75962e+58
          1197.08040	         1.38847e+58
          1197.88670	         1.43418e+58
          1198.69300	         1.80206e+58
          1199.49930	         1.47924e+58
          1200.30560	         9.31807e+57
          1201.11190	         1.08902e+58
          1201.91820	         9.62403e+57
          1202.72450	         6.25061e+57
          1203.53080	         1.41857e+58
          1204.33710	         3.56631e+57
          1205.14340	         6.94134e+57
          1205.94970	         6.00012e+57
          1206.75600	         7.64846e+57
          1207.56230	         4.81094e+57
          1208.36860	         7.02831e+57
          1209.17490	         4.11889e+57
          1209.98120	         7.04491e+57
          1210.78750	         3.34084e+57
          1211.59380	         9.07519e+57
          1212.40010	         2.02461e+58
          1213.20640	         2.11715e+58
          1214.01270	         2.10752e+58
          1214.81900	         2.45076e+58
          1215.62530	         4.47065e+58
          1216.43160	         8.77691e+58
          1217.23790	         1.49961e+59
          1218.04420	         1.16630e+59
          1218.85050	         9.04242e+58
          1219.65680	         6.05095e+58
          1220.46310	         3.51264e+58
          1221.26940	         2.45240e+58
          1222.07570	         1.45027e+58
          1222.88200	         1.23131e+58
          1223.68830	         1.02179e+58
          1224.49460	         7.04428e+57
          1225.30090	         6.32750e+57
          1226.10720	         8.14735e+57
          1226.91350	         7.23792e+57
          1227.71980	         8.49834e+57
          1228.52610	         1.14422e+58
          1229.33240	         1.01917e+58
          1230.13870	         1.03543e+58
          1230.94500	         9.87455e+57
          1231.75130	         6.91599e+57
          1232.55760	         7.78341e+57
          1233.36390	         7.77504e+57
          1234.17020	         6.86590e+57
          1234.97650	         7.87316e+57
          1235.78280	         8.28148e+57
          1236.58910	         1.03593e+58
          1237.39540	         1.02972e+58
          1238.20170	         1.00122e+58
          1239.00800	         1.15882e+58
          1239.81430	         1.46558e+58
          1240.62060	         1.23484e+58
          1241.42690	         9.35714e+57
          1242.23320	         1.24925e+58
          1243.03950	         9.63500e+57
          1243.84580	         7.58307e+57
          1244.65210	         8.93657e+57
          1245.45840	         7.33810e+57
          1246.26470	         5.17591e+57
          1247.07100	         5.16644e+57
          1247.87730	         5.43986e+57
          1248.68360	         5.43964e+57
          1249.48990	         8.71148e+57
          1250.29620	         7.97357e+57
          1251.10250	         6.84720e+57
          1251.90880	         5.14472e+57
          1252.71510	         4.91455e+57
          1253.52140	         6.06051e+57
          1254.32770	         8.85883e+57
          1255.13400	         1.06802e+58
          1255.94030	         1.04841e+58
          1256.74660	         1.02070e+58
          1257.55290	         1.16265e+58
          1258.35920	         8.14374e+57
          1259.16550	         4.86027e+57
          1259.97180	         4.49112e+57
          1260.77810	         7.36572e+57
          1261.58440	         1.56285e+58
          1262.39070	         1.27710e+58
          1263.19700	         9.81426e+57
          1264.00330	         1.04018e+58
          1264.80960	         1.00371e+58
          1265.61590	         1.17724e+58
          1266.42220	         1.30426e+58
          1267.22850	         1.13979e+58
          1268.03480	         1.48805e+58
          1268.84110	         1.57835e+58
          1269.64740	         1.45634e+58
          1270.45370	         1.40951e+58
          1271.26000	         1.14820e+58
          1272.06630	         1.11338e+58
          1272.87260	         1.29688e+58
          1273.67890	         1.29241e+58
          1274.48520	         1.08068e+58
          1275.29150	         1.18737e+58
          1276.09780	         1.20130e+58
          1276.90410	         1.52209e+58
          1277.71040	         1.37474e+58
          1278.51670	         1.18885e+58
          1279.32300	         1.35644e+58
          1280.12930	         1.20844e+58
          1280.93560	         1.23228e+58
          1281.74190	         1.25662e+58
          1282.54820	         1.28077e+58
          1283.35450	         1.24585e+58
          1284.16080	         1.18009e+58
          1284.96710	         1.32880e+58
          1285.77340	         1.24808e+58
          1286.57970	         1.30228e+58
          1287.38600	         1.55136e+58
          1288.19230	         1.63746e+58
          1288.99860	         1.43747e+58
          1289.80490	         1.23609e+58
          1290.61120	         1.44183e+58
          1291.41750	         1.29588e+58
          1292.22380	         9.86583e+57
          1293.03010	         1.08586e+58
          1293.83640	         1.33908e+58
          1294.64270	         1.15506e+58
          1295.44900	         7.75387e+57
          1296.25530	         7.15603e+57
          1297.06160	         8.29996e+57
          1297.86790	         9.52411e+57
          1298.67420	         9.89966e+57
          1299.48050	         1.08558e+58
          1300.28680	         1.05343e+58
          1301.09310	         8.72530e+57
          1301.89940	         4.74358e+57
          1302.70570	         6.30008e+57
          1303.51200	         6.77575e+57
          1304.31830	         8.29893e+57
          1305.12460	         1.07410e+58
          1305.93090	         1.05427e+58
          1306.73720	         1.12867e+58
          1307.54350	         1.42919e+58
          1308.34980	         1.37774e+58
          1309.15610	         1.46473e+58
          1309.96240	         1.61694e+58
          1310.76870	         1.45287e+58
          1311.57500	         1.21944e+58
          1312.38130	         1.17417e+58
          1313.18760	         1.31279e+58
          1313.99390	         1.60515e+58
          1314.80020	         1.70915e+58
          1315.60650	         1.63119e+58
          1316.41280	         1.34068e+58
          1317.21910	         1.11663e+58
          1318.02540	         1.19317e+58
          1318.83170	         1.38335e+58
          1319.63800	         1.18993e+58
          1320.44430	         1.13452e+58
          1321.25060	         1.20169e+58
          1322.05690	         1.22456e+58
          1322.86320	         1.29786e+58
          1323.66950	         1.17624e+58
          1324.47580	         1.07907e+58
          1325.28210	         9.55350e+57
          1326.08840	         1.02930e+58
          1326.89470	         1.23176e+58
          1327.70100	         8.67150e+57
          1328.50730	         7.19804e+57
          1329.31360	         9.30607e+57
          1330.11990	         8.69342e+57
          1330.92620	         8.80871e+57
          1331.73250	         1.00958e+58
          1332.53880	         1.01524e+58
          1333.34510	         8.54079e+57
          1334.15140	         8.45706e+57
          1334.95770	         9.89776e+57
          1335.76400	         1.03069e+58
          1336.57030	         1.00903e+58
          1337.37660	         1.10270e+58
          1338.18290	         1.07625e+58
          1338.98920	         1.16280e+58
          1339.79550	         1.16119e+58
          1340.60180	         1.16211e+58
          1341.40810	         1.32406e+58
          1342.21440	         1.22109e+58
          1343.02070	         1.17283e+58
          1343.82700	         1.26417e+58
          1344.63330	         1.32644e+58
          1345.43960	         1.45502e+58
          1346.24590	         1.21805e+58
          1347.05220	         1.15832e+58
          1347.85850	         1.01763e+58
          1348.66480	         1.14046e+58
          1349.47110	         1.36661e+58
          1350.27740	         1.29060e+58
          1351.08370	         1.15149e+58
          1351.89000	         1.23166e+58
          1352.69630	         1.22923e+58
          1353.50260	         1.16597e+58
          1354.30890	         1.24777e+58
          1355.11520	         1.33725e+58
          1355.92150	         1.16671e+58
          1356.72780	         1.11208e+58
          1357.53410	         1.05491e+58
          1358.34040	         1.08336e+58
          1359.14670	         9.78395e+57
          1359.95300	         1.20344e+58
          1360.75930	         1.22403e+58
          1361.56560	         1.01698e+58
          1362.37190	         1.14755e+58
          1363.17820	         1.22541e+58
          1363.98450	         1.33383e+58
          1364.79080	         1.36266e+58
          1365.59710	         1.30250e+58
          1366.40340	         1.37166e+58
          1367.20970	         1.06308e+58
          1368.01600	         8.90645e+57
          1368.82230	         8.78356e+57
          1369.62860	         1.10381e+58
          1370.43490	         1.05062e+58
          1371.24120	         1.02873e+58
          1372.04750	         9.99347e+57
          1372.85380	         1.10608e+58
          1373.66010	         1.11157e+58
          1374.46640	         1.15339e+58
          1375.27270	         1.06904e+58
          1376.07900	         9.36618e+57
          1376.88530	         8.59436e+57
          1377.69160	         8.87466e+57
          1378.49790	         7.91358e+57
          1379.30420	         7.69117e+57
          1380.11050	         8.05524e+57
          1380.91680	         8.42577e+57
          1381.72310	         8.56617e+57
          1382.52940	         7.51370e+57
          1383.33570	         7.69792e+57
          1384.14200	         8.77869e+57
          1384.94830	         1.15220e+58
          1385.75460	         1.23938e+58
          1386.56090	         1.07559e+58
          1387.36720	         1.04078e+58
          1388.17350	         1.40789e+58
          1388.97980	         1.30812e+58
          1389.78610	         9.96137e+57
          1390.59240	         7.55970e+57
          1391.39870	         6.85668e+57
          1392.20500	         7.70967e+57
          1393.01130	         7.31982e+57
          1393.81760	         6.84963e+57
          1394.62390	         7.42338e+57
          1395.43020	         6.69282e+57
          1396.23650	         6.63813e+57
          1397.04280	         8.56641e+57
          1397.84910	         9.98872e+57
          1398.65540	         9.35541e+57
          1399.46170	         9.03154e+57
          1400.26800	         8.48461e+57
          1401.07430	         8.77093e+57
          1401.88060	         9.84043e+57
          1402.68690	         1.00560e+58
          1403.49320	         9.53894e+57
          1404.29950	         9.61132e+57
          1405.10580	         1.11106e+58
          1405.91210	         1.14022e+58
          1406.71840	         1.11934e+58
          1407.52470	         1.04120e+58
          1408.33100	         9.90735e+57
          1409.13730	         1.13009e+58
          1409.94360	         1.17235e+58
          1410.74990	         1.06694e+58
          1411.55620	         9.44110e+57
          1412.36250	         8.48612e+57
          1413.16880	         9.05993e+57
          1413.97510	         8.23105e+57
          1414.78140	         7.33531e+57
          1415.58770	         9.16475e+57
          1416.39400	         9.66892e+57
          1417.20030	         9.37000e+57
          1418.00660	         9.34294e+57
          1418.81290	         9.95443e+57
          1419.61920	         1.03503e+58
          1420.42550	         1.02652e+58
          1421.23180	         1.20592e+58
          1422.03810	         1.10002e+58
          1422.84440	         1.00254e+58
          1423.65070	         1.23894e+58
          1424.45700	         1.02379e+58
          1425.26330	         7.28842e+57
          1426.06960	         9.40367e+57
          1426.87590	         1.02675e+58
          1427.68220	         1.06297e+58
          1428.48850	         1.08516e+58
          1429.29480	         1.04241e+58
          1430.10110	         9.88988e+57
          1430.90740	         7.50314e+57
          1431.71370	         7.80394e+57
          1432.52000	         8.61915e+57
          1433.32630	         8.72072e+57
          1434.13260	         8.33537e+57
          1434.93890	         8.45724e+57
          1435.74520	         8.54991e+57
          1436.55150	         9.17386e+57
          1437.35780	         9.85009e+57
          1438.16410	         1.02286e+58
          1438.97040	         1.02989e+58
          1439.77670	         9.79470e+57
          1440.58300	         9.73508e+57
          1441.38930	         1.01811e+58
          1442.19560	         1.12870e+58
          1443.00190	         9.99029e+57
          1443.80820	         1.00824e+58
          1444.61450	         9.37985e+57
          1445.42080	         8.55186e+57
          1446.22710	         1.04515e+58
          1447.03340	         9.62447e+57
          1447.83970	         1.06986e+58
          1448.64600	         1.11835e+58
          1449.45230	         9.69254e+57
          1450.25860	         9.80423e+57
          1451.06490	         8.84607e+57
          1451.87120	         8.15830e+57
          1452.67750	         6.47262e+57
          1453.48380	         8.28383e+57
          1454.29010	         8.37204e+57
          1455.09640	         7.57006e+57
          1455.90270	         8.03081e+57
          1456.70900	         7.15513e+57
          1457.51530	         9.02686e+57
          1458.32160	         1.20225e+58
          1459.12790	         1.06471e+58
          1459.93420	         9.65054e+57
          1460.74050	         7.94057e+57
          1461.54680	         8.10125e+57
          1462.35310	         8.27218e+57
          1463.15940	         9.22810e+57
          1463.96570	         1.09583e+58
          1464.77200	         1.32889e+58
          1465.57830	         1.17153e+58
          1466.38460	         9.38903e+57
          1467.19090	         9.40583e+57
          1467.99720	         9.08672e+57
          1468.80350	         9.38036e+57
          1469.60980	         9.47253e+57
          1470.41610	         9.27189e+57
          1471.22240	         8.56936e+57
          1472.02870	         1.03521e+58
          1472.83500	         1.04574e+58
          1473.64130	         9.17443e+57
          1474.44760	         9.44578e+57
          1475.25390	         8.17945e+57
          1476.06020	         7.61338e+57
          1476.86650	         7.79258e+57
          1477.67280	         6.90480e+57
          1478.47910	         6.27881e+57
          1479.28540	         6.97379e+57
          1480.09170	         9.18015e+57
          1480.89800	         9.68045e+57
          1481.70430	         9.25225e+57
          1482.51060	         9.64020e+57
          1483.31690	         8.36235e+57
          1484.12320	         7.49617e+57
          1484.92950	         7.84500e+57
          1485.73580	         8.82974e+57
          1486.54210	         9.51564e+57
          1487.34840	         8.64030e+57
          1488.15470	         8.35407e+57
          1488.96100	         8.41263e+57
          1489.76730	         8.79358e+57
