#sample_134_stacked_spectrum_rest_UV-bands_median_H-alpha_noDC.txt
#median Lum: 1.70495e+42
#Rest-frame wavelength (A) | Luminosity (erg/s/A)
#
          1110.00000	         0.00000e+00
          1110.80630	        -7.96890e+58
          1111.61260	        -1.55212e+59
          1112.41890	        -1.24029e+59
          1113.22520	         1.13458e+59
          1114.03150	         4.23828e+58
          1114.83780	         2.07874e+59
          1115.64410	         1.26520e+59
          1116.45040	         1.70087e+59
          1117.25670	        -9.36040e+57
          1118.06300	         6.87560e+58
          1118.86930	         7.59758e+57
          1119.67560	         1.20842e+59
          1120.48190	         1.12219e+59
          1121.28820	        -1.34197e+59
          1122.09450	         9.14378e+57
          1122.90080	        -3.31212e+58
          1123.70710	        -4.76056e+58
          1124.51340	         7.29818e+58
          1125.31970	        -2.14778e+58
          1126.12600	         1.60299e+58
          1126.93230	        -6.04982e+58
          1127.73860	        -7.53154e+58
          1128.54490	         1.20820e+58
          1129.35120	         3.30466e+57
          1130.15750	        -2.00088e+58
          1130.96380	        -1.39774e+58
          1131.77010	         8.21392e+58
          1132.57640	         6.42996e+58
          1133.38270	         3.09171e+58
          1134.18900	         9.81872e+57
          1134.99530	        -1.18298e+57
          1135.80160	         3.91493e+58
          1136.60790	         2.47848e+58
          1137.41420	        -1.98637e+58
          1138.22050	         2.66565e+58
          1139.02680	         1.83044e+58
          1139.83310	         2.97136e+58
          1140.63940	         3.09027e+58
          1141.44570	         5.10224e+57
          1142.25200	         2.08721e+57
          1143.05830	         1.75245e+58
          1143.86460	         2.44661e+58
          1144.67090	         3.15367e+58
          1145.47720	         2.03657e+58
          1146.28350	         1.48684e+58
          1147.08980	         3.34607e+57
          1147.89610	         1.44674e+58
          1148.70240	         3.63209e+58
          1149.50870	         2.65502e+58
          1150.31500	         1.08797e+58
          1151.12130	         1.39941e+57
          1151.92760	         2.97719e+57
          1152.73390	         2.79013e+57
          1153.54020	         7.04827e+57
          1154.34650	         1.83380e+58
          1155.15280	         3.16083e+58
          1155.95910	         1.47036e+58
          1156.76540	         9.01724e+57
          1157.57170	        -7.02538e+56
          1158.37800	         5.16972e+57
          1159.18430	         1.91248e+57
          1159.99060	         1.58967e+58
          1160.79690	         1.86914e+58
          1161.60320	         1.03053e+58
          1162.40950	         1.65227e+58
          1163.21580	         9.28680e+57
          1164.02210	         1.34968e+58
          1164.82840	         1.08778e+58
          1165.63470	         1.89205e+58
          1166.44100	         3.20002e+58
          1167.24730	         2.25545e+58
          1168.05360	         5.61199e+57
          1168.85990	         6.78221e+57
          1169.66620	         1.05176e+58
          1170.47250	         1.07601e+58
          1171.27880	         8.74389e+57
          1172.08510	         1.25422e+58
          1172.89140	         7.50746e+57
          1173.69770	         6.64168e+57
          1174.50400	         1.13333e+58
          1175.31030	         1.17924e+58
          1176.11660	         9.50078e+57
          1176.92290	         1.54417e+58
          1177.72920	         1.33654e+58
          1178.53550	         2.83761e+57
          1179.34180	        -1.72439e+57
          1180.14810	         8.79857e+57
          1180.95440	         8.77121e+57
          1181.76070	         3.58418e+57
          1182.56700	         8.95482e+57
          1183.37330	         1.07134e+58
          1184.17960	         1.38318e+58
          1184.98590	         1.10891e+58
          1185.79220	         8.51845e+57
          1186.59850	         1.06938e+58
          1187.40480	         1.25927e+58
          1188.21110	         2.00042e+58
          1189.01740	         1.30129e+58
          1189.82370	         1.03297e+58
          1190.63000	         1.20348e+58
          1191.43630	         1.40851e+58
          1192.24260	         6.80147e+57
          1193.04890	         1.26080e+58
          1193.85520	         1.18639e+58
          1194.66150	         7.51856e+57
          1195.46780	         1.26898e+58
          1196.27410	         1.28428e+58
          1197.08040	         5.99894e+57
          1197.88670	         1.09172e+58
          1198.69300	         1.46217e+58
          1199.49930	         1.68834e+58
          1200.30560	         1.31623e+58
          1201.11190	         8.39403e+57
          1201.91820	         1.04142e+58
          1202.72450	         7.12331e+57
          1203.53080	         1.41859e+58
          1204.33710	         1.14651e+58
          1205.14340	         6.86882e+57
          1205.94970	         8.23085e+57
          1206.75600	         5.52884e+57
          1207.56230	         2.64498e+57
          1208.36860	         6.59039e+57
          1209.17490	         5.08006e+57
          1209.98120	         9.68983e+57
          1210.78750	         5.98039e+57
          1211.59380	         1.10492e+58
          1212.40010	         1.76846e+58
          1213.20640	         2.18387e+58
          1214.01270	         2.12546e+58
          1214.81900	         2.46631e+58
          1215.62530	         4.43512e+58
          1216.43160	         9.25988e+58
          1217.23790	         1.52574e+59
          1218.04420	         1.18203e+59
          1218.85050	         8.45622e+58
          1219.65680	         5.45239e+58
          1220.46310	         3.19120e+58
          1221.26940	         2.17326e+58
          1222.07570	         1.14221e+58
          1222.88200	         1.02076e+58
          1223.68830	         1.19257e+58
          1224.49460	         1.15750e+58
          1225.30090	         8.08742e+57
          1226.10720	         6.64568e+57
          1226.91350	         8.82796e+57
          1227.71980	         1.06194e+58
          1228.52610	         1.21304e+58
          1229.33240	         8.87897e+57
          1230.13870	         8.16891e+57
          1230.94500	         1.06257e+58
          1231.75130	         7.24168e+57
          1232.55760	         7.83871e+57
          1233.36390	         1.09528e+58
          1234.17020	         9.22425e+57
          1234.97650	         7.75775e+57
          1235.78280	         7.43658e+57
          1236.58910	         8.03336e+57
          1237.39540	         7.82232e+57
          1238.20170	         8.66592e+57
          1239.00800	         1.26829e+58
          1239.81430	         1.41555e+58
          1240.62060	         1.08806e+58
          1241.42690	         1.07116e+58
          1242.23320	         1.07917e+58
          1243.03950	         8.35421e+57
          1243.84580	         7.55416e+57
          1244.65210	         1.15238e+58
          1245.45840	         1.23218e+58
          1246.26470	         9.02494e+57
          1247.07100	         6.10233e+57
          1247.87730	         7.80457e+57
          1248.68360	         4.48999e+57
          1249.48990	         6.19935e+57
          1250.29620	         1.07939e+58
          1251.10250	         8.92712e+57
          1251.90880	         4.68828e+57
          1252.71510	         7.59005e+57
          1253.52140	         6.88576e+57
          1254.32770	         1.04123e+58
          1255.13400	         1.40575e+58
          1255.94030	         1.04221e+58
          1256.74660	         1.05054e+58
          1257.55290	         1.01580e+58
          1258.35920	         8.02447e+57
          1259.16550	         4.72009e+57
          1259.97180	         5.10039e+57
          1260.77810	         8.01216e+57
          1261.58440	         1.28609e+58
          1262.39070	         1.05635e+58
          1263.19700	         9.27355e+57
          1264.00330	         9.55191e+57
          1264.80960	         1.03708e+58
          1265.61590	         1.06152e+58
          1266.42220	         1.23577e+58
          1267.22850	         1.27597e+58
          1268.03480	         1.43466e+58
          1268.84110	         1.63659e+58
          1269.64740	         1.49151e+58
          1270.45370	         1.38020e+58
          1271.26000	         1.21612e+58
          1272.06630	         1.23971e+58
          1272.87260	         1.11830e+58
          1273.67890	         1.13711e+58
          1274.48520	         1.30096e+58
          1275.29150	         1.27174e+58
          1276.09780	         1.21525e+58
          1276.90410	         1.32346e+58
          1277.71040	         1.30210e+58
          1278.51670	         1.33367e+58
          1279.32300	         1.47516e+58
          1280.12930	         1.34500e+58
          1280.93560	         9.49436e+57
          1281.74190	         1.16677e+58
          1282.54820	         1.50859e+58
          1283.35450	         1.26029e+58
          1284.16080	         1.03966e+58
          1284.96710	         1.19575e+58
          1285.77340	         1.15712e+58
          1286.57970	         1.14672e+58
          1287.38600	         1.42620e+58
          1288.19230	         1.62739e+58
          1288.99860	         1.41727e+58
          1289.80490	         1.03410e+58
          1290.61120	         1.32864e+58
          1291.41750	         1.35573e+58
          1292.22380	         1.09024e+58
          1293.03010	         1.10066e+58
          1293.83640	         1.23581e+58
          1294.64270	         1.06183e+58
          1295.44900	         7.60003e+57
          1296.25530	         8.39730e+57
          1297.06160	         8.42632e+57
          1297.86790	         9.26508e+57
          1298.67420	         1.07213e+58
          1299.48050	         1.17981e+58
          1300.28680	         8.85468e+57
          1301.09310	         7.47540e+57
          1301.89940	         4.61512e+57
          1302.70570	         5.99693e+57
          1303.51200	         6.55238e+57
          1304.31830	         9.73329e+57
          1305.12460	         1.24843e+58
          1305.93090	         1.26840e+58
          1306.73720	         1.27341e+58
          1307.54350	         1.42414e+58
          1308.34980	         1.58224e+58
          1309.15610	         1.65498e+58
          1309.96240	         1.57585e+58
          1310.76870	         1.47965e+58
          1311.57500	         1.14808e+58
          1312.38130	         9.78029e+57
          1313.18760	         1.43159e+58
          1313.99390	         1.60839e+58
          1314.80020	         1.69333e+58
          1315.60650	         1.63460e+58
          1316.41280	         1.39436e+58
          1317.21910	         1.28379e+58
          1318.02540	         1.19234e+58
          1318.83170	         1.08987e+58
          1319.63800	         1.22791e+58
          1320.44430	         1.12987e+58
          1321.25060	         1.21986e+58
          1322.05690	         1.26877e+58
          1322.86320	         1.22481e+58
          1323.66950	         1.19889e+58
          1324.47580	         9.49751e+57
          1325.28210	         8.76808e+57
          1326.08840	         1.19542e+58
          1326.89470	         1.39208e+58
          1327.70100	         1.10251e+58
          1328.50730	         8.13693e+57
          1329.31360	         9.84666e+57
          1330.11990	         1.06026e+58
          1330.92620	         9.73228e+57
          1331.73250	         1.07621e+58
          1332.53880	         1.06639e+58
          1333.34510	         8.98950e+57
          1334.15140	         7.81987e+57
          1334.95770	         8.07345e+57
          1335.76400	         9.98509e+57
          1336.57030	         1.02569e+58
          1337.37660	         9.33342e+57
          1338.18290	         1.10094e+58
          1338.98920	         1.36792e+58
          1339.79550	         1.14267e+58
          1340.60180	         1.20692e+58
          1341.40810	         1.35116e+58
          1342.21440	         1.13054e+58
          1343.02070	         1.07019e+58
          1343.82700	         1.30052e+58
          1344.63330	         1.34577e+58
          1345.43960	         1.19644e+58
          1346.24590	         9.92806e+57
          1347.05220	         1.24820e+58
          1347.85850	         1.24883e+58
          1348.66480	         1.38481e+58
          1349.47110	         1.41665e+58
          1350.27740	         1.30048e+58
          1351.08370	         1.20898e+58
          1351.89000	         1.22289e+58
          1352.69630	         1.23952e+58
          1353.50260	         1.19769e+58
          1354.30890	         1.15582e+58
          1355.11520	         1.24171e+58
          1355.92150	         1.11615e+58
          1356.72780	         1.11902e+58
          1357.53410	         1.09632e+58
          1358.34040	         1.16402e+58
          1359.14670	         9.47013e+57
          1359.95300	         1.02476e+58
          1360.75930	         1.23942e+58
          1361.56560	         1.18209e+58
          1362.37190	         1.13804e+58
          1363.17820	         1.04302e+58
          1363.98450	         1.17920e+58
          1364.79080	         1.25240e+58
          1365.59710	         1.19160e+58
          1366.40340	         1.20437e+58
          1367.20970	         1.16073e+58
          1368.01600	         9.74498e+57
          1368.82230	         8.96313e+57
          1369.62860	         1.20299e+58
          1370.43490	         1.14466e+58
          1371.24120	         1.08800e+58
          1372.04750	         9.40729e+57
          1372.85380	         1.15738e+58
          1373.66010	         1.22124e+58
          1374.46640	         1.19277e+58
          1375.27270	         1.16202e+58
          1376.07900	         9.79655e+57
          1376.88530	         9.53506e+57
          1377.69160	         9.02252e+57
          1378.49790	         6.82160e+57
          1379.30420	         6.68059e+57
          1380.11050	         8.83160e+57
          1380.91680	         8.53804e+57
          1381.72310	         6.38655e+57
          1382.52940	         6.16367e+57
          1383.33570	         7.21353e+57
          1384.14200	         9.42377e+57
          1384.94830	         1.04624e+58
          1385.75460	         9.74815e+57
          1386.56090	         1.09503e+58
          1387.36720	         1.13948e+58
          1388.17350	         1.26595e+58
          1388.97980	         1.13685e+58
          1389.78610	         8.81679e+57
          1390.59240	         8.26268e+57
          1391.39870	         7.65420e+57
          1392.20500	         8.71788e+57
          1393.01130	         8.81588e+57
          1393.81760	         7.96376e+57
          1394.62390	         8.38589e+57
          1395.43020	         7.04784e+57
          1396.23650	         6.01229e+57
          1397.04280	         7.42053e+57
          1397.84910	         8.52397e+57
          1398.65540	         8.91802e+57
          1399.46170	         1.02443e+58
          1400.26800	         8.71490e+57
          1401.07430	         7.68955e+57
          1401.88060	         7.86879e+57
          1402.68690	         9.75227e+57
          1403.49320	         9.19866e+57
          1404.29950	         8.73846e+57
          1405.10580	         1.04470e+58
          1405.91210	         1.12900e+58
          1406.71840	         1.11980e+58
          1407.52470	         1.03605e+58
          1408.33100	         1.06126e+58
          1409.13730	         1.21697e+58
          1409.94360	         1.16713e+58
          1410.74990	         1.18228e+58
          1411.55620	         1.12710e+58
          1412.36250	         8.82556e+57
          1413.16880	         8.50475e+57
          1413.97510	         8.95145e+57
          1414.78140	         9.27588e+57
          1415.58770	         1.01068e+58
          1416.39400	         1.04155e+58
          1417.20030	         1.11667e+58
          1418.00660	         1.03707e+58
          1418.81290	         1.00916e+58
          1419.61920	         1.06242e+58
          1420.42550	         1.25534e+58
          1421.23180	         1.46869e+58
          1422.03810	         1.31821e+58
          1422.84440	         1.19080e+58
          1423.65070	         1.32923e+58
          1424.45700	         1.25856e+58
          1425.26330	         9.97171e+57
          1426.06960	         9.34131e+57
          1426.87590	         1.00553e+58
          1427.68220	         1.09842e+58
          1428.48850	         1.15833e+58
          1429.29480	         1.16204e+58
          1430.10110	         1.06456e+58
          1430.90740	         9.47186e+57
          1431.71370	         8.53008e+57
          1432.52000	         8.89220e+57
          1433.32630	         8.19591e+57
          1434.13260	         8.71446e+57
          1434.93890	         9.16494e+57
          1435.74520	         9.01536e+57
          1436.55150	         1.00322e+58
          1437.35780	         1.03085e+58
          1438.16410	         9.68306e+57
          1438.97040	         8.17738e+57
          1439.77670	         8.33204e+57
          1440.58300	         9.11363e+57
          1441.38930	         9.47123e+57
          1442.19560	         1.00229e+58
          1443.00190	         1.09193e+58
          1443.80820	         1.19730e+58
          1444.61450	         1.06256e+58
          1445.42080	         1.00837e+58
          1446.22710	         1.12475e+58
          1447.03340	         9.86039e+57
          1447.83970	         1.04270e+58
          1448.64600	         1.12322e+58
          1449.45230	         9.94286e+57
          1450.25860	         1.02720e+58
          1451.06490	         9.58865e+57
          1451.87120	         8.57678e+57
          1452.67750	         8.02408e+57
          1453.48380	         1.00046e+58
          1454.29010	         8.87113e+57
          1455.09640	         7.53444e+57
          1455.90270	         9.12642e+57
          1456.70900	         8.59377e+57
          1457.51530	         8.82324e+57
          1458.32160	         1.18918e+58
          1459.12790	         1.25460e+58
          1459.93420	         1.11280e+58
          1460.74050	         9.06776e+57
          1461.54680	         7.79681e+57
          1462.35310	         6.60084e+57
          1463.15940	         9.13845e+57
          1463.96570	         1.13420e+58
          1464.77200	         1.15306e+58
          1465.57830	         1.14747e+58
          1466.38460	         1.02997e+58
          1467.19090	         9.63350e+57
          1467.99720	         8.93975e+57
          1468.80350	         1.07811e+58
          1469.60980	         1.06056e+58
          1470.41610	         1.09166e+58
          1471.22240	         9.34794e+57
          1472.02870	         9.93428e+57
          1472.83500	         1.09876e+58
          1473.64130	         9.76677e+57
          1474.44760	         1.03624e+58
          1475.25390	         9.48166e+57
          1476.06020	         8.25031e+57
          1476.86650	         9.79204e+57
          1477.67280	         9.05474e+57
          1478.47910	         6.24134e+57
          1479.28540	         6.58566e+57
          1480.09170	         9.21911e+57
          1480.89800	         9.87838e+57
          1481.70430	         8.71761e+57
          1482.51060	         7.40610e+57
          1483.31690	         7.10233e+57
          1484.12320	         8.40713e+57
          1484.92950	         8.45083e+57
          1485.73580	         8.37092e+57
          1486.54210	         8.57062e+57
          1487.34840	         9.01105e+57
          1488.15470	         8.60977e+57
          1488.96100	         8.52783e+57
          1489.76730	         8.70666e+57
