#sample_443_stacked_spectrum_rest_UV-bands_median_H-alpha_noDC.txt
#median Lum: 1.70239e+42
#Rest-frame wavelength (A) | Luminosity (erg/s/A)
#
          1110.00000	         0.00000e+00
          1110.80630	         3.52619e+59
          1111.61260	         1.19080e+59
          1112.41890	        -1.06124e+58
          1113.22520	         3.58800e+58
          1114.03150	        -1.97895e+59
          1114.83780	         4.59969e+58
          1115.64410	         1.50100e+59
          1116.45040	         6.80635e+58
          1117.25670	        -6.92807e+58
          1118.06300	         4.05274e+58
          1118.86930	        -1.22549e+59
          1119.67560	         2.11022e+58
          1120.48190	        -4.64108e+58
          1121.28820	        -1.43132e+59
          1122.09450	        -1.70120e+58
          1122.90080	         2.15101e+58
          1123.70710	         1.14145e+59
          1124.51340	         1.08879e+59
          1125.31970	         4.42974e+58
          1126.12600	         3.24276e+57
          1126.93230	        -9.15775e+57
          1127.73860	        -6.17129e+57
          1128.54490	         2.08083e+58
          1129.35120	         1.71162e+58
          1130.15750	        -5.03718e+58
          1130.96380	        -1.03339e+58
          1131.77010	         4.72144e+58
          1132.57640	         3.83201e+58
          1133.38270	         3.84228e+58
          1134.18900	         3.35079e+58
          1134.99530	         8.35636e+57
          1135.80160	         2.47097e+58
          1136.60790	         1.24082e+58
          1137.41420	        -6.78260e+57
          1138.22050	         4.57947e+58
          1139.02680	         3.38784e+58
          1139.83310	         2.58476e+58
          1140.63940	         4.79960e+58
          1141.44570	         1.47660e+58
          1142.25200	        -1.16559e+58
          1143.05830	         1.65515e+58
          1143.86460	         2.52594e+58
          1144.67090	         2.74516e+58
          1145.47720	         7.93961e+57
          1146.28350	         4.66126e+57
          1147.08980	         6.05700e+57
          1147.89610	         1.69074e+58
          1148.70240	         2.47028e+58
          1149.50870	         2.36605e+58
          1150.31500	         8.56802e+57
          1151.12130	         1.05602e+58
          1151.92760	         8.56835e+57
          1152.73390	         1.34107e+58
          1153.54020	         2.38983e+57
          1154.34650	         2.46260e+58
          1155.15280	         2.15002e+58
          1155.95910	         1.04766e+58
          1156.76540	        -7.80473e+57
          1157.57170	        -9.59183e+57
          1158.37800	         2.01359e+57
          1159.18430	         2.13656e+57
          1159.99060	         5.49322e+57
          1160.79690	        -7.12799e+56
          1161.60320	         1.29958e+58
          1162.40950	         1.72331e+58
          1163.21580	         1.55286e+58
          1164.02210	         1.41139e+58
          1164.82840	         1.16094e+58
          1165.63470	         1.83067e+58
          1166.44100	         1.70041e+58
          1167.24730	         1.44968e+58
          1168.05360	         8.49905e+57
          1168.85990	         6.06666e+57
          1169.66620	         7.29879e+57
          1170.47250	         8.74467e+57
          1171.27880	         1.00246e+58
          1172.08510	         1.69907e+58
          1172.89140	         1.39473e+58
          1173.69770	         6.42911e+57
          1174.50400	         9.62643e+57
          1175.31030	         1.84216e+58
          1176.11660	         1.72206e+58
          1176.92290	         1.37845e+58
          1177.72920	         8.36053e+57
          1178.53550	         7.02977e+57
          1179.34180	         6.52271e+57
          1180.14810	         7.07800e+57
          1180.95440	         6.38243e+57
          1181.76070	         4.21883e+57
          1182.56700	         5.78906e+57
          1183.37330	         4.53084e+57
          1184.17960	         8.72110e+57
          1184.98590	         1.05425e+58
          1185.79220	         1.17093e+58
          1186.59850	         1.28182e+58
          1187.40480	         1.17195e+58
          1188.21110	         1.28906e+58
          1189.01740	         7.66052e+57
          1189.82370	         7.93783e+57
          1190.63000	         8.22576e+57
          1191.43630	         1.56640e+58
          1192.24260	         9.41446e+57
          1193.04890	         9.91992e+57
          1193.85520	         1.11607e+58
          1194.66150	         5.34221e+57
          1195.46780	         6.74310e+57
          1196.27410	         1.34395e+58
          1197.08040	         6.99527e+57
          1197.88670	         1.08921e+58
          1198.69300	         1.41566e+58
          1199.49930	         1.43400e+58
          1200.30560	         1.16340e+58
          1201.11190	         1.38745e+58
          1201.91820	         1.46647e+58
          1202.72450	         8.94281e+57
          1203.53080	         8.92416e+57
          1204.33710	         3.63755e+57
          1205.14340	         5.43159e+57
          1205.94970	         5.31953e+57
          1206.75600	         5.57194e+57
          1207.56230	         4.77139e+57
          1208.36860	         8.27342e+57
          1209.17490	         4.84645e+57
          1209.98120	         7.99457e+57
          1210.78750	         1.54562e+58
          1211.59380	         1.62535e+58
          1212.40010	         1.78674e+58
          1213.20640	         2.08290e+58
          1214.01270	         2.08031e+58
          1214.81900	         2.78670e+58
          1215.62530	         4.77831e+58
          1216.43160	         9.22976e+58
          1217.23790	         1.54955e+59
          1218.04420	         1.19222e+59
          1218.85050	         9.00568e+58
          1219.65680	         6.22547e+58
          1220.46310	         3.51786e+58
          1221.26940	         2.19255e+58
          1222.07570	         1.27001e+58
          1222.88200	         1.34831e+58
          1223.68830	         1.33812e+58
          1224.49460	         7.79766e+57
          1225.30090	         5.31801e+57
          1226.10720	         7.63867e+57
          1226.91350	         8.43866e+57
          1227.71980	         1.17810e+58
          1228.52610	         1.19758e+58
          1229.33240	         9.66412e+57
          1230.13870	         1.07167e+58
          1230.94500	         9.38107e+57
          1231.75130	         5.28643e+57
          1232.55760	         7.47384e+57
          1233.36390	         5.73460e+57
          1234.17020	         8.66672e+57
          1234.97650	         9.20930e+57
          1235.78280	         7.90756e+57
          1236.58910	         1.02552e+58
          1237.39540	         9.96088e+57
          1238.20170	         9.22601e+57
          1239.00800	         1.11837e+58
          1239.81430	         1.47377e+58
          1240.62060	         1.10791e+58
          1241.42690	         9.88639e+57
          1242.23320	         1.25479e+58
          1243.03950	         8.34677e+57
          1243.84580	         7.83056e+57
          1244.65210	         1.10973e+58
          1245.45840	         1.00568e+58
          1246.26470	         8.32052e+57
          1247.07100	         5.51256e+57
          1247.87730	         6.98551e+57
          1248.68360	         3.67006e+57
          1249.48990	         5.59765e+57
          1250.29620	         8.18247e+57
          1251.10250	         6.36285e+57
          1251.90880	         3.83403e+57
          1252.71510	         4.93058e+57
          1253.52140	         7.60566e+57
          1254.32770	         1.01506e+58
          1255.13400	         1.35366e+58
          1255.94030	         1.22875e+58
          1256.74660	         9.85275e+57
          1257.55290	         7.95235e+57
          1258.35920	         8.65210e+57
          1259.16550	         7.88955e+57
          1259.97180	         6.55771e+57
          1260.77810	         1.03285e+58
          1261.58440	         1.31317e+58
          1262.39070	         1.08779e+58
          1263.19700	         1.08811e+58
          1264.00330	         1.15328e+58
          1264.80960	         1.26785e+58
          1265.61590	         1.47277e+58
          1266.42220	         1.22354e+58
          1267.22850	         1.03598e+58
          1268.03480	         1.34685e+58
          1268.84110	         1.30857e+58
          1269.64740	         1.24806e+58
          1270.45370	         1.27792e+58
          1271.26000	         1.12625e+58
          1272.06630	         1.42368e+58
          1272.87260	         1.49333e+58
          1273.67890	         1.25397e+58
          1274.48520	         1.17751e+58
          1275.29150	         1.32889e+58
          1276.09780	         1.23878e+58
          1276.90410	         1.38272e+58
          1277.71040	         1.16988e+58
          1278.51670	         1.08762e+58
          1279.32300	         1.20407e+58
          1280.12930	         1.20950e+58
          1280.93560	         1.14820e+58
          1281.74190	         1.20878e+58
          1282.54820	         1.29890e+58
          1283.35450	         8.63184e+57
          1284.16080	         9.72224e+57
          1284.96710	         1.36090e+58
          1285.77340	         1.24426e+58
          1286.57970	         9.44857e+57
          1287.38600	         1.39515e+58
          1288.19230	         1.97134e+58
          1288.99860	         1.55206e+58
          1289.80490	         1.00271e+58
          1290.61120	         1.25852e+58
          1291.41750	         1.44493e+58
          1292.22380	         1.19147e+58
          1293.03010	         1.09530e+58
          1293.83640	         1.18031e+58
          1294.64270	         9.18017e+57
          1295.44900	         6.05063e+57
          1296.25530	         7.50543e+57
          1297.06160	         1.04129e+58
          1297.86790	         1.07652e+58
          1298.67420	         9.26996e+57
          1299.48050	         8.56297e+57
          1300.28680	         9.67745e+57
          1301.09310	         8.08479e+57
          1301.89940	         4.49791e+57
          1302.70570	         6.00153e+57
          1303.51200	         7.87407e+57
          1304.31830	         9.08235e+57
          1305.12460	         1.06576e+58
          1305.93090	         1.27013e+58
          1306.73720	         1.38290e+58
          1307.54350	         1.55343e+58
          1308.34980	         1.56892e+58
          1309.15610	         1.44482e+58
          1309.96240	         1.44791e+58
          1310.76870	         1.28409e+58
          1311.57500	         1.19332e+58
          1312.38130	         1.24302e+58
          1313.18760	         1.28177e+58
          1313.99390	         1.51829e+58
          1314.80020	         1.64868e+58
          1315.60650	         1.54211e+58
          1316.41280	         1.46190e+58
          1317.21910	         1.29339e+58
          1318.02540	         1.40104e+58
          1318.83170	         1.33508e+58
          1319.63800	         1.21994e+58
          1320.44430	         1.27264e+58
          1321.25060	         1.21957e+58
          1322.05690	         1.30182e+58
          1322.86320	         1.29932e+58
          1323.66950	         1.11685e+58
          1324.47580	         9.62746e+57
          1325.28210	         9.85196e+57
          1326.08840	         1.10474e+58
          1326.89470	         1.25246e+58
          1327.70100	         1.14740e+58
          1328.50730	         9.08396e+57
          1329.31360	         8.74064e+57
          1330.11990	         8.37009e+57
          1330.92620	         9.07005e+57
          1331.73250	         1.07442e+58
          1332.53880	         1.01627e+58
          1333.34510	         9.27151e+57
          1334.15140	         1.04510e+58
          1334.95770	         1.19718e+58
          1335.76400	         1.27162e+58
          1336.57030	         1.15689e+58
          1337.37660	         1.00423e+58
          1338.18290	         1.01479e+58
          1338.98920	         1.04980e+58
          1339.79550	         1.11747e+58
          1340.60180	         1.18883e+58
          1341.40810	         1.34883e+58
          1342.21440	         1.20572e+58
          1343.02070	         1.16964e+58
          1343.82700	         1.29649e+58
          1344.63330	         1.14558e+58
          1345.43960	         1.20680e+58
          1346.24590	         1.05886e+58
          1347.05220	         1.23932e+58
          1347.85850	         1.34408e+58
          1348.66480	         1.32739e+58
          1349.47110	         1.30054e+58
          1350.27740	         1.09930e+58
          1351.08370	         1.02082e+58
          1351.89000	         1.23377e+58
          1352.69630	         1.27345e+58
          1353.50260	         1.02883e+58
          1354.30890	         1.05362e+58
          1355.11520	         1.10094e+58
          1355.92150	         1.10981e+58
          1356.72780	         1.07495e+58
          1357.53410	         1.12114e+58
          1358.34040	         1.14914e+58
          1359.14670	         9.96972e+57
          1359.95300	         1.13826e+58
          1360.75930	         1.22962e+58
          1361.56560	         1.20289e+58
          1362.37190	         1.19526e+58
          1363.17820	         1.08694e+58
          1363.98450	         1.00138e+58
          1364.79080	         1.23785e+58
          1365.59710	         1.32082e+58
          1366.40340	         1.21516e+58
          1367.20970	         1.19590e+58
          1368.01600	         1.11327e+58
          1368.82230	         1.10286e+58
          1369.62860	         1.05465e+58
          1370.43490	         1.08181e+58
          1371.24120	         1.11646e+58
          1372.04750	         8.83209e+57
          1372.85380	         1.05024e+58
          1373.66010	         1.13691e+58
          1374.46640	         1.08163e+58
          1375.27270	         1.13314e+58
          1376.07900	         1.02368e+58
          1376.88530	         9.87567e+57
          1377.69160	         9.89834e+57
          1378.49790	         7.89274e+57
          1379.30420	         6.57298e+57
          1380.11050	         8.31524e+57
          1380.91680	         9.08263e+57
          1381.72310	         8.07888e+57
          1382.52940	         7.89007e+57
          1383.33570	         7.46397e+57
          1384.14200	         9.62699e+57
          1384.94830	         1.08640e+58
          1385.75460	         1.04450e+58
          1386.56090	         1.18302e+58
          1387.36720	         1.25251e+58
          1388.17350	         1.19685e+58
          1388.97980	         1.05805e+58
          1389.78610	         9.65290e+57
          1390.59240	         9.38267e+57
          1391.39870	         7.41135e+57
          1392.20500	         8.46072e+57
          1393.01130	         7.24386e+57
          1393.81760	         6.16428e+57
          1394.62390	         7.56778e+57
          1395.43020	         6.97272e+57
          1396.23650	         6.46162e+57
          1397.04280	         7.02655e+57
          1397.84910	         7.95780e+57
          1398.65540	         1.02839e+58
          1399.46170	         1.14666e+58
          1400.26800	         8.88807e+57
          1401.07430	         6.48141e+57
          1401.88060	         7.90996e+57
          1402.68690	         9.40060e+57
          1403.49320	         9.49616e+57
          1404.29950	         8.88451e+57
          1405.10580	         1.04091e+58
          1405.91210	         1.17880e+58
          1406.71840	         1.05625e+58
          1407.52470	         1.02120e+58
          1408.33100	         1.06852e+58
          1409.13730	         1.10490e+58
          1409.94360	         1.21822e+58
          1410.74990	         1.14739e+58
          1411.55620	         9.47678e+57
          1412.36250	         9.46680e+57
          1413.16880	         9.13906e+57
          1413.97510	         8.03625e+57
          1414.78140	         8.09415e+57
          1415.58770	         9.76321e+57
          1416.39400	         9.70448e+57
          1417.20030	         9.17325e+57
          1418.00660	         8.96279e+57
          1418.81290	         8.40288e+57
          1419.61920	         8.76358e+57
          1420.42550	         1.12666e+58
          1421.23180	         1.28125e+58
          1422.03810	         1.12106e+58
          1422.84440	         1.06692e+58
          1423.65070	         1.24836e+58
          1424.45700	         1.22029e+58
          1425.26330	         9.68426e+57
          1426.06960	         9.42443e+57
          1426.87590	         1.03569e+58
          1427.68220	         9.81063e+57
          1428.48850	         1.13765e+58
          1429.29480	         1.14967e+58
          1430.10110	         1.07526e+58
          1430.90740	         9.53118e+57
          1431.71370	         9.04391e+57
          1432.52000	         9.28926e+57
          1433.32630	         8.78556e+57
          1434.13260	         8.10796e+57
          1434.93890	         8.51457e+57
          1435.74520	         9.20788e+57
          1436.55150	         8.90126e+57
          1437.35780	         8.48280e+57
          1438.16410	         8.75354e+57
          1438.97040	         9.29057e+57
          1439.77670	         9.33775e+57
          1440.58300	         9.00244e+57
          1441.38930	         9.49165e+57
          1442.19560	         9.87108e+57
          1443.00190	         1.09458e+58
          1443.80820	         1.07856e+58
          1444.61450	         8.10116e+57
          1445.42080	         8.69658e+57
          1446.22710	         1.10720e+58
          1447.03340	         1.08799e+58
          1447.83970	         1.07524e+58
          1448.64600	         1.04433e+58
          1449.45230	         1.04275e+58
          1450.25860	         1.00488e+58
          1451.06490	         9.44607e+57
          1451.87120	         7.57802e+57
          1452.67750	         7.23515e+57
          1453.48380	         8.74767e+57
          1454.29010	         8.14288e+57
          1455.09640	         7.47316e+57
          1455.90270	         8.82305e+57
          1456.70900	         9.35203e+57
          1457.51530	         1.03123e+58
          1458.32160	         1.32976e+58
          1459.12790	         1.30309e+58
          1459.93420	         1.09328e+58
          1460.74050	         9.59675e+57
          1461.54680	         9.33311e+57
          1462.35310	         7.60320e+57
          1463.15940	         8.83323e+57
          1463.96570	         1.04772e+58
          1464.77200	         1.14352e+58
          1465.57830	         1.05055e+58
          1466.38460	         9.22471e+57
          1467.19090	         8.04807e+57
          1467.99720	         8.95805e+57
          1468.80350	         9.92676e+57
          1469.60980	         1.04832e+58
          1470.41610	         1.10687e+58
          1471.22240	         9.45238e+57
          1472.02870	         9.00758e+57
          1472.83500	         9.17991e+57
          1473.64130	         8.84799e+57
          1474.44760	         8.94223e+57
          1475.25390	         9.55316e+57
          1476.06020	         8.48078e+57
          1476.86650	         8.60250e+57
          1477.67280	         8.18337e+57
          1478.47910	         7.63852e+57
          1479.28540	         7.94911e+57
          1480.09170	         8.85346e+57
          1480.89800	         8.65483e+57
          1481.70430	         8.98093e+57
          1482.51060	         9.20953e+57
          1483.31690	         7.64707e+57
          1484.12320	         6.92558e+57
          1484.92950	         6.83632e+57
          1485.73580	         7.05480e+57
          1486.54210	         8.09816e+57
          1487.34840	         8.99544e+57
          1488.15470	         7.63549e+57
          1488.96100	         7.68475e+57
          1489.76730	         8.43142e+57
