#sample_242_stacked_spectrum_rest_UV-bands_median_H-alpha_noDC.txt
#median Lum: 1.71728e+42
#Rest-frame wavelength (A) | Luminosity (erg/s/A)
#
          1110.00000	         0.00000e+00
          1110.80630	        -4.29179e+59
          1111.61260	        -1.80380e+57
          1112.41890	         1.56743e+59
          1113.22520	         1.71067e+59
          1114.03150	        -4.05185e+58
          1114.83780	         2.86194e+59
          1115.64410	         7.48815e+58
          1116.45040	         9.90994e+58
          1117.25670	        -1.24458e+59
          1118.06300	         1.53412e+59
          1118.86930	         7.69132e+58
          1119.67560	         2.00259e+57
          1120.48190	         1.76327e+57
          1121.28820	        -9.97706e+58
          1122.09450	        -1.79833e+58
          1122.90080	         1.13680e+58
          1123.70710	         9.20283e+58
          1124.51340	         1.00750e+59
          1125.31970	         5.96789e+56
          1126.12600	         5.16327e+57
          1126.93230	        -7.17645e+57
          1127.73860	        -7.19824e+58
          1128.54490	        -6.04764e+57
          1129.35120	         4.88745e+58
          1130.15750	         1.53950e+56
          1130.96380	        -1.65075e+58
          1131.77010	         8.90538e+58
          1132.57640	         4.45078e+58
          1133.38270	         1.78681e+57
          1134.18900	         8.30537e+57
          1134.99530	         4.46460e+58
          1135.80160	         4.17173e+58
          1136.60790	         2.67875e+58
          1137.41420	        -1.33171e+58
          1138.22050	         2.90129e+58
          1139.02680	         3.83706e+58
          1139.83310	         2.48480e+58
          1140.63940	         2.20382e+58
          1141.44570	        -1.07501e+58
          1142.25200	        -3.57477e+57
          1143.05830	         2.85408e+58
          1143.86460	         4.61350e+58
          1144.67090	         3.22971e+57
          1145.47720	         6.99555e+57
          1146.28350	        -2.51768e+57
          1147.08980	         1.15353e+58
          1147.89610	         1.70176e+58
          1148.70240	         2.13099e+58
          1149.50870	         2.09531e+58
          1150.31500	         1.58799e+58
          1151.12130	         2.49872e+57
          1151.92760	         5.48056e+57
          1152.73390	         1.24851e+58
          1153.54020	         1.19598e+58
          1154.34650	         2.69172e+58
          1155.15280	         2.12860e+58
          1155.95910	         1.26368e+58
          1156.76540	         1.01289e+58
          1157.57170	         1.06597e+57
          1158.37800	         7.58202e+57
          1159.18430	         4.85276e+57
          1159.99060	         2.17827e+57
          1160.79690	         1.15647e+58
          1161.60320	         1.33556e+58
          1162.40950	         1.08835e+58
          1163.21580	         1.85987e+58
          1164.02210	         1.14557e+58
          1164.82840	         1.24949e+58
          1165.63470	         1.73490e+58
          1166.44100	         2.56141e+58
          1167.24730	         2.66650e+58
          1168.05360	         1.50735e+58
          1168.85990	         7.36509e+57
          1169.66620	         8.75136e+57
          1170.47250	         7.52176e+57
          1171.27880	         4.92083e+57
          1172.08510	        -2.95244e+57
          1172.89140	         1.77069e+57
          1173.69770	         3.44870e+57
          1174.50400	         8.89693e+57
          1175.31030	         1.91180e+58
          1176.11660	         2.20390e+58
          1176.92290	         1.51228e+58
          1177.72920	         1.08518e+58
          1178.53550	         7.83643e+57
          1179.34180	        -1.30089e+57
          1180.14810	         7.78666e+57
          1180.95440	         1.09182e+58
          1181.76070	         8.21430e+57
          1182.56700	         7.60615e+57
          1183.37330	         7.15501e+57
          1184.17960	         1.59201e+58
          1184.98590	         1.31584e+58
          1185.79220	         7.26472e+57
          1186.59850	         1.35657e+58
          1187.40480	         1.18780e+58
          1188.21110	         2.14659e+58
          1189.01740	         1.25474e+58
          1189.82370	         1.41110e+58
          1190.63000	         1.48063e+58
          1191.43630	         2.00971e+58
          1192.24260	         1.44604e+58
          1193.04890	         9.44810e+57
          1193.85520	         1.37964e+58
          1194.66150	         7.53387e+57
          1195.46780	         9.42062e+57
          1196.27410	         1.43078e+58
          1197.08040	         1.31333e+58
          1197.88670	         1.11645e+58
          1198.69300	         1.47752e+58
          1199.49930	         1.58757e+58
          1200.30560	         1.47364e+58
          1201.11190	         1.22096e+58
          1201.91820	         1.46461e+58
          1202.72450	         1.36370e+58
          1203.53080	         1.63174e+58
          1204.33710	         7.98249e+57
          1205.14340	         9.42898e+57
          1205.94970	         6.35192e+57
          1206.75600	         6.55958e+57
          1207.56230	         7.06006e+57
          1208.36860	         7.63640e+57
          1209.17490	         5.42841e+57
          1209.98120	         1.30552e+58
          1210.78750	         6.14436e+57
          1211.59380	         9.28292e+57
          1212.40010	         1.38052e+58
          1213.20640	         2.11353e+58
          1214.01270	         2.14932e+58
          1214.81900	         2.52193e+58
          1215.62530	         4.44079e+58
          1216.43160	         8.97489e+58
          1217.23790	         1.51969e+59
          1218.04420	         1.12226e+59
          1218.85050	         8.37486e+58
          1219.65680	         5.74376e+58
          1220.46310	         2.90158e+58
          1221.26940	         1.86532e+58
          1222.07570	         1.60970e+58
          1222.88200	         1.37132e+58
          1223.68830	         9.91845e+57
          1224.49460	         7.87408e+57
          1225.30090	         8.37849e+57
          1226.10720	         7.73816e+57
          1226.91350	         6.11910e+57
          1227.71980	         8.08204e+57
          1228.52610	         1.20473e+58
          1229.33240	         9.56078e+57
          1230.13870	         9.58662e+57
          1230.94500	         8.28014e+57
          1231.75130	         8.03178e+57
          1232.55760	         1.05502e+58
          1233.36390	         1.05245e+58
          1234.17020	         8.23861e+57
          1234.97650	         7.10231e+57
          1235.78280	         7.29463e+57
          1236.58910	         9.27604e+57
          1237.39540	         1.05253e+58
          1238.20170	         1.05959e+58
          1239.00800	         1.32655e+58
          1239.81430	         1.58059e+58
          1240.62060	         1.04990e+58
          1241.42690	         8.31384e+57
          1242.23320	         1.17181e+58
          1243.03950	         7.27089e+57
          1243.84580	         7.78976e+57
          1244.65210	         9.39552e+57
          1245.45840	         9.13620e+57
          1246.26470	         9.50991e+57
          1247.07100	         7.54161e+57
          1247.87730	         5.65200e+57
          1248.68360	         7.30902e+57
          1249.48990	         6.93557e+57
          1250.29620	         7.86820e+57
          1251.10250	         7.39820e+57
          1251.90880	         4.66079e+57
          1252.71510	         2.43676e+57
          1253.52140	         2.68267e+57
          1254.32770	         8.23127e+57
          1255.13400	         1.27425e+58
          1255.94030	         1.18253e+58
          1256.74660	         9.36185e+57
          1257.55290	         1.19636e+58
          1258.35920	         1.09559e+58
          1259.16550	         7.02684e+57
          1259.97180	         5.86266e+57
          1260.77810	         9.90022e+57
          1261.58440	         1.33615e+58
          1262.39070	         9.84669e+57
          1263.19700	         7.74494e+57
          1264.00330	         9.78742e+57
          1264.80960	         1.29996e+58
          1265.61590	         1.38375e+58
          1266.42220	         1.28589e+58
          1267.22850	         9.98413e+57
          1268.03480	         1.26503e+58
          1268.84110	         1.40292e+58
          1269.64740	         1.35846e+58
          1270.45370	         1.30603e+58
          1271.26000	         1.07816e+58
          1272.06630	         1.12590e+58
          1272.87260	         1.25140e+58
          1273.67890	         1.18527e+58
          1274.48520	         1.21231e+58
          1275.29150	         1.31845e+58
          1276.09780	         1.19108e+58
          1276.90410	         1.51435e+58
          1277.71040	         1.51295e+58
          1278.51670	         1.36572e+58
          1279.32300	         1.43070e+58
          1280.12930	         1.23496e+58
          1280.93560	         9.45081e+57
          1281.74190	         1.10686e+58
          1282.54820	         1.28448e+58
          1283.35450	         1.06826e+58
          1284.16080	         1.07398e+58
          1284.96710	         1.36197e+58
          1285.77340	         1.14494e+58
          1286.57970	         9.58766e+57
          1287.38600	         1.40552e+58
          1288.19230	         1.71822e+58
          1288.99860	         1.49963e+58
          1289.80490	         1.14255e+58
          1290.61120	         1.33464e+58
          1291.41750	         1.43547e+58
          1292.22380	         1.24899e+58
          1293.03010	         1.19144e+58
          1293.83640	         1.13235e+58
          1294.64270	         8.46691e+57
          1295.44900	         5.76327e+57
          1296.25530	         6.33113e+57
          1297.06160	         7.99065e+57
          1297.86790	         1.13614e+58
          1298.67420	         1.23493e+58
          1299.48050	         1.05208e+58
          1300.28680	         1.11951e+58
          1301.09310	         7.46399e+57
          1301.89940	         5.01772e+57
          1302.70570	         7.73985e+57
          1303.51200	         8.31795e+57
          1304.31830	         9.41017e+57
          1305.12460	         1.08555e+58
          1305.93090	         1.11457e+58
          1306.73720	         1.16706e+58
          1307.54350	         1.35407e+58
          1308.34980	         1.35832e+58
          1309.15610	         1.38072e+58
          1309.96240	         1.49924e+58
          1310.76870	         1.39262e+58
          1311.57500	         1.04283e+58
          1312.38130	         9.21995e+57
          1313.18760	         1.19034e+58
          1313.99390	         1.63842e+58
          1314.80020	         1.70690e+58
          1315.60650	         1.63844e+58
          1316.41280	         1.46864e+58
          1317.21910	         1.10538e+58
          1318.02540	         1.05633e+58
          1318.83170	         1.17858e+58
          1319.63800	         1.21246e+58
          1320.44430	         1.16630e+58
          1321.25060	         1.08866e+58
          1322.05690	         1.12986e+58
          1322.86320	         1.14218e+58
          1323.66950	         1.12309e+58
          1324.47580	         1.10881e+58
          1325.28210	         1.12874e+58
          1326.08840	         1.18469e+58
          1326.89470	         1.30693e+58
          1327.70100	         1.05883e+58
          1328.50730	         6.86157e+57
          1329.31360	         7.65569e+57
          1330.11990	         8.97361e+57
          1330.92620	         1.00173e+58
          1331.73250	         1.21401e+58
          1332.53880	         1.05571e+58
          1333.34510	         9.00638e+57
          1334.15140	         8.84278e+57
          1334.95770	         9.22111e+57
          1335.76400	         1.09599e+58
          1336.57030	         1.04587e+58
          1337.37660	         9.58421e+57
          1338.18290	         1.14956e+58
          1338.98920	         1.23125e+58
          1339.79550	         1.08797e+58
          1340.60180	         1.16605e+58
          1341.40810	         1.23523e+58
          1342.21440	         1.14647e+58
          1343.02070	         1.15737e+58
          1343.82700	         1.26475e+58
          1344.63330	         1.21320e+58
          1345.43960	         1.16161e+58
          1346.24590	         1.02269e+58
          1347.05220	         1.21191e+58
          1347.85850	         1.06117e+58
          1348.66480	         9.87239e+57
          1349.47110	         1.10129e+58
          1350.27740	         1.09327e+58
          1351.08370	         1.15368e+58
          1351.89000	         1.04558e+58
          1352.69630	         1.05323e+58
          1353.50260	         1.16428e+58
          1354.30890	         1.21332e+58
          1355.11520	         1.21319e+58
          1355.92150	         1.15686e+58
          1356.72780	         1.10255e+58
          1357.53410	         1.07147e+58
          1358.34040	         1.02174e+58
          1359.14670	         1.00830e+58
          1359.95300	         1.06636e+58
          1360.75930	         1.14664e+58
          1361.56560	         1.15501e+58
          1362.37190	         1.07496e+58
          1363.17820	         1.08295e+58
          1363.98450	         1.13491e+58
          1364.79080	         1.35560e+58
          1365.59710	         1.37467e+58
          1366.40340	         1.17905e+58
          1367.20970	         1.10638e+58
          1368.01600	         1.09442e+58
          1368.82230	         9.11629e+57
          1369.62860	         8.58257e+57
          1370.43490	         8.13601e+57
          1371.24120	         7.69023e+57
          1372.04750	         6.65026e+57
          1372.85380	         9.37052e+57
          1373.66010	         9.86892e+57
          1374.46640	         9.23191e+57
          1375.27270	         1.07257e+58
          1376.07900	         9.75282e+57
          1376.88530	         9.08985e+57
          1377.69160	         9.80101e+57
          1378.49790	         8.74115e+57
          1379.30420	         9.01247e+57
          1380.11050	         1.01359e+58
          1380.91680	         7.87735e+57
          1381.72310	         6.96794e+57
          1382.52940	         7.91602e+57
          1383.33570	         7.94464e+57
          1384.14200	         9.45145e+57
          1384.94830	         1.15571e+58
          1385.75460	         1.06528e+58
          1386.56090	         1.22660e+58
          1387.36720	         1.18280e+58
          1388.17350	         1.26253e+58
          1388.97980	         1.10381e+58
          1389.78610	         9.88296e+57
          1390.59240	         8.85714e+57
          1391.39870	         7.19498e+57
          1392.20500	         7.17944e+57
          1393.01130	         7.57606e+57
          1393.81760	         7.47147e+57
          1394.62390	         7.08808e+57
          1395.43020	         5.94420e+57
          1396.23650	         5.63646e+57
          1397.04280	         7.34110e+57
          1397.84910	         9.39958e+57
          1398.65540	         9.06173e+57
          1399.46170	         9.61038e+57
          1400.26800	         8.74960e+57
          1401.07430	         7.75763e+57
          1401.88060	         7.77621e+57
          1402.68690	         8.67949e+57
          1403.49320	         9.06127e+57
          1404.29950	         8.33440e+57
          1405.10580	         8.77516e+57
          1405.91210	         1.06086e+58
          1406.71840	         1.12160e+58
          1407.52470	         1.03140e+58
          1408.33100	         9.22676e+57
          1409.13730	         1.12440e+58
          1409.94360	         1.17217e+58
          1410.74990	         1.06995e+58
          1411.55620	         1.04665e+58
          1412.36250	         9.77611e+57
          1413.16880	         9.28712e+57
          1413.97510	         8.97858e+57
          1414.78140	         8.21043e+57
          1415.58770	         1.03491e+58
          1416.39400	         1.03893e+58
          1417.20030	         1.05619e+58
          1418.00660	         1.08993e+58
          1418.81290	         9.99771e+57
          1419.61920	         9.26638e+57
          1420.42550	         1.26586e+58
          1421.23180	         1.43459e+58
          1422.03810	         1.31671e+58
          1422.84440	         1.14881e+58
          1423.65070	         1.21933e+58
          1424.45700	         1.19984e+58
          1425.26330	         9.89906e+57
          1426.06960	         9.60891e+57
          1426.87590	         1.04050e+58
          1427.68220	         1.01610e+58
          1428.48850	         1.10836e+58
          1429.29480	         1.08781e+58
          1430.10110	         9.25133e+57
          1430.90740	         8.37652e+57
          1431.71370	         9.09373e+57
          1432.52000	         8.84233e+57
          1433.32630	         7.73744e+57
          1434.13260	         7.61792e+57
          1434.93890	         7.28883e+57
          1435.74520	         8.21677e+57
          1436.55150	         9.13070e+57
          1437.35780	         8.61388e+57
          1438.16410	         8.51099e+57
          1438.97040	         8.81418e+57
          1439.77670	         9.91003e+57
          1440.58300	         9.59191e+57
          1441.38930	         8.67310e+57
          1442.19560	         9.74997e+57
          1443.00190	         9.90306e+57
          1443.80820	         1.09266e+58
          1444.61450	         9.89649e+57
          1445.42080	         9.04236e+57
          1446.22710	         9.73742e+57
          1447.03340	         9.74388e+57
          1447.83970	         1.00984e+58
          1448.64600	         9.78781e+57
          1449.45230	         9.94622e+57
          1450.25860	         9.94821e+57
          1451.06490	         8.20302e+57
          1451.87120	         7.45505e+57
          1452.67750	         6.46030e+57
          1453.48380	         7.94229e+57
          1454.29010	         7.80135e+57
          1455.09640	         7.09258e+57
          1455.90270	         8.87311e+57
          1456.70900	         9.56653e+57
          1457.51530	         1.12316e+58
          1458.32160	         1.16968e+58
          1459.12790	         1.11299e+58
          1459.93420	         8.61327e+57
          1460.74050	         6.57590e+57
          1461.54680	         7.93358e+57
          1462.35310	         8.56744e+57
          1463.15940	         8.49456e+57
          1463.96570	         9.60704e+57
          1464.77200	         1.23653e+58
          1465.57830	         1.12697e+58
          1466.38460	         9.19974e+57
          1467.19090	         7.95948e+57
          1467.99720	         9.35319e+57
          1468.80350	         9.69832e+57
          1469.60980	         8.97321e+57
          1470.41610	         9.43168e+57
          1471.22240	         9.19520e+57
          1472.02870	         9.38950e+57
          1472.83500	         8.99313e+57
          1473.64130	         9.34731e+57
          1474.44760	         9.15443e+57
          1475.25390	         8.23146e+57
          1476.06020	         8.29672e+57
          1476.86650	         9.01995e+57
          1477.67280	         8.62816e+57
          1478.47910	         7.73882e+57
          1479.28540	         8.02258e+57
          1480.09170	         9.36143e+57
          1480.89800	         8.31519e+57
          1481.70430	         7.21175e+57
          1482.51060	         7.53289e+57
          1483.31690	         7.65973e+57
          1484.12320	         6.48286e+57
          1484.92950	         6.82052e+57
          1485.73580	         8.19172e+57
          1486.54210	         9.00445e+57
          1487.34840	         9.88623e+57
          1488.15470	         8.97024e+57
          1488.96100	         8.60817e+57
          1489.76730	         9.17431e+57
