#sample_334_stacked_spectrum_rest_UV-bands_median_H-alpha_noDC.txt
#median Lum: 1.67882e+42
#Rest-frame wavelength (A) | Luminosity (erg/s/A)
#
          1110.00000	         0.00000e+00
          1110.80630	         1.94164e+59
          1111.61260	        -1.20691e+59
          1112.41890	         2.65220e+58
          1113.22520	        -5.63004e+58
          1114.03150	         5.22618e+57
          1114.83780	         4.89460e+59
          1115.64410	         1.93399e+59
          1116.45040	         6.17587e+58
          1117.25670	        -9.09074e+58
          1118.06300	         1.32722e+59
          1118.86930	        -8.95428e+58
          1119.67560	         1.09164e+59
          1120.48190	         8.10366e+58
          1121.28820	        -7.33603e+58
          1122.09450	        -2.18178e+58
          1122.90080	        -1.27507e+57
          1123.70710	         1.01929e+58
          1124.51340	         7.23853e+58
          1125.31970	         5.20206e+57
          1126.12600	         2.30577e+58
          1126.93230	        -6.84692e+58
          1127.73860	        -7.39980e+58
          1128.54490	        -2.19069e+58
          1129.35120	        -6.75281e+57
          1130.15750	         8.99178e+57
          1130.96380	        -4.09247e+58
          1131.77010	         3.71399e+58
          1132.57640	         3.88111e+58
          1133.38270	         3.83066e+58
          1134.18900	        -9.05707e+57
          1134.99530	         1.29243e+58
          1135.80160	         1.70076e+58
          1136.60790	         1.51986e+58
          1137.41420	        -1.87691e+57
          1138.22050	         1.34785e+58
          1139.02680	         2.26935e+58
          1139.83310	         1.28240e+58
          1140.63940	         1.62438e+58
          1141.44570	         1.35213e+58
          1142.25200	         1.36595e+58
          1143.05830	         1.30996e+58
          1143.86460	         2.11889e+58
          1144.67090	         3.01858e+57
          1145.47720	         1.30134e+58
          1146.28350	         2.10084e+58
          1147.08980	         7.18760e+57
          1147.89610	         2.05974e+58
          1148.70240	         1.63218e+58
          1149.50870	         1.56576e+58
          1150.31500	         1.73338e+58
          1151.12130	         1.38227e+58
          1151.92760	        -4.02598e+57
          1152.73390	         9.00977e+57
          1153.54020	         8.97656e+57
          1154.34650	         2.38394e+58
          1155.15280	         1.59820e+58
          1155.95910	         3.96232e+57
          1156.76540	         8.57746e+57
          1157.57170	        -3.81548e+56
          1158.37800	         2.26525e+57
          1159.18430	        -5.91172e+57
          1159.99060	         5.28933e+57
          1160.79690	         1.40205e+58
          1161.60320	         2.29115e+58
          1162.40950	         1.75237e+58
          1163.21580	         1.77113e+58
          1164.02210	         1.31476e+58
          1164.82840	         5.47517e+57
          1165.63470	         1.58150e+58
          1166.44100	         2.87779e+58
          1167.24730	         2.26589e+58
          1168.05360	         9.18277e+57
          1168.85990	         9.10639e+57
          1169.66620	         3.35597e+57
          1170.47250	         9.35961e+57
          1171.27880	         1.84574e+58
          1172.08510	         2.04112e+58
          1172.89140	         1.79865e+58
          1173.69770	         1.02533e+58
          1174.50400	         1.88834e+58
          1175.31030	         1.71202e+58
          1176.11660	         1.70484e+58
          1176.92290	         1.49133e+58
          1177.72920	         1.35928e+58
          1178.53550	         3.05483e+57
          1179.34180	         5.72951e+57
          1180.14810	         9.23874e+57
          1180.95440	         1.14186e+58
          1181.76070	         9.18830e+57
          1182.56700	         4.48205e+57
          1183.37330	         7.45204e+57
          1184.17960	         8.44405e+57
          1184.98590	         8.07191e+57
          1185.79220	         8.44620e+57
          1186.59850	         1.14203e+58
          1187.40480	         1.11331e+58
          1188.21110	         1.62181e+58
          1189.01740	         7.64253e+57
          1189.82370	         3.45538e+57
          1190.63000	         1.47278e+58
          1191.43630	         1.32115e+58
          1192.24260	         4.21126e+57
          1193.04890	         1.37522e+58
          1193.85520	         1.03902e+58
          1194.66150	         9.13944e+57
          1195.46780	         1.37263e+58
          1196.27410	         1.40247e+58
          1197.08040	         9.99223e+57
          1197.88670	         1.41538e+58
          1198.69300	         1.38713e+58
          1199.49930	         1.62051e+58
          1200.30560	         1.44980e+58
          1201.11190	         1.14210e+58
          1201.91820	         1.14781e+58
          1202.72450	         7.17453e+57
          1203.53080	         1.56524e+58
          1204.33710	         9.49571e+57
          1205.14340	         6.23911e+57
          1205.94970	         5.00551e+57
          1206.75600	         4.09331e+57
          1207.56230	         3.98448e+57
          1208.36860	         9.44355e+57
          1209.17490	         2.38733e+57
          1209.98120	         1.75448e+57
          1210.78750	         7.78643e+57
          1211.59380	         1.23693e+58
          1212.40010	         1.61499e+58
          1213.20640	         2.22951e+58
          1214.01270	         2.11019e+58
          1214.81900	         2.72499e+58
          1215.62530	         4.88370e+58
          1216.43160	         9.25289e+58
          1217.23790	         1.52884e+59
          1218.04420	         1.11565e+59
          1218.85050	         8.45966e+58
          1219.65680	         5.99448e+58
          1220.46310	         3.71863e+58
          1221.26940	         2.53478e+58
          1222.07570	         1.54298e+58
          1222.88200	         8.91937e+57
          1223.68830	         7.66408e+57
          1224.49460	         8.51517e+57
          1225.30090	         6.78830e+57
          1226.10720	         7.14308e+57
          1226.91350	         7.30364e+57
          1227.71980	         9.00310e+57
          1228.52610	         1.03890e+58
          1229.33240	         6.08417e+57
          1230.13870	         6.60326e+57
          1230.94500	         7.03635e+57
          1231.75130	         6.11735e+57
          1232.55760	         8.27370e+57
          1233.36390	         8.84619e+57
          1234.17020	         7.63626e+57
          1234.97650	         7.81023e+57
          1235.78280	         8.86151e+57
          1236.58910	         7.67191e+57
          1237.39540	         8.67470e+57
          1238.20170	         8.76565e+57
          1239.00800	         1.16323e+58
          1239.81430	         1.61622e+58
          1240.62060	         1.10931e+58
          1241.42690	         9.89882e+57
          1242.23320	         1.24704e+58
          1243.03950	         7.66585e+57
          1243.84580	         1.00779e+58
          1244.65210	         1.29714e+58
          1245.45840	         1.14613e+58
          1246.26470	         8.63293e+57
          1247.07100	         5.66648e+57
          1247.87730	         5.73160e+57
          1248.68360	         3.84114e+57
          1249.48990	         9.37114e+57
          1250.29620	         1.11087e+58
          1251.10250	         7.86696e+57
          1251.90880	         4.62317e+57
          1252.71510	         6.04664e+57
          1253.52140	         9.06627e+57
          1254.32770	         8.98766e+57
          1255.13400	         1.17647e+58
          1255.94030	         1.21799e+58
          1256.74660	         1.12943e+58
          1257.55290	         1.08229e+58
          1258.35920	         8.16525e+57
          1259.16550	         4.63595e+57
          1259.97180	         4.85782e+57
          1260.77810	         8.96134e+57
          1261.58440	         1.08984e+58
          1262.39070	         7.13590e+57
          1263.19700	         8.18127e+57
          1264.00330	         9.67317e+57
          1264.80960	         9.35054e+57
          1265.61590	         1.31697e+58
          1266.42220	         1.35340e+58
          1267.22850	         1.09928e+58
          1268.03480	         1.49630e+58
          1268.84110	         1.52515e+58
          1269.64740	         1.44867e+58
          1270.45370	         1.51283e+58
          1271.26000	         1.28301e+58
          1272.06630	         1.27500e+58
          1272.87260	         1.22831e+58
          1273.67890	         1.40861e+58
          1274.48520	         1.35854e+58
          1275.29150	         1.25127e+58
          1276.09780	         1.29694e+58
          1276.90410	         1.54184e+58
          1277.71040	         1.27267e+58
          1278.51670	         1.04424e+58
          1279.32300	         1.26135e+58
          1280.12930	         1.04943e+58
          1280.93560	         1.07524e+58
          1281.74190	         1.11633e+58
          1282.54820	         1.12803e+58
          1283.35450	         1.01561e+58
          1284.16080	         1.21339e+58
          1284.96710	         1.36967e+58
          1285.77340	         1.11925e+58
          1286.57970	         1.02463e+58
          1287.38600	         1.35445e+58
          1288.19230	         1.63687e+58
          1288.99860	         1.41042e+58
          1289.80490	         9.80590e+57
          1290.61120	         1.20086e+58
          1291.41750	         1.34122e+58
          1292.22380	         1.21605e+58
          1293.03010	         1.07254e+58
          1293.83640	         1.14236e+58
          1294.64270	         9.89903e+57
          1295.44900	         6.77684e+57
          1296.25530	         5.76311e+57
          1297.06160	         8.64833e+57
          1297.86790	         1.16568e+58
          1298.67420	         9.54107e+57
          1299.48050	         9.13336e+57
          1300.28680	         1.13996e+58
          1301.09310	         8.23526e+57
          1301.89940	         5.26489e+57
          1302.70570	         6.42476e+57
          1303.51200	         7.44452e+57
          1304.31830	         1.00272e+58
          1305.12460	         1.17295e+58
          1305.93090	         1.18754e+58
          1306.73720	         1.31360e+58
          1307.54350	         1.44422e+58
          1308.34980	         1.35111e+58
          1309.15610	         1.34170e+58
          1309.96240	         1.40949e+58
          1310.76870	         1.44015e+58
          1311.57500	         1.35671e+58
          1312.38130	         1.31408e+58
          1313.18760	         1.43170e+58
          1313.99390	         1.49055e+58
          1314.80020	         1.40375e+58
          1315.60650	         1.40553e+58
          1316.41280	         1.30290e+58
          1317.21910	         1.02550e+58
          1318.02540	         1.13126e+58
          1318.83170	         1.16862e+58
          1319.63800	         1.16789e+58
          1320.44430	         1.19679e+58
          1321.25060	         1.24573e+58
          1322.05690	         1.08329e+58
          1322.86320	         1.06768e+58
          1323.66950	         1.05665e+58
          1324.47580	         8.96875e+57
          1325.28210	         9.37404e+57
          1326.08840	         1.14406e+58
          1326.89470	         1.14846e+58
          1327.70100	         1.06737e+58
          1328.50730	         8.02638e+57
          1329.31360	         9.57974e+57
          1330.11990	         1.13817e+58
          1330.92620	         9.66787e+57
          1331.73250	         1.15423e+58
          1332.53880	         1.05713e+58
          1333.34510	         7.79931e+57
          1334.15140	         7.31364e+57
          1334.95770	         7.72013e+57
          1335.76400	         9.67193e+57
          1336.57030	         9.88450e+57
          1337.37660	         1.08175e+58
          1338.18290	         1.10238e+58
          1338.98920	         1.19300e+58
          1339.79550	         1.12713e+58
          1340.60180	         1.10711e+58
          1341.40810	         1.31471e+58
          1342.21440	         1.24549e+58
          1343.02070	         1.22884e+58
          1343.82700	         1.12867e+58
          1344.63330	         1.17246e+58
          1345.43960	         1.28485e+58
          1346.24590	         1.13783e+58
          1347.05220	         1.18454e+58
          1347.85850	         1.14005e+58
          1348.66480	         1.20573e+58
          1349.47110	         1.27221e+58
          1350.27740	         1.21471e+58
          1351.08370	         1.21171e+58
          1351.89000	         1.11076e+58
          1352.69630	         1.11952e+58
          1353.50260	         1.09281e+58
          1354.30890	         1.11200e+58
          1355.11520	         1.05281e+58
          1355.92150	         1.07467e+58
          1356.72780	         9.90320e+57
          1357.53410	         1.01286e+58
          1358.34040	         1.08978e+58
          1359.14670	         1.04389e+58
          1359.95300	         9.64604e+57
          1360.75930	         1.08823e+58
          1361.56560	         1.14062e+58
          1362.37190	         1.10007e+58
          1363.17820	         1.10196e+58
          1363.98450	         1.23792e+58
          1364.79080	         1.28462e+58
          1365.59710	         1.45880e+58
          1366.40340	         1.37451e+58
          1367.20970	         1.11527e+58
          1368.01600	         1.06247e+58
          1368.82230	         8.69497e+57
          1369.62860	         9.01106e+57
          1370.43490	         9.52704e+57
          1371.24120	         1.03157e+58
          1372.04750	         9.79013e+57
          1372.85380	         1.04635e+58
          1373.66010	         1.02121e+58
          1374.46640	         9.48320e+57
          1375.27270	         1.09569e+58
          1376.07900	         9.24059e+57
          1376.88530	         8.70997e+57
          1377.69160	         9.37793e+57
          1378.49790	         7.77392e+57
          1379.30420	         7.95671e+57
          1380.11050	         8.93740e+57
          1380.91680	         8.37601e+57
          1381.72310	         8.02219e+57
          1382.52940	         8.72157e+57
          1383.33570	         8.17124e+57
          1384.14200	         7.60551e+57
          1384.94830	         1.03931e+58
          1385.75460	         1.14508e+58
          1386.56090	         1.03977e+58
          1387.36720	         9.06151e+57
          1388.17350	         1.13437e+58
          1388.97980	         1.20970e+58
          1389.78610	         8.90069e+57
          1390.59240	         7.38172e+57
          1391.39870	         6.24572e+57
          1392.20500	         7.55100e+57
          1393.01130	         7.75707e+57
          1393.81760	         6.72262e+57
          1394.62390	         6.78113e+57
          1395.43020	         6.41121e+57
          1396.23650	         5.80021e+57
          1397.04280	         6.81093e+57
          1397.84910	         8.36833e+57
          1398.65540	         7.94574e+57
          1399.46170	         8.68282e+57
          1400.26800	         7.41422e+57
          1401.07430	         7.46943e+57
          1401.88060	         8.70108e+57
          1402.68690	         9.38194e+57
          1403.49320	         8.80787e+57
          1404.29950	         9.40441e+57
          1405.10580	         1.11237e+58
          1405.91210	         1.14415e+58
          1406.71840	         1.08515e+58
          1407.52470	         9.17196e+57
          1408.33100	         9.12964e+57
          1409.13730	         1.09416e+58
          1409.94360	         1.10604e+58
          1410.74990	         1.04773e+58
          1411.55620	         1.09150e+58
          1412.36250	         1.10276e+58
          1413.16880	         9.26682e+57
          1413.97510	         7.64211e+57
          1414.78140	         7.67813e+57
          1415.58770	         1.02664e+58
          1416.39400	         1.17730e+58
          1417.20030	         1.01297e+58
          1418.00660	         8.63831e+57
          1418.81290	         8.50742e+57
          1419.61920	         9.26764e+57
          1420.42550	         1.19915e+58
          1421.23180	         1.34361e+58
          1422.03810	         1.20950e+58
          1422.84440	         1.19912e+58
          1423.65070	         1.34870e+58
          1424.45700	         1.29536e+58
          1425.26330	         9.39548e+57
          1426.06960	         8.11004e+57
          1426.87590	         1.00198e+58
          1427.68220	         9.57659e+57
          1428.48850	         1.05042e+58
          1429.29480	         9.48065e+57
          1430.10110	         9.65530e+57
          1430.90740	         9.02908e+57
          1431.71370	         9.00443e+57
          1432.52000	         8.45200e+57
          1433.32630	         7.10351e+57
          1434.13260	         8.04481e+57
          1434.93890	         8.64302e+57
          1435.74520	         9.10763e+57
          1436.55150	         9.64864e+57
          1437.35780	         9.62623e+57
          1438.16410	         9.36642e+57
          1438.97040	         8.27426e+57
          1439.77670	         8.47000e+57
          1440.58300	         9.05197e+57
          1441.38930	         9.46882e+57
          1442.19560	         9.90417e+57
          1443.00190	         9.87113e+57
          1443.80820	         1.07716e+58
          1444.61450	         8.60806e+57
          1445.42080	         7.09720e+57
          1446.22710	         1.02025e+58
          1447.03340	         1.00941e+58
          1447.83970	         1.01390e+58
          1448.64600	         9.93870e+57
          1449.45230	         9.64661e+57
          1450.25860	         1.07488e+58
          1451.06490	         9.05426e+57
          1451.87120	         6.85513e+57
          1452.67750	         7.35339e+57
          1453.48380	         8.99722e+57
          1454.29010	         8.43011e+57
          1455.09640	         7.90096e+57
          1455.90270	         9.64186e+57
          1456.70900	         9.06927e+57
          1457.51530	         1.01665e+58
          1458.32160	         1.20900e+58
          1459.12790	         1.05330e+58
          1459.93420	         8.85659e+57
          1460.74050	         8.19268e+57
          1461.54680	         8.72120e+57
          1462.35310	         8.17534e+57
          1463.15940	         8.68948e+57
          1463.96570	         1.05693e+58
          1464.77200	         1.17247e+58
          1465.57830	         9.50123e+57
          1466.38460	         8.49669e+57
          1467.19090	         8.57548e+57
          1467.99720	         9.38493e+57
          1468.80350	         9.62617e+57
          1469.60980	         9.50244e+57
          1470.41610	         1.05401e+58
          1471.22240	         1.06956e+58
          1472.02870	         1.03059e+58
          1472.83500	         1.00456e+58
          1473.64130	         9.68433e+57
          1474.44760	         9.58381e+57
          1475.25390	         9.66513e+57
          1476.06020	         8.54211e+57
          1476.86650	         7.87170e+57
          1477.67280	         7.53441e+57
          1478.47910	         6.83797e+57
          1479.28540	         7.29386e+57
          1480.09170	         9.33255e+57
          1480.89800	         9.18656e+57
          1481.70430	         8.82991e+57
          1482.51060	         8.40668e+57
          1483.31690	         8.13683e+57
          1484.12320	         7.69480e+57
          1484.92950	         7.47772e+57
          1485.73580	         7.80831e+57
          1486.54210	         8.06635e+57
          1487.34840	         9.35761e+57
          1488.15470	         8.99119e+57
          1488.96100	         9.51488e+57
          1489.76730	         8.76239e+57
