#sample_94_stacked_spectrum_rest_UV-bands_median_H-alpha_noDC.txt
#median Lum: 1.67721e+42
#Rest-frame wavelength (A) | Luminosity (erg/s/A)
#
          1110.00000	         0.00000e+00
          1110.80630	         4.36912e+59
          1111.61260	         1.71088e+59
          1112.41890	         2.57906e+59
          1113.22520	         2.46323e+59
          1114.03150	        -1.12807e+59
          1114.83780	         1.61648e+59
          1115.64410	         7.31038e+58
          1116.45040	         1.35014e+59
          1117.25670	         9.59517e+57
          1118.06300	        -2.95412e+58
          1118.86930	        -5.20502e+57
          1119.67560	         1.35186e+59
          1120.48190	        -3.14206e+56
          1121.28820	        -7.77722e+58
          1122.09450	        -4.17868e+58
          1122.90080	         2.25181e+58
          1123.70710	         5.59371e+58
          1124.51340	         7.60162e+58
          1125.31970	        -2.33103e+58
          1126.12600	         1.60209e+58
          1126.93230	        -5.68800e+58
          1127.73860	        -7.22303e+58
          1128.54490	         2.78188e+57
          1129.35120	         4.43123e+58
          1130.15750	        -8.96788e+57
          1130.96380	        -3.37100e+58
          1131.77010	         7.48743e+57
          1132.57640	         1.47435e+58
          1133.38270	         1.74172e+58
          1134.18900	         9.96644e+57
          1134.99530	         7.88154e+57
          1135.80160	         8.72129e+57
          1136.60790	         1.29969e+58
          1137.41420	        -2.70140e+58
          1138.22050	         3.55954e+58
          1139.02680	         1.85129e+58
          1139.83310	         1.75572e+58
          1140.63940	         1.14879e+58
          1141.44570	        -4.59786e+57
          1142.25200	        -5.91659e+57
          1143.05830	         1.97462e+56
          1143.86460	         2.33673e+58
          1144.67090	         7.51395e+57
          1145.47720	         1.46323e+58
          1146.28350	         1.19786e+58
          1147.08980	         2.49459e+57
          1147.89610	         7.87093e+57
          1148.70240	         1.93951e+58
          1149.50870	         2.33026e+58
          1150.31500	         2.18429e+58
          1151.12130	         1.84802e+58
          1151.92760	         1.13986e+58
          1152.73390	         4.84992e+57
          1153.54020	         1.20674e+58
          1154.34650	         3.07581e+58
          1155.15280	         9.89394e+57
          1155.95910	         5.77257e+57
          1156.76540	         1.02784e+58
          1157.57170	         2.90119e+56
          1158.37800	         5.79689e+57
          1159.18430	         1.01025e+58
          1159.99060	         8.57879e+57
          1160.79690	         3.96726e+57
          1161.60320	         9.90329e+57
          1162.40950	         9.80689e+57
          1163.21580	         9.46278e+57
          1164.02210	         1.30985e+58
          1164.82840	         1.27002e+58
          1165.63470	         2.56245e+58
          1166.44100	         3.11156e+58
          1167.24730	         2.26813e+58
          1168.05360	         5.54399e+57
          1168.85990	         4.28887e+57
          1169.66620	         8.47597e+57
          1170.47250	         9.95483e+57
          1171.27880	         5.39785e+57
          1172.08510	         7.80643e+57
          1172.89140	         1.32352e+58
          1173.69770	         9.03611e+56
          1174.50400	         1.23302e+58
          1175.31030	         1.85891e+58
          1176.11660	         1.72600e+58
          1176.92290	         1.54709e+58
          1177.72920	         1.12116e+58
          1178.53550	         9.09574e+57
          1179.34180	         2.29517e+57
          1180.14810	         6.14614e+57
          1180.95440	         1.52555e+58
          1181.76070	         7.07404e+57
          1182.56700	         6.70553e+57
          1183.37330	         6.16993e+57
          1184.17960	         7.18368e+57
          1184.98590	         8.66932e+57
          1185.79220	         1.13856e+58
          1186.59850	         1.34708e+58
          1187.40480	         1.18711e+58
          1188.21110	         1.77934e+58
          1189.01740	         7.14062e+57
          1189.82370	         9.15273e+57
          1190.63000	         1.11975e+58
          1191.43630	         1.61614e+58
          1192.24260	         6.70805e+57
          1193.04890	         8.66222e+57
          1193.85520	         9.23053e+57
          1194.66150	         3.35032e+57
          1195.46780	         1.54002e+58
          1196.27410	         1.58648e+58
          1197.08040	         8.68741e+57
          1197.88670	         1.20645e+58
          1198.69300	         1.39964e+58
          1199.49930	         1.38090e+58
          1200.30560	         1.01008e+58
          1201.11190	         1.03941e+58
          1201.91820	         9.70541e+57
          1202.72450	         6.66933e+57
          1203.53080	         1.43515e+58
          1204.33710	         1.01981e+58
          1205.14340	         8.07351e+57
          1205.94970	         9.45614e+57
          1206.75600	         6.38094e+57
          1207.56230	         5.01134e+57
          1208.36860	         6.89388e+57
          1209.17490	         7.30208e+57
          1209.98120	         8.41622e+57
          1210.78750	         1.07884e+58
          1211.59380	         1.06499e+58
          1212.40010	         1.76325e+58
          1213.20640	         2.19432e+58
          1214.01270	         2.15627e+58
          1214.81900	         2.71587e+58
          1215.62530	         4.43109e+58
          1216.43160	         9.17173e+58
          1217.23790	         1.51676e+59
          1218.04420	         1.13742e+59
          1218.85050	         8.33822e+58
          1219.65680	         5.25840e+58
          1220.46310	         2.91692e+58
          1221.26940	         1.85824e+58
          1222.07570	         1.15262e+58
          1222.88200	         1.00285e+58
          1223.68830	         9.83790e+57
          1224.49460	         1.08135e+58
          1225.30090	         9.92825e+57
          1226.10720	         4.92885e+57
          1226.91350	         8.31897e+57
          1227.71980	         1.21297e+58
          1228.52610	         1.36190e+58
          1229.33240	         1.37082e+58
          1230.13870	         8.98499e+57
          1230.94500	         3.87183e+57
          1231.75130	         4.74472e+57
          1232.55760	         9.72520e+57
          1233.36390	         1.02981e+58
          1234.17020	         8.87028e+57
          1234.97650	         7.87513e+57
          1235.78280	         8.06522e+57
          1236.58910	         9.15217e+57
          1237.39540	         1.09384e+58
          1238.20170	         1.10370e+58
          1239.00800	         1.36752e+58
          1239.81430	         1.68140e+58
          1240.62060	         1.02366e+58
          1241.42690	         9.37027e+57
          1242.23320	         1.41015e+58
          1243.03950	         1.02004e+58
          1243.84580	         9.16056e+57
          1244.65210	         1.12471e+58
          1245.45840	         1.09727e+58
          1246.26470	         1.01079e+58
          1247.07100	         6.67292e+57
          1247.87730	         4.19120e+57
          1248.68360	         6.08494e+57
          1249.48990	         5.87657e+57
          1250.29620	         6.57372e+57
          1251.10250	         7.96024e+57
          1251.90880	         5.85123e+57
          1252.71510	         6.17433e+57
          1253.52140	         9.14664e+57
          1254.32770	         1.09206e+58
          1255.13400	         1.49631e+58
          1255.94030	         1.30770e+58
          1256.74660	         9.77462e+57
          1257.55290	         8.89974e+57
          1258.35920	         4.62766e+57
          1259.16550	         2.79119e+57
          1259.97180	         4.94665e+57
          1260.77810	         4.82200e+57
          1261.58440	         1.02915e+58
          1262.39070	         9.80183e+57
          1263.19700	         9.36599e+57
          1264.00330	         8.99037e+57
          1264.80960	         9.52588e+57
          1265.61590	         1.19419e+58
          1266.42220	         1.27073e+58
          1267.22850	         1.09705e+58
          1268.03480	         1.42953e+58
          1268.84110	         1.54642e+58
          1269.64740	         1.39735e+58
          1270.45370	         1.45448e+58
          1271.26000	         1.07463e+58
          1272.06630	         1.13328e+58
          1272.87260	         1.19559e+58
          1273.67890	         1.33153e+58
          1274.48520	         1.45769e+58
          1275.29150	         1.46719e+58
          1276.09780	         1.18781e+58
          1276.90410	         1.50937e+58
          1277.71040	         1.43932e+58
          1278.51670	         1.11830e+58
          1279.32300	         1.27570e+58
          1280.12930	         1.32175e+58
          1280.93560	         1.16866e+58
          1281.74190	         1.27326e+58
          1282.54820	         1.41577e+58
          1283.35450	         1.14155e+58
          1284.16080	         1.09697e+58
          1284.96710	         1.47104e+58
          1285.77340	         1.15241e+58
          1286.57970	         9.85380e+57
          1287.38600	         1.53818e+58
          1288.19230	         1.85110e+58
          1288.99860	         1.56690e+58
          1289.80490	         1.02287e+58
          1290.61120	         1.38309e+58
          1291.41750	         1.70877e+58
          1292.22380	         1.30820e+58
          1293.03010	         1.00139e+58
          1293.83640	         1.15370e+58
          1294.64270	         8.24344e+57
          1295.44900	         5.45014e+57
          1296.25530	         6.26352e+57
          1297.06160	         8.46238e+57
          1297.86790	         1.15051e+58
          1298.67420	         1.03987e+58
          1299.48050	         8.71942e+57
          1300.28680	         8.26637e+57
          1301.09310	         7.70629e+57
          1301.89940	         4.91789e+57
          1302.70570	         5.81509e+57
          1303.51200	         8.15376e+57
          1304.31830	         1.10012e+58
          1305.12460	         1.26684e+58
          1305.93090	         1.20163e+58
          1306.73720	         1.23348e+58
          1307.54350	         1.53130e+58
          1308.34980	         1.59213e+58
          1309.15610	         1.64770e+58
          1309.96240	         1.48553e+58
          1310.76870	         1.18690e+58
          1311.57500	         1.21533e+58
          1312.38130	         1.05528e+58
          1313.18760	         1.13637e+58
          1313.99390	         1.62587e+58
          1314.80020	         1.59088e+58
          1315.60650	         1.41967e+58
          1316.41280	         1.18178e+58
          1317.21910	         9.00352e+57
          1318.02540	         1.07114e+58
          1318.83170	         1.33713e+58
          1319.63800	         1.34246e+58
          1320.44430	         1.12081e+58
          1321.25060	         1.16164e+58
          1322.05690	         1.16547e+58
          1322.86320	         1.18894e+58
          1323.66950	         1.06932e+58
          1324.47580	         9.14742e+57
          1325.28210	         9.61844e+57
          1326.08840	         1.19737e+58
          1326.89470	         1.38728e+58
          1327.70100	         1.27888e+58
          1328.50730	         9.14893e+57
          1329.31360	         8.64399e+57
          1330.11990	         9.90327e+57
          1330.92620	         8.50694e+57
          1331.73250	         9.37742e+57
          1332.53880	         8.38374e+57
          1333.34510	         8.78859e+57
          1334.15140	         1.04546e+58
          1334.95770	         9.66063e+57
          1335.76400	         1.02154e+58
          1336.57030	         1.19079e+58
          1337.37660	         1.11121e+58
          1338.18290	         1.08865e+58
          1338.98920	         1.18836e+58
          1339.79550	         1.10238e+58
          1340.60180	         1.17400e+58
          1341.40810	         1.38626e+58
          1342.21440	         1.23691e+58
          1343.02070	         1.25464e+58
          1343.82700	         1.44506e+58
          1344.63330	         1.22741e+58
          1345.43960	         1.18128e+58
          1346.24590	         1.19009e+58
          1347.05220	         1.11480e+58
          1347.85850	         8.90715e+57
          1348.66480	         9.50978e+57
          1349.47110	         1.05095e+58
          1350.27740	         1.12863e+58
          1351.08370	         1.08376e+58
          1351.89000	         1.08836e+58
          1352.69630	         9.70795e+57
          1353.50260	         1.11560e+58
          1354.30890	         1.22117e+58
          1355.11520	         1.21674e+58
          1355.92150	         1.16676e+58
          1356.72780	         1.17099e+58
          1357.53410	         1.11021e+58
          1358.34040	         1.09910e+58
          1359.14670	         1.16587e+58
          1359.95300	         1.13899e+58
          1360.75930	         1.17670e+58
          1361.56560	         1.14274e+58
          1362.37190	         1.10670e+58
          1363.17820	         1.09168e+58
          1363.98450	         1.13630e+58
          1364.79080	         1.15073e+58
          1365.59710	         1.15226e+58
          1366.40340	         1.06364e+58
          1367.20970	         9.52572e+57
          1368.01600	         9.37136e+57
          1368.82230	         8.96609e+57
          1369.62860	         9.10913e+57
          1370.43490	         9.39888e+57
          1371.24120	         8.64696e+57
          1372.04750	         8.27890e+57
          1372.85380	         9.85495e+57
          1373.66010	         9.92712e+57
          1374.46640	         1.17732e+58
          1375.27270	         1.27318e+58
          1376.07900	         9.66517e+57
          1376.88530	         8.86530e+57
          1377.69160	         9.46431e+57
          1378.49790	         7.06290e+57
          1379.30420	         6.52952e+57
          1380.11050	         8.14895e+57
          1380.91680	         8.48008e+57
          1381.72310	         8.04063e+57
          1382.52940	         8.27051e+57
          1383.33570	         7.86389e+57
          1384.14200	         9.53621e+57
          1384.94830	         1.13235e+58
          1385.75460	         1.10723e+58
          1386.56090	         1.13767e+58
          1387.36720	         1.06135e+58
          1388.17350	         1.22768e+58
          1388.97980	         1.16217e+58
          1389.78610	         9.09093e+57
          1390.59240	         7.35000e+57
          1391.39870	         7.25274e+57
          1392.20500	         9.56522e+57
          1393.01130	         8.28302e+57
          1393.81760	         6.75971e+57
          1394.62390	         7.49460e+57
          1395.43020	         6.00703e+57
          1396.23650	         6.72364e+57
          1397.04280	         7.92733e+57
          1397.84910	         1.00517e+58
          1398.65540	         1.06775e+58
          1399.46170	         9.70127e+57
          1400.26800	         8.26064e+57
          1401.07430	         6.18674e+57
          1401.88060	         8.35439e+57
          1402.68690	         1.04087e+58
          1403.49320	         9.15464e+57
          1404.29950	         8.86548e+57
          1405.10580	         1.06614e+58
          1405.91210	         1.08438e+58
          1406.71840	         9.87939e+57
          1407.52470	         9.58730e+57
          1408.33100	         1.01225e+58
          1409.13730	         1.15013e+58
          1409.94360	         1.26360e+58
          1410.74990	         1.19768e+58
          1411.55620	         9.37022e+57
          1412.36250	         8.93155e+57
          1413.16880	         8.61296e+57
          1413.97510	         8.59101e+57
          1414.78140	         9.29574e+57
          1415.58770	         1.18233e+58
          1416.39400	         1.19754e+58
          1417.20030	         1.09060e+58
          1418.00660	         1.09040e+58
          1418.81290	         1.19331e+58
          1419.61920	         1.06569e+58
          1420.42550	         1.21145e+58
          1421.23180	         1.37484e+58
          1422.03810	         1.30237e+58
          1422.84440	         1.17913e+58
          1423.65070	         1.28896e+58
          1424.45700	         1.08942e+58
          1425.26330	         8.23730e+57
          1426.06960	         8.16816e+57
          1426.87590	         1.00411e+58
          1427.68220	         1.01572e+58
          1428.48850	         9.53663e+57
          1429.29480	         9.84518e+57
          1430.10110	         1.03009e+58
          1430.90740	         9.57270e+57
          1431.71370	         8.38510e+57
          1432.52000	         8.64159e+57
          1433.32630	         8.50268e+57
          1434.13260	         8.42182e+57
          1434.93890	         8.34227e+57
          1435.74520	         9.17404e+57
          1436.55150	         9.38108e+57
          1437.35780	         8.71958e+57
          1438.16410	         8.91502e+57
          1438.97040	         8.75085e+57
          1439.77670	         8.96366e+57
          1440.58300	         9.30102e+57
          1441.38930	         1.00859e+58
          1442.19560	         1.00225e+58
          1443.00190	         9.62465e+57
          1443.80820	         1.02874e+58
          1444.61450	         1.03023e+58
          1445.42080	         9.20218e+57
          1446.22710	         1.06923e+58
          1447.03340	         1.03518e+58
          1447.83970	         1.05209e+58
          1448.64600	         1.06172e+58
          1449.45230	         1.02892e+58
          1450.25860	         1.08274e+58
          1451.06490	         9.69395e+57
          1451.87120	         9.13787e+57
          1452.67750	         8.46212e+57
          1453.48380	         8.49377e+57
          1454.29010	         7.41093e+57
          1455.09640	         7.90536e+57
          1455.90270	         1.05096e+58
          1456.70900	         9.77292e+57
          1457.51530	         9.37438e+57
          1458.32160	         1.18921e+58
          1459.12790	         1.24868e+58
          1459.93420	         1.04912e+58
          1460.74050	         7.86402e+57
          1461.54680	         7.19850e+57
          1462.35310	         7.01185e+57
          1463.15940	         9.62886e+57
          1463.96570	         1.27086e+58
          1464.77200	         1.20342e+58
          1465.57830	         9.70396e+57
          1466.38460	         9.14593e+57
          1467.19090	         8.91896e+57
          1467.99720	         8.05763e+57
          1468.80350	         9.82721e+57
          1469.60980	         1.08461e+58
          1470.41610	         1.04339e+58
          1471.22240	         9.46826e+57
          1472.02870	         9.97027e+57
          1472.83500	         9.94597e+57
          1473.64130	         9.72502e+57
          1474.44760	         9.84844e+57
          1475.25390	         9.03420e+57
          1476.06020	         8.35080e+57
          1476.86650	         7.73940e+57
          1477.67280	         8.35738e+57
          1478.47910	         7.99362e+57
          1479.28540	         7.22309e+57
          1480.09170	         8.41588e+57
          1480.89800	         8.77172e+57
          1481.70430	         8.79205e+57
          1482.51060	         8.36185e+57
          1483.31690	         7.62442e+57
          1484.12320	         7.02829e+57
          1484.92950	         7.12981e+57
          1485.73580	         8.23957e+57
          1486.54210	         8.23655e+57
          1487.34840	         8.02673e+57
          1488.15470	         8.73354e+57
          1488.96100	         9.21365e+57
          1489.76730	         9.37670e+57
