#sample_204_stacked_spectrum_rest_UV-bands_median_H-alpha_noDC.txt
#median Lum: 1.70488e+42
#Rest-frame wavelength (A) | Luminosity (erg/s/A)
#
          1110.00000	         0.00000e+00
          1110.80630	         8.13793e+58
          1111.61260	        -1.72639e+58
          1112.41890	        -1.05440e+59
          1113.22520	        -1.90395e+59
          1114.03150	        -2.42367e+59
          1114.83780	         6.59645e+58
          1115.64410	         4.95908e+58
          1116.45040	         1.40960e+59
          1117.25670	        -2.68573e+58
          1118.06300	         1.29028e+59
          1118.86930	        -1.06654e+58
          1119.67560	         1.47681e+59
          1120.48190	        -1.91055e+58
          1121.28820	        -1.60562e+59
          1122.09450	         9.26730e+57
          1122.90080	         1.09456e+59
          1123.70710	         6.61661e+58
          1124.51340	         1.14913e+59
          1125.31970	        -6.98884e+58
          1126.12600	         1.82579e+58
          1126.93230	        -2.22276e+58
          1127.73860	        -1.76472e+58
          1128.54490	         2.02789e+58
          1129.35120	         6.04382e+58
          1130.15750	        -2.53786e+58
          1130.96380	        -2.56416e+58
          1131.77010	         2.04532e+58
          1132.57640	         3.46097e+58
          1133.38270	         3.39077e+58
          1134.18900	         2.03256e+58
          1134.99530	         1.32254e+58
          1135.80160	         1.24855e+58
          1136.60790	         4.01103e+57
          1137.41420	         3.42879e+57
          1138.22050	         1.05137e+58
          1139.02680	         2.39491e+58
          1139.83310	         1.16396e+58
          1140.63940	         8.01673e+57
          1141.44570	        -1.06609e+58
          1142.25200	         7.91941e+57
          1143.05830	         3.20036e+58
          1143.86460	         2.97655e+58
          1144.67090	         2.71682e+58
          1145.47720	         1.13365e+58
          1146.28350	         1.89112e+58
          1147.08980	         2.24939e+58
          1147.89610	         1.57028e+58
          1148.70240	         2.30033e+58
          1149.50870	         2.81557e+58
          1150.31500	         1.93134e+58
          1151.12130	         1.59799e+58
          1151.92760	         1.59362e+58
          1152.73390	        -3.80703e+57
          1153.54020	        -1.10889e+57
          1154.34650	         2.48511e+58
          1155.15280	         1.90573e+58
          1155.95910	         1.08794e+58
          1156.76540	         7.92009e+57
          1157.57170	        -4.05245e+57
          1158.37800	         7.24383e+56
          1159.18430	         4.06017e+56
          1159.99060	         2.33726e+56
          1160.79690	         1.34543e+58
          1161.60320	         2.20847e+58
          1162.40950	         1.96213e+58
          1163.21580	         1.86217e+58
          1164.02210	         5.42037e+57
          1164.82840	        -6.35608e+57
          1165.63470	         5.92561e+57
          1166.44100	         2.14537e+58
          1167.24730	         2.07601e+58
          1168.05360	         5.64849e+57
          1168.85990	         7.36351e+57
          1169.66620	         1.12132e+58
          1170.47250	         1.29395e+58
          1171.27880	         1.77912e+58
          1172.08510	         2.30700e+58
          1172.89140	         2.03257e+58
          1173.69770	         1.04321e+58
          1174.50400	         2.11242e+58
          1175.31030	         2.31403e+58
          1176.11660	         2.02927e+58
          1176.92290	         1.31116e+58
          1177.72920	         6.51808e+57
          1178.53550	         9.00337e+57
          1179.34180	         2.28927e+57
          1180.14810	         4.76080e+57
          1180.95440	         7.33978e+57
          1181.76070	         5.79554e+57
          1182.56700	         6.27415e+57
          1183.37330	         8.31546e+57
          1184.17960	         1.41582e+58
          1184.98590	         1.41815e+58
          1185.79220	         1.16780e+58
          1186.59850	         1.02966e+58
          1187.40480	         3.24971e+57
          1188.21110	         1.05352e+58
          1189.01740	         1.22722e+58
          1189.82370	         1.02473e+58
          1190.63000	         1.10586e+58
          1191.43630	         1.00976e+58
          1192.24260	         6.59484e+57
          1193.04890	         9.50704e+57
          1193.85520	         6.57818e+57
          1194.66150	         2.98026e+57
          1195.46780	         5.39051e+57
          1196.27410	         1.15871e+58
          1197.08040	         1.03418e+58
          1197.88670	         1.00047e+58
          1198.69300	         1.22783e+58
          1199.49930	         1.34267e+58
          1200.30560	         1.14290e+58
          1201.11190	         8.39572e+57
          1201.91820	         8.18510e+57
          1202.72450	         1.83473e+57
          1203.53080	         1.22866e+58
          1204.33710	         1.09927e+58
          1205.14340	         7.42362e+57
          1205.94970	         5.87977e+57
          1206.75600	         4.76195e+57
          1207.56230	         4.13667e+57
          1208.36860	         6.98791e+57
          1209.17490	         4.54208e+57
          1209.98120	         6.75803e+57
          1210.78750	         8.81174e+57
          1211.59380	         1.09265e+58
          1212.40010	         1.74435e+58
          1213.20640	         1.84341e+58
          1214.01270	         1.93361e+58
          1214.81900	         2.51492e+58
          1215.62530	         4.34665e+58
          1216.43160	         8.85235e+58
          1217.23790	         1.50412e+59
          1218.04420	         1.12378e+59
          1218.85050	         8.88051e+58
          1219.65680	         5.98298e+58
          1220.46310	         3.23930e+58
          1221.26940	         1.95187e+58
          1222.07570	         9.38964e+57
          1222.88200	         8.97842e+57
          1223.68830	         1.04122e+58
          1224.49460	         8.94241e+57
          1225.30090	         4.65359e+57
          1226.10720	         6.58207e+57
          1226.91350	         7.84900e+57
          1227.71980	         7.02822e+57
          1228.52610	         8.41164e+57
          1229.33240	         7.80501e+57
          1230.13870	         8.04134e+57
          1230.94500	         5.06230e+57
          1231.75130	         7.32522e+57
          1232.55760	         1.07355e+58
          1233.36390	         7.98629e+57
          1234.17020	         1.00165e+58
          1234.97650	         8.45861e+57
          1235.78280	         7.37213e+57
          1236.58910	         7.00755e+57
          1237.39540	         1.05059e+58
          1238.20170	         1.30002e+58
          1239.00800	         1.45444e+58
          1239.81430	         1.72405e+58
          1240.62060	         1.33026e+58
          1241.42690	         9.58146e+57
          1242.23320	         9.32260e+57
          1243.03950	         6.53146e+57
          1243.84580	         8.44842e+57
          1244.65210	         8.74342e+57
          1245.45840	         7.33990e+57
          1246.26470	         9.15528e+57
          1247.07100	         8.27515e+57
          1247.87730	         7.74387e+57
          1248.68360	         5.90820e+57
          1249.48990	         5.98006e+57
          1250.29620	         7.85114e+57
          1251.10250	         6.64282e+57
          1251.90880	         4.78613e+57
          1252.71510	         6.62643e+57
          1253.52140	         7.42781e+57
          1254.32770	         9.52680e+57
          1255.13400	         1.46834e+58
          1255.94030	         1.43739e+58
          1256.74660	         1.22908e+58
          1257.55290	         1.13254e+58
          1258.35920	         9.77853e+57
          1259.16550	         5.14854e+57
          1259.97180	         5.14297e+57
          1260.77810	         8.91999e+57
          1261.58440	         1.11904e+58
          1262.39070	         7.46245e+57
          1263.19700	         6.84713e+57
          1264.00330	         8.74429e+57
          1264.80960	         1.08840e+58
          1265.61590	         1.19441e+58
          1266.42220	         1.19799e+58
          1267.22850	         9.48118e+57
          1268.03480	         1.31290e+58
          1268.84110	         1.43124e+58
          1269.64740	         1.26418e+58
          1270.45370	         1.56413e+58
          1271.26000	         1.54203e+58
          1272.06630	         1.40129e+58
          1272.87260	         1.19624e+58
          1273.67890	         1.19264e+58
          1274.48520	         1.19463e+58
          1275.29150	         1.17171e+58
          1276.09780	         1.12205e+58
          1276.90410	         1.54096e+58
          1277.71040	         1.19479e+58
          1278.51670	         9.32101e+57
          1279.32300	         1.27490e+58
          1280.12930	         1.29687e+58
          1280.93560	         1.14549e+58
          1281.74190	         1.13806e+58
          1282.54820	         1.41636e+58
          1283.35450	         1.26852e+58
          1284.16080	         1.16638e+58
          1284.96710	         1.57850e+58
          1285.77340	         1.29403e+58
          1286.57970	         1.09503e+58
          1287.38600	         1.38658e+58
          1288.19230	         1.87504e+58
          1288.99860	         1.63896e+58
          1289.80490	         1.25690e+58
          1290.61120	         1.45149e+58
          1291.41750	         1.37911e+58
          1292.22380	         9.14086e+57
          1293.03010	         8.23610e+57
          1293.83640	         1.10874e+58
          1294.64270	         1.40092e+58
          1295.44900	         1.04940e+58
          1296.25530	         6.11557e+57
          1297.06160	         7.60718e+57
          1297.86790	         1.06022e+58
          1298.67420	         9.32498e+57
          1299.48050	         8.44035e+57
          1300.28680	         1.00882e+58
          1301.09310	         7.95987e+57
          1301.89940	         4.37997e+57
          1302.70570	         5.48651e+57
          1303.51200	         8.11257e+57
          1304.31830	         1.07656e+58
          1305.12460	         1.21263e+58
          1305.93090	         1.20442e+58
          1306.73720	         1.27552e+58
          1307.54350	         1.34854e+58
          1308.34980	         1.52512e+58
          1309.15610	         1.71910e+58
          1309.96240	         1.49000e+58
          1310.76870	         1.24603e+58
          1311.57500	         1.21770e+58
          1312.38130	         1.31720e+58
          1313.18760	         1.56540e+58
          1313.99390	         1.76558e+58
          1314.80020	         1.60422e+58
          1315.60650	         1.56793e+58
          1316.41280	         1.19734e+58
          1317.21910	         1.06398e+58
          1318.02540	         1.27062e+58
          1318.83170	         1.30306e+58
          1319.63800	         1.12657e+58
          1320.44430	         9.51067e+57
          1321.25060	         1.14436e+58
          1322.05690	         1.18416e+58
          1322.86320	         1.23424e+58
          1323.66950	         1.18540e+58
          1324.47580	         8.60338e+57
          1325.28210	         1.04170e+58
          1326.08840	         1.24777e+58
          1326.89470	         1.23560e+58
          1327.70100	         1.00383e+58
          1328.50730	         8.69722e+57
          1329.31360	         9.32992e+57
          1330.11990	         9.89571e+57
          1330.92620	         9.41223e+57
          1331.73250	         1.08291e+58
          1332.53880	         1.07983e+58
          1333.34510	         9.18737e+57
          1334.15140	         9.68717e+57
          1334.95770	         1.04992e+58
          1335.76400	         1.05808e+58
          1336.57030	         9.27528e+57
          1337.37660	         9.53004e+57
          1338.18290	         1.06603e+58
          1338.98920	         1.13472e+58
          1339.79550	         1.12095e+58
          1340.60180	         1.18307e+58
          1341.40810	         1.21058e+58
          1342.21440	         1.14250e+58
          1343.02070	         1.28545e+58
          1343.82700	         1.35893e+58
          1344.63330	         1.33043e+58
          1345.43960	         1.38804e+58
          1346.24590	         1.31401e+58
          1347.05220	         1.20572e+58
          1347.85850	         1.07268e+58
          1348.66480	         1.07007e+58
          1349.47110	         1.25617e+58
          1350.27740	         1.26602e+58
          1351.08370	         1.23415e+58
          1351.89000	         1.11994e+58
          1352.69630	         1.14963e+58
          1353.50260	         1.21075e+58
          1354.30890	         1.33346e+58
          1355.11520	         1.19117e+58
          1355.92150	         1.08405e+58
          1356.72780	         1.07946e+58
          1357.53410	         1.02361e+58
          1358.34040	         1.04392e+58
          1359.14670	         1.00710e+58
          1359.95300	         1.11491e+58
          1360.75930	         1.16716e+58
          1361.56560	         1.06125e+58
          1362.37190	         1.21890e+58
          1363.17820	         1.23183e+58
          1363.98450	         1.16095e+58
          1364.79080	         1.20196e+58
          1365.59710	         1.23238e+58
          1366.40340	         1.14192e+58
          1367.20970	         1.01259e+58
          1368.01600	         1.13722e+58
          1368.82230	         1.07690e+58
          1369.62860	         1.06826e+58
          1370.43490	         1.00462e+58
          1371.24120	         9.51803e+57
          1372.04750	         1.00855e+58
          1372.85380	         1.14742e+58
          1373.66010	         1.09872e+58
          1374.46640	         1.00636e+58
          1375.27270	         9.73207e+57
          1376.07900	         8.74944e+57
          1376.88530	         7.44654e+57
          1377.69160	         7.22769e+57
          1378.49790	         7.62943e+57
          1379.30420	         7.85709e+57
          1380.11050	         9.37403e+57
          1380.91680	         8.00786e+57
          1381.72310	         7.78088e+57
          1382.52940	         9.18767e+57
          1383.33570	         9.87808e+57
          1384.14200	         9.68403e+57
          1384.94830	         9.98190e+57
          1385.75460	         1.10230e+58
          1386.56090	         1.09756e+58
          1387.36720	         1.06253e+58
          1388.17350	         1.10249e+58
          1388.97980	         1.00884e+58
          1389.78610	         9.67845e+57
          1390.59240	         8.76003e+57
          1391.39870	         7.61519e+57
          1392.20500	         7.84825e+57
          1393.01130	         7.43566e+57
          1393.81760	         8.63392e+57
          1394.62390	         8.50489e+57
          1395.43020	         7.27416e+57
          1396.23650	         7.76771e+57
          1397.04280	         6.84711e+57
          1397.84910	         8.12807e+57
          1398.65540	         9.20545e+57
          1399.46170	         9.71514e+57
          1400.26800	         8.85118e+57
          1401.07430	         7.70846e+57
          1401.88060	         7.64327e+57
          1402.68690	         1.00436e+58
          1403.49320	         1.04788e+58
          1404.29950	         9.26387e+57
          1405.10580	         1.07869e+58
          1405.91210	         1.16983e+58
          1406.71840	         1.12577e+58
          1407.52470	         1.05355e+58
          1408.33100	         9.14727e+57
          1409.13730	         1.09577e+58
          1409.94360	         1.19703e+58
          1410.74990	         1.09234e+58
          1411.55620	         9.73507e+57
          1412.36250	         8.34181e+57
          1413.16880	         8.17093e+57
          1413.97510	         8.09854e+57
          1414.78140	         8.09390e+57
          1415.58770	         9.98209e+57
          1416.39400	         1.15352e+58
          1417.20030	         1.19845e+58
          1418.00660	         1.09052e+58
          1418.81290	         1.06138e+58
          1419.61920	         1.03475e+58
          1420.42550	         1.22920e+58
          1421.23180	         1.44495e+58
          1422.03810	         1.26268e+58
          1422.84440	         1.14649e+58
          1423.65070	         1.24186e+58
          1424.45700	         1.00044e+58
          1425.26330	         7.23212e+57
          1426.06960	         8.88322e+57
          1426.87590	         1.12152e+58
          1427.68220	         1.17791e+58
          1428.48850	         1.22927e+58
          1429.29480	         1.11152e+58
          1430.10110	         9.93436e+57
          1430.90740	         7.12904e+57
          1431.71370	         7.59926e+57
          1432.52000	         8.43071e+57
          1433.32630	         8.05206e+57
          1434.13260	         8.27069e+57
          1434.93890	         8.01916e+57
          1435.74520	         8.87154e+57
          1436.55150	         1.00311e+58
          1437.35780	         8.87504e+57
          1438.16410	         8.98356e+57
          1438.97040	         9.44480e+57
          1439.77670	         9.30641e+57
          1440.58300	         9.77320e+57
          1441.38930	         9.66178e+57
          1442.19560	         9.84944e+57
          1443.00190	         9.51930e+57
          1443.80820	         1.10003e+58
          1444.61450	         1.04568e+58
          1445.42080	         8.46058e+57
          1446.22710	         8.81098e+57
          1447.03340	         1.03555e+58
          1447.83970	         1.08569e+58
          1448.64600	         1.03019e+58
          1449.45230	         9.68314e+57
          1450.25860	         9.58452e+57
          1451.06490	         9.05823e+57
          1451.87120	         7.39544e+57
          1452.67750	         6.93382e+57
          1453.48380	         8.89791e+57
          1454.29010	         8.65116e+57
          1455.09640	         7.63849e+57
          1455.90270	         9.35434e+57
          1456.70900	         9.51085e+57
          1457.51530	         1.01216e+58
          1458.32160	         1.20434e+58
          1459.12790	         1.16919e+58
          1459.93420	         1.00478e+58
          1460.74050	         8.49783e+57
          1461.54680	         8.45403e+57
          1462.35310	         8.08809e+57
          1463.15940	         8.88748e+57
          1463.96570	         1.14702e+58
          1464.77200	         1.15984e+58
          1465.57830	         1.06677e+58
          1466.38460	         9.33500e+57
          1467.19090	         7.98525e+57
          1467.99720	         8.62493e+57
          1468.80350	         8.72101e+57
          1469.60980	         9.16692e+57
          1470.41610	         9.83847e+57
          1471.22240	         9.94453e+57
          1472.02870	         9.99503e+57
          1472.83500	         9.77822e+57
          1473.64130	         9.70479e+57
          1474.44760	         9.40753e+57
          1475.25390	         8.72327e+57
          1476.06020	         7.85177e+57
          1476.86650	         8.31823e+57
          1477.67280	         7.94411e+57
          1478.47910	         6.38351e+57
          1479.28540	         6.77502e+57
          1480.09170	         8.60697e+57
          1480.89800	         9.04507e+57
          1481.70430	         9.04700e+57
          1482.51060	         8.03279e+57
          1483.31690	         6.99495e+57
          1484.12320	         7.94695e+57
          1484.92950	         9.18058e+57
          1485.73580	         9.24509e+57
          1486.54210	         9.15397e+57
          1487.34840	         9.60525e+57
          1488.15470	         8.76021e+57
          1488.96100	         8.54161e+57
          1489.76730	         8.42562e+57
