#sample_317_stacked_spectrum_rest_UV-bands_median_H-alpha_noDC.txt
#median Lum: 1.70374e+42
#Rest-frame wavelength (A) | Luminosity (erg/s/A)
#
          1110.00000	         0.00000e+00
          1110.80630	        -1.06557e+59
          1111.61260	         2.29957e+59
          1112.41890	        -2.66368e+58
          1113.22520	        -1.26629e+59
          1114.03150	        -2.44248e+59
          1114.83780	         1.29256e+59
          1115.64410	        -4.68665e+58
          1116.45040	        -3.30303e+58
          1117.25670	         2.09394e+58
          1118.06300	        -8.15496e+56
          1118.86930	        -1.01335e+59
          1119.67560	         1.45184e+59
          1120.48190	         7.04001e+58
          1121.28820	        -8.55694e+58
          1122.09450	        -1.74458e+58
          1122.90080	        -1.56215e+58
          1123.70710	         4.53465e+58
          1124.51340	         7.44088e+58
          1125.31970	         2.84548e+58
          1126.12600	         6.11162e+58
          1126.93230	         9.24861e+56
          1127.73860	        -7.05670e+58
          1128.54490	        -5.43166e+58
          1129.35120	         2.78065e+58
          1130.15750	        -2.41207e+57
          1130.96380	        -6.62570e+57
          1131.77010	         1.15095e+58
          1132.57640	         6.88214e+57
          1133.38270	         2.75799e+58
          1134.18900	        -3.95620e+57
          1134.99530	         2.20108e+58
          1135.80160	         3.55836e+58
          1136.60790	         1.02054e+58
          1137.41420	         4.02375e+57
          1138.22050	         4.73330e+58
          1139.02680	         2.84594e+58
          1139.83310	         1.18941e+58
          1140.63940	         2.05722e+58
          1141.44570	        -8.56024e+57
          1142.25200	        -1.01923e+57
          1143.05830	         1.16154e+58
          1143.86460	         2.32860e+58
          1144.67090	         1.92022e+58
          1145.47720	         8.16775e+57
          1146.28350	         4.31707e+57
          1147.08980	         1.11174e+58
          1147.89610	         2.20248e+58
          1148.70240	         2.04057e+58
          1149.50870	         3.05560e+58
          1150.31500	         2.11955e+58
          1151.12130	         1.39601e+58
          1151.92760	         1.02731e+58
          1152.73390	         1.07819e+58
          1153.54020	         9.71726e+57
          1154.34650	         2.44042e+58
          1155.15280	         1.44258e+58
          1155.95910	         1.27432e+58
          1156.76540	         7.33992e+57
          1157.57170	        -1.98582e+57
          1158.37800	        -5.10200e+57
          1159.18430	        -3.18345e+57
          1159.99060	         4.76298e+57
          1160.79690	         2.58005e+57
          1161.60320	         1.13793e+58
          1162.40950	         2.13483e+58
          1163.21580	         1.72568e+58
          1164.02210	         1.40940e+58
          1164.82840	         1.02044e+58
          1165.63470	         1.83210e+58
          1166.44100	         2.56094e+58
          1167.24730	         2.28504e+58
          1168.05360	         7.61331e+57
          1168.85990	         2.57222e+57
          1169.66620	         1.53660e+58
          1170.47250	         1.98515e+58
          1171.27880	         1.75684e+58
          1172.08510	         2.15987e+58
          1172.89140	         1.48275e+58
          1173.69770	         8.23381e+57
          1174.50400	         8.47014e+57
          1175.31030	         1.92814e+58
          1176.11660	         2.03121e+58
          1176.92290	         1.76392e+58
          1177.72920	         1.55529e+58
          1178.53550	         6.78841e+57
          1179.34180	         4.44072e+57
          1180.14810	         6.25851e+57
          1180.95440	         1.08612e+58
          1181.76070	         8.34790e+57
          1182.56700	         7.17697e+57
          1183.37330	         7.02809e+57
          1184.17960	         9.17938e+57
          1184.98590	         7.04761e+57
          1185.79220	         8.45231e+57
          1186.59850	         1.37684e+58
          1187.40480	         1.57814e+58
          1188.21110	         1.29415e+58
          1189.01740	         1.22544e+58
          1189.82370	         1.35354e+58
          1190.63000	         1.75028e+58
          1191.43630	         1.74606e+58
          1192.24260	         1.00232e+58
          1193.04890	         8.77999e+57
          1193.85520	         8.20223e+57
          1194.66150	         6.55001e+57
          1195.46780	         1.02255e+58
          1196.27410	         1.32300e+58
          1197.08040	         1.26266e+58
          1197.88670	         1.55137e+58
          1198.69300	         1.58768e+58
          1199.49930	         1.74314e+58
          1200.30560	         1.27251e+58
          1201.11190	         8.34914e+57
          1201.91820	         1.06217e+58
          1202.72450	         6.93530e+57
          1203.53080	         1.41023e+58
          1204.33710	         8.90137e+57
          1205.14340	         8.68411e+57
          1205.94970	         4.86133e+57
          1206.75600	         6.72352e+57
          1207.56230	         6.77036e+57
          1208.36860	         8.04108e+57
          1209.17490	         3.22723e+57
          1209.98120	         6.04974e+57
          1210.78750	         7.75568e+57
          1211.59380	         1.25837e+58
          1212.40010	         1.99415e+58
          1213.20640	         2.11080e+58
          1214.01270	         2.01671e+58
          1214.81900	         2.56438e+58
          1215.62530	         4.68251e+58
          1216.43160	         9.30454e+58
          1217.23790	         1.52784e+59
          1218.04420	         1.15784e+59
          1218.85050	         8.70693e+58
          1219.65680	         5.66826e+58
          1220.46310	         3.34752e+58
          1221.26940	         2.35935e+58
          1222.07570	         1.34928e+58
          1222.88200	         1.00762e+58
          1223.68830	         9.50198e+57
          1224.49460	         6.15041e+57
          1225.30090	         4.43530e+57
          1226.10720	         6.99580e+57
          1226.91350	         7.20642e+57
          1227.71980	         8.50071e+57
          1228.52610	         1.27454e+58
          1229.33240	         8.85218e+57
          1230.13870	         9.21609e+57
          1230.94500	         8.60486e+57
          1231.75130	         8.67191e+57
          1232.55760	         8.81391e+57
          1233.36390	         9.61627e+57
          1234.17020	         7.63712e+57
          1234.97650	         6.10377e+57
          1235.78280	         5.59128e+57
          1236.58910	         8.57112e+57
          1237.39540	         1.07345e+58
          1238.20170	         9.76979e+57
          1239.00800	         1.28502e+58
          1239.81430	         1.33294e+58
          1240.62060	         8.84949e+57
          1241.42690	         9.86745e+57
          1242.23320	         1.16287e+58
          1243.03950	         9.54654e+57
          1243.84580	         9.99645e+57
          1244.65210	         1.15837e+58
          1245.45840	         1.18390e+58
          1246.26470	         9.55026e+57
          1247.07100	         8.29758e+57
          1247.87730	         7.53489e+57
          1248.68360	         2.92970e+57
          1249.48990	         9.02871e+57
          1250.29620	         1.05937e+58
          1251.10250	         7.38985e+57
          1251.90880	         5.98361e+57
          1252.71510	         6.49174e+57
          1253.52140	         6.94430e+57
          1254.32770	         7.90834e+57
          1255.13400	         1.11012e+58
          1255.94030	         1.16787e+58
          1256.74660	         1.13276e+58
          1257.55290	         1.28054e+58
          1258.35920	         8.22779e+57
          1259.16550	         5.19866e+57
          1259.97180	         5.10076e+57
          1260.77810	         7.33626e+57
          1261.58440	         8.68155e+57
          1262.39070	         7.79154e+57
          1263.19700	         7.86853e+57
          1264.00330	         9.90686e+57
          1264.80960	         1.03127e+58
          1265.61590	         1.19774e+58
          1266.42220	         1.38380e+58
          1267.22850	         1.28551e+58
          1268.03480	         1.48139e+58
          1268.84110	         1.57354e+58
          1269.64740	         1.33222e+58
          1270.45370	         1.19856e+58
          1271.26000	         9.79141e+57
          1272.06630	         9.77067e+57
          1272.87260	         1.23712e+58
          1273.67890	         1.35652e+58
          1274.48520	         1.15368e+58
          1275.29150	         1.25151e+58
          1276.09780	         1.25936e+58
          1276.90410	         1.40897e+58
          1277.71040	         1.57826e+58
          1278.51670	         1.37684e+58
          1279.32300	         1.37999e+58
          1280.12930	         1.36749e+58
          1280.93560	         1.18877e+58
          1281.74190	         1.12676e+58
          1282.54820	         1.34747e+58
          1283.35450	         1.31991e+58
          1284.16080	         1.27416e+58
          1284.96710	         1.32786e+58
          1285.77340	         1.08445e+58
          1286.57970	         9.09782e+57
          1287.38600	         1.23458e+58
          1288.19230	         1.82443e+58
          1288.99860	         1.59710e+58
          1289.80490	         1.16107e+58
          1290.61120	         1.46476e+58
          1291.41750	         1.41062e+58
          1292.22380	         1.17418e+58
          1293.03010	         1.21148e+58
          1293.83640	         1.17498e+58
          1294.64270	         1.07435e+58
          1295.44900	         7.95051e+57
          1296.25530	         8.50799e+57
          1297.06160	         1.03273e+58
          1297.86790	         1.03452e+58
          1298.67420	         1.03523e+58
          1299.48050	         1.25726e+58
          1300.28680	         1.26355e+58
          1301.09310	         8.10689e+57
          1301.89940	         3.64469e+57
          1302.70570	         5.62473e+57
          1303.51200	         5.94616e+57
          1304.31830	         8.12936e+57
          1305.12460	         9.99597e+57
          1305.93090	         1.08628e+58
          1306.73720	         1.27242e+58
          1307.54350	         1.45134e+58
          1308.34980	         1.47457e+58
          1309.15610	         1.62948e+58
          1309.96240	         1.72270e+58
          1310.76870	         1.60250e+58
          1311.57500	         1.47284e+58
          1312.38130	         1.34750e+58
          1313.18760	         1.32680e+58
          1313.99390	         1.71217e+58
          1314.80020	         1.66882e+58
          1315.60650	         1.41481e+58
          1316.41280	         1.23848e+58
          1317.21910	         9.87661e+57
          1318.02540	         1.04381e+58
          1318.83170	         1.20834e+58
          1319.63800	         1.21719e+58
          1320.44430	         1.11918e+58
          1321.25060	         1.20702e+58
          1322.05690	         1.38856e+58
          1322.86320	         1.22799e+58
          1323.66950	         1.06558e+58
          1324.47580	         9.64455e+57
          1325.28210	         1.00743e+58
          1326.08840	         1.13098e+58
          1326.89470	         1.13220e+58
          1327.70100	         9.88177e+57
          1328.50730	         8.69340e+57
          1329.31360	         9.34548e+57
          1330.11990	         1.01710e+58
          1330.92620	         1.02321e+58
          1331.73250	         1.13694e+58
          1332.53880	         9.77967e+57
          1333.34510	         8.39445e+57
          1334.15140	         9.06307e+57
          1334.95770	         8.54445e+57
          1335.76400	         9.41132e+57
          1336.57030	         1.01614e+58
          1337.37660	         1.02240e+58
          1338.18290	         1.13045e+58
          1338.98920	         1.19778e+58
          1339.79550	         1.13900e+58
          1340.60180	         1.14193e+58
          1341.40810	         1.34758e+58
          1342.21440	         1.23491e+58
          1343.02070	         1.13504e+58
          1343.82700	         1.34337e+58
          1344.63330	         1.40096e+58
          1345.43960	         1.26321e+58
          1346.24590	         1.08944e+58
          1347.05220	         1.28690e+58
          1347.85850	         1.20268e+58
          1348.66480	         1.28911e+58
          1349.47110	         1.12879e+58
          1350.27740	         1.11815e+58
          1351.08370	         1.21021e+58
          1351.89000	         1.10877e+58
          1352.69630	         1.03896e+58
          1353.50260	         1.05501e+58
          1354.30890	         1.16726e+58
          1355.11520	         1.15757e+58
          1355.92150	         1.04546e+58
          1356.72780	         1.11313e+58
          1357.53410	         1.09058e+58
          1358.34040	         1.09676e+58
          1359.14670	         1.18698e+58
          1359.95300	         1.14526e+58
          1360.75930	         1.11354e+58
          1361.56560	         1.12232e+58
          1362.37190	         1.12422e+58
          1363.17820	         1.02414e+58
          1363.98450	         1.17487e+58
          1364.79080	         1.31086e+58
          1365.59710	         1.33833e+58
          1366.40340	         1.24215e+58
          1367.20970	         9.27442e+57
          1368.01600	         8.93024e+57
          1368.82230	         9.89788e+57
          1369.62860	         1.21442e+58
          1370.43490	         1.03756e+58
          1371.24120	         8.73633e+57
          1372.04750	         9.20347e+57
          1372.85380	         1.17347e+58
          1373.66010	         1.07669e+58
          1374.46640	         9.07212e+57
          1375.27270	         9.50519e+57
          1376.07900	         9.67523e+57
          1376.88530	         8.41551e+57
          1377.69160	         8.77009e+57
          1378.49790	         7.22515e+57
          1379.30420	         7.53296e+57
          1380.11050	         9.41748e+57
          1380.91680	         7.91242e+57
          1381.72310	         7.44638e+57
          1382.52940	         8.24248e+57
          1383.33570	         8.72831e+57
          1384.14200	         9.65925e+57
          1384.94830	         1.02558e+58
          1385.75460	         1.14082e+58
          1386.56090	         1.10815e+58
          1387.36720	         1.14598e+58
          1388.17350	         1.44262e+58
          1388.97980	         1.18136e+58
          1389.78610	         9.47688e+57
          1390.59240	         8.82376e+57
          1391.39870	         7.12731e+57
          1392.20500	         7.08558e+57
          1393.01130	         7.80148e+57
          1393.81760	         7.80159e+57
          1394.62390	         7.34065e+57
          1395.43020	         6.07779e+57
          1396.23650	         5.95710e+57
          1397.04280	         7.00528e+57
          1397.84910	         8.25254e+57
          1398.65540	         9.42222e+57
          1399.46170	         1.01780e+58
          1400.26800	         8.30596e+57
          1401.07430	         7.69451e+57
          1401.88060	         8.59780e+57
          1402.68690	         9.89332e+57
          1403.49320	         1.02112e+58
          1404.29950	         9.45068e+57
          1405.10580	         1.00968e+58
          1405.91210	         1.18569e+58
          1406.71840	         1.06410e+58
          1407.52470	         8.83909e+57
          1408.33100	         9.54632e+57
          1409.13730	         1.12248e+58
          1409.94360	         1.22585e+58
          1410.74990	         1.21699e+58
          1411.55620	         1.07260e+58
          1412.36250	         1.00638e+58
          1413.16880	         9.83165e+57
          1413.97510	         8.33749e+57
          1414.78140	         9.44393e+57
          1415.58770	         1.10085e+58
          1416.39400	         9.40443e+57
          1417.20030	         8.98053e+57
          1418.00660	         9.50673e+57
          1418.81290	         9.44702e+57
          1419.61920	         9.63457e+57
          1420.42550	         1.14800e+58
          1421.23180	         1.34376e+58
          1422.03810	         1.19363e+58
          1422.84440	         1.18557e+58
          1423.65070	         1.42230e+58
          1424.45700	         1.28490e+58
          1425.26330	         8.38627e+57
          1426.06960	         9.26369e+57
          1426.87590	         9.74395e+57
          1427.68220	         9.13332e+57
          1428.48850	         1.02037e+58
          1429.29480	         1.02273e+58
          1430.10110	         9.98369e+57
          1430.90740	         8.93065e+57
          1431.71370	         8.99148e+57
          1432.52000	         8.84296e+57
          1433.32630	         8.30294e+57
          1434.13260	         7.83512e+57
          1434.93890	         8.68214e+57
          1435.74520	         9.16673e+57
          1436.55150	         9.16057e+57
          1437.35780	         9.10444e+57
          1438.16410	         8.68925e+57
          1438.97040	         8.06635e+57
          1439.77670	         8.63393e+57
          1440.58300	         8.31399e+57
          1441.38930	         8.71180e+57
          1442.19560	         9.76867e+57
          1443.00190	         9.53802e+57
          1443.80820	         1.15719e+58
          1444.61450	         1.09355e+58
          1445.42080	         8.97949e+57
          1446.22710	         1.11685e+58
          1447.03340	         1.06703e+58
          1447.83970	         1.01979e+58
          1448.64600	         1.11740e+58
          1449.45230	         1.10512e+58
          1450.25860	         1.04075e+58
          1451.06490	         8.81222e+57
          1451.87120	         7.21468e+57
          1452.67750	         7.20344e+57
          1453.48380	         8.21436e+57
          1454.29010	         8.18093e+57
          1455.09640	         7.88469e+57
          1455.90270	         8.89166e+57
          1456.70900	         9.01801e+57
          1457.51530	         1.00888e+58
          1458.32160	         1.21844e+58
          1459.12790	         1.15813e+58
          1459.93420	         9.78423e+57
          1460.74050	         8.13584e+57
          1461.54680	         8.17421e+57
          1462.35310	         8.39400e+57
          1463.15940	         9.33900e+57
          1463.96570	         1.02040e+58
          1464.77200	         1.16243e+58
          1465.57830	         1.14109e+58
          1466.38460	         8.60678e+57
          1467.19090	         7.18549e+57
          1467.99720	         7.67254e+57
          1468.80350	         8.74913e+57
          1469.60980	         1.00915e+58
          1470.41610	         1.10416e+58
          1471.22240	         8.96030e+57
          1472.02870	         9.99703e+57
          1472.83500	         1.07106e+58
          1473.64130	         9.25937e+57
          1474.44760	         9.17733e+57
          1475.25390	         9.55585e+57
          1476.06020	         9.48681e+57
          1476.86650	         8.75521e+57
          1477.67280	         7.98272e+57
          1478.47910	         8.00462e+57
          1479.28540	         7.26666e+57
          1480.09170	         8.46219e+57
          1480.89800	         8.78192e+57
          1481.70430	         8.24950e+57
          1482.51060	         8.22556e+57
          1483.31690	         7.56384e+57
          1484.12320	         8.29279e+57
          1484.92950	         8.43240e+57
          1485.73580	         8.43579e+57
          1486.54210	         8.24544e+57
          1487.34840	         8.11828e+57
          1488.15470	         7.70371e+57
          1488.96100	         8.16010e+57
          1489.76730	         9.41169e+57
