#sample_215_stacked_spectrum_rest_UV-bands_median_H-alpha_noDC.txt
#median Lum: 1.69846e+42
#Rest-frame wavelength (A) | Luminosity (erg/s/A)
#
          1110.00000	         0.00000e+00
          1110.80630	         4.40626e+59
          1111.61260	         2.41306e+59
          1112.41890	         1.88766e+59
          1113.22520	         2.15474e+58
          1114.03150	         1.63103e+58
          1114.83780	         1.33272e+58
          1115.64410	         4.92389e+58
          1116.45040	         1.65865e+59
          1117.25670	         6.73443e+58
          1118.06300	         7.91662e+58
          1118.86930	        -1.10379e+58
          1119.67560	         1.08395e+59
          1120.48190	         6.88906e+58
          1121.28820	        -1.08367e+59
          1122.09450	        -8.03265e+58
          1122.90080	        -3.74083e+58
          1123.70710	         6.08333e+58
          1124.51340	         9.55480e+58
          1125.31970	         3.07965e+58
          1126.12600	        -1.10357e+58
          1126.93230	        -3.26769e+58
          1127.73860	        -1.91484e+58
          1128.54490	         9.00887e+57
          1129.35120	        -2.69059e+58
          1130.15750	        -2.57689e+58
          1130.96380	        -2.70171e+58
          1131.77010	         5.44993e+58
          1132.57640	         5.87779e+58
          1133.38270	         4.07927e+58
          1134.18900	         1.47728e+58
          1134.99530	        -6.11932e+57
          1135.80160	         1.78735e+58
          1136.60790	         2.75917e+58
          1137.41420	         1.24015e+58
          1138.22050	         4.25688e+58
          1139.02680	         2.60418e+58
          1139.83310	         1.05567e+58
          1140.63940	         2.67650e+58
          1141.44570	         1.99524e+58
          1142.25200	         1.59906e+58
          1143.05830	         3.26201e+58
          1143.86460	         2.50088e+58
          1144.67090	         1.22659e+58
          1145.47720	         1.85639e+58
          1146.28350	         6.57564e+57
          1147.08980	         2.04579e+55
          1147.89610	         1.88166e+58
          1148.70240	         2.69074e+58
          1149.50870	         2.88184e+58
          1150.31500	         1.52112e+58
          1151.12130	         9.09704e+57
          1151.92760	         1.78843e+57
          1152.73390	        -5.65827e+57
          1153.54020	         5.20491e+57
          1154.34650	         2.15537e+58
          1155.15280	         3.46502e+58
          1155.95910	         2.06506e+58
          1156.76540	         2.36170e+58
          1157.57170	         1.20856e+58
          1158.37800	         1.01107e+58
          1159.18430	        -2.71413e+57
          1159.99060	         2.17335e+57
          1160.79690	         3.60610e+57
          1161.60320	         1.29281e+58
          1162.40950	         1.05016e+58
          1163.21580	         2.45488e+58
          1164.02210	         1.15321e+58
          1164.82840	         1.93628e+57
          1165.63470	         1.80655e+58
          1166.44100	         2.87707e+58
          1167.24730	         1.77092e+58
          1168.05360	         8.02314e+57
          1168.85990	         7.82976e+57
          1169.66620	         1.60659e+58
          1170.47250	         1.61714e+58
          1171.27880	         1.34370e+58
          1172.08510	         2.46022e+58
          1172.89140	         2.15146e+58
          1173.69770	         3.32446e+57
          1174.50400	         1.16397e+58
          1175.31030	         1.31183e+58
          1176.11660	         5.71786e+57
          1176.92290	         1.27760e+58
          1177.72920	         1.50209e+58
          1178.53550	         9.01530e+57
          1179.34180	         8.88391e+57
          1180.14810	         9.52176e+57
          1180.95440	         8.54695e+57
          1181.76070	         5.16731e+57
          1182.56700	         3.71270e+57
          1183.37330	         3.67056e+57
          1184.17960	         1.16481e+58
          1184.98590	         1.19979e+58
          1185.79220	         4.23404e+57
          1186.59850	         1.08445e+58
          1187.40480	         9.21175e+57
          1188.21110	         1.66924e+58
          1189.01740	         1.34026e+58
          1189.82370	         1.85665e+58
          1190.63000	         1.59707e+58
          1191.43630	         1.50287e+58
          1192.24260	         5.67524e+57
          1193.04890	         1.52985e+58
          1193.85520	         1.38262e+58
          1194.66150	         6.04166e+57
          1195.46780	         4.90766e+57
          1196.27410	         1.41673e+58
          1197.08040	         9.61887e+57
          1197.88670	         9.77806e+57
          1198.69300	         1.64821e+58
          1199.49930	         1.67969e+58
          1200.30560	         9.86488e+57
          1201.11190	         1.11936e+58
          1201.91820	         1.09132e+58
          1202.72450	         8.13037e+57
          1203.53080	         1.08984e+58
          1204.33710	         8.49656e+57
          1205.14340	         4.88844e+57
          1205.94970	         7.07208e+57
          1206.75600	         7.07405e+57
          1207.56230	         7.94704e+57
          1208.36860	         1.05113e+58
          1209.17490	         4.09198e+57
          1209.98120	         8.14778e+57
          1210.78750	         4.52961e+57
          1211.59380	         1.06521e+58
          1212.40010	         1.61312e+58
          1213.20640	         1.85733e+58
          1214.01270	         1.95834e+58
          1214.81900	         2.25408e+58
          1215.62530	         4.17813e+58
          1216.43160	         8.99302e+58
          1217.23790	         1.50607e+59
          1218.04420	         1.18394e+59
          1218.85050	         8.99686e+58
          1219.65680	         5.80973e+58
          1220.46310	         2.82586e+58
          1221.26940	         1.92241e+58
          1222.07570	         1.54433e+58
          1222.88200	         1.40402e+58
          1223.68830	         1.16255e+58
          1224.49460	         7.77070e+57
          1225.30090	         4.10637e+57
          1226.10720	         4.27306e+57
          1226.91350	         6.57627e+57
          1227.71980	         8.67786e+57
          1228.52610	         9.72045e+57
          1229.33240	         7.97119e+57
          1230.13870	         8.28089e+57
          1230.94500	         4.65483e+57
          1231.75130	         3.40142e+57
          1232.55760	         6.61278e+57
          1233.36390	         9.67261e+57
          1234.17020	         9.61551e+57
          1234.97650	         7.88545e+57
          1235.78280	         6.25124e+57
          1236.58910	         6.16257e+57
          1237.39540	         8.21196e+57
          1238.20170	         1.11556e+58
          1239.00800	         1.41314e+58
          1239.81430	         1.54771e+58
          1240.62060	         8.81619e+57
          1241.42690	         4.77232e+57
          1242.23320	         9.47472e+57
          1243.03950	         9.62020e+57
          1243.84580	         1.00791e+58
          1244.65210	         1.17779e+58
          1245.45840	         8.85518e+57
          1246.26470	         6.73033e+57
          1247.07100	         7.05640e+57
          1247.87730	         6.67680e+57
          1248.68360	         6.80719e+57
          1249.48990	         1.08746e+58
          1250.29620	         1.09340e+58
          1251.10250	         8.52243e+57
          1251.90880	         4.64277e+57
          1252.71510	         5.96199e+57
          1253.52140	         6.53698e+57
          1254.32770	         9.15329e+57
          1255.13400	         1.31262e+58
          1255.94030	         1.17729e+58
          1256.74660	         1.22863e+58
          1257.55290	         1.18893e+58
          1258.35920	         5.22564e+57
          1259.16550	         4.66597e+57
          1259.97180	         6.02960e+57
          1260.77810	         7.17846e+57
          1261.58440	         7.86703e+57
          1262.39070	         7.23821e+57
          1263.19700	         8.64347e+57
          1264.00330	         1.12164e+58
          1264.80960	         1.28162e+58
          1265.61590	         1.23768e+58
          1266.42220	         1.34587e+58
          1267.22850	         1.32207e+58
          1268.03480	         1.46150e+58
          1268.84110	         1.64350e+58
          1269.64740	         1.34882e+58
          1270.45370	         1.26954e+58
          1271.26000	         1.24686e+58
          1272.06630	         1.24070e+58
          1272.87260	         1.29372e+58
          1273.67890	         1.15416e+58
          1274.48520	         1.10419e+58
          1275.29150	         1.30098e+58
          1276.09780	         1.32233e+58
          1276.90410	         1.49773e+58
          1277.71040	         1.35809e+58
          1278.51670	         1.18707e+58
          1279.32300	         1.41215e+58
          1280.12930	         1.32087e+58
          1280.93560	         1.00472e+58
          1281.74190	         1.22097e+58
          1282.54820	         1.45123e+58
          1283.35450	         1.22224e+58
          1284.16080	         1.13558e+58
          1284.96710	         1.37976e+58
          1285.77340	         1.10198e+58
          1286.57970	         8.51554e+57
          1287.38600	         1.38540e+58
          1288.19230	         1.99992e+58
          1288.99860	         1.84790e+58
          1289.80490	         1.25152e+58
          1290.61120	         1.31421e+58
          1291.41750	         1.38493e+58
          1292.22380	         1.21449e+58
          1293.03010	         1.32740e+58
          1293.83640	         1.37800e+58
          1294.64270	         1.20668e+58
          1295.44900	         9.62146e+57
          1296.25530	         9.47150e+57
          1297.06160	         1.06089e+58
          1297.86790	         9.48210e+57
          1298.67420	         8.49851e+57
          1299.48050	         9.34824e+57
          1300.28680	         1.08958e+58
          1301.09310	         8.25407e+57
          1301.89940	         4.65282e+57
          1302.70570	         6.42993e+57
          1303.51200	         7.75407e+57
          1304.31830	         1.02324e+58
          1305.12460	         1.07852e+58
          1305.93090	         1.16637e+58
          1306.73720	         1.33531e+58
          1307.54350	         1.40988e+58
          1308.34980	         1.58395e+58
          1309.15610	         1.68352e+58
          1309.96240	         1.62312e+58
          1310.76870	         1.31983e+58
          1311.57500	         1.28291e+58
          1312.38130	         1.32434e+58
          1313.18760	         1.40363e+58
          1313.99390	         1.65215e+58
          1314.80020	         1.37530e+58
          1315.60650	         1.30784e+58
          1316.41280	         1.12097e+58
          1317.21910	         1.10855e+58
          1318.02540	         1.26602e+58
          1318.83170	         1.36611e+58
          1319.63800	         1.20918e+58
          1320.44430	         1.07956e+58
          1321.25060	         1.16241e+58
          1322.05690	         1.23286e+58
          1322.86320	         1.12808e+58
          1323.66950	         1.17522e+58
          1324.47580	         9.36061e+57
          1325.28210	         8.65115e+57
          1326.08840	         1.16897e+58
          1326.89470	         1.38077e+58
          1327.70100	         1.22343e+58
          1328.50730	         8.56848e+57
          1329.31360	         9.12836e+57
          1330.11990	         1.12488e+58
          1330.92620	         8.46760e+57
          1331.73250	         9.18266e+57
          1332.53880	         9.97508e+57
          1333.34510	         8.96738e+57
          1334.15140	         9.04422e+57
          1334.95770	         9.58235e+57
          1335.76400	         1.13328e+58
          1336.57030	         1.14408e+58
          1337.37660	         1.00587e+58
          1338.18290	         1.15031e+58
          1338.98920	         1.25170e+58
          1339.79550	         1.10286e+58
          1340.60180	         1.09523e+58
          1341.40810	         1.35398e+58
          1342.21440	         1.25431e+58
          1343.02070	         1.29729e+58
          1343.82700	         1.49790e+58
          1344.63330	         1.28651e+58
          1345.43960	         1.41199e+58
          1346.24590	         1.15273e+58
          1347.05220	         1.12373e+58
          1347.85850	         1.24492e+58
          1348.66480	         1.15575e+58
          1349.47110	         1.15722e+58
          1350.27740	         1.11909e+58
          1351.08370	         1.27967e+58
          1351.89000	         1.26268e+58
          1352.69630	         1.21905e+58
          1353.50260	         1.25207e+58
          1354.30890	         1.17544e+58
          1355.11520	         1.02981e+58
          1355.92150	         1.05074e+58
          1356.72780	         1.10849e+58
          1357.53410	         1.18790e+58
          1358.34040	         1.16057e+58
          1359.14670	         1.20256e+58
          1359.95300	         1.23006e+58
          1360.75930	         1.19003e+58
          1361.56560	         1.20227e+58
          1362.37190	         1.24043e+58
          1363.17820	         1.20778e+58
          1363.98450	         1.17803e+58
          1364.79080	         1.29771e+58
          1365.59710	         1.28932e+58
          1366.40340	         1.11330e+58
          1367.20970	         1.11403e+58
          1368.01600	         1.13593e+58
          1368.82230	         9.73569e+57
          1369.62860	         1.01050e+58
          1370.43490	         9.81901e+57
          1371.24120	         8.89579e+57
          1372.04750	         7.08795e+57
          1372.85380	         9.55384e+57
          1373.66010	         1.06283e+58
          1374.46640	         9.83988e+57
          1375.27270	         1.18286e+58
          1376.07900	         1.00863e+58
          1376.88530	         8.58420e+57
          1377.69160	         7.95909e+57
          1378.49790	         5.74146e+57
          1379.30420	         6.85125e+57
          1380.11050	         9.12611e+57
          1380.91680	         8.67941e+57
          1381.72310	         8.23851e+57
          1382.52940	         8.65220e+57
          1383.33570	         8.80100e+57
          1384.14200	         8.55774e+57
          1384.94830	         9.66356e+57
          1385.75460	         1.09077e+58
          1386.56090	         1.06458e+58
          1387.36720	         9.53457e+57
          1388.17350	         1.20294e+58
          1388.97980	         1.07083e+58
          1389.78610	         9.50439e+57
          1390.59240	         7.96006e+57
          1391.39870	         7.07118e+57
          1392.20500	         9.34945e+57
          1393.01130	         7.78047e+57
          1393.81760	         8.04797e+57
          1394.62390	         7.90309e+57
          1395.43020	         5.67057e+57
          1396.23650	         5.73771e+57
          1397.04280	         7.02844e+57
          1397.84910	         7.55935e+57
          1398.65540	         7.77044e+57
          1399.46170	         8.40274e+57
          1400.26800	         7.43317e+57
          1401.07430	         7.14948e+57
          1401.88060	         8.79838e+57
          1402.68690	         1.03880e+58
          1403.49320	         1.09339e+58
          1404.29950	         9.91944e+57
          1405.10580	         1.03286e+58
          1405.91210	         1.20054e+58
          1406.71840	         1.12312e+58
          1407.52470	         1.05457e+58
          1408.33100	         9.65919e+57
          1409.13730	         1.00507e+58
          1409.94360	         1.21249e+58
          1410.74990	         1.25771e+58
          1411.55620	         1.06380e+58
          1412.36250	         9.47908e+57
          1413.16880	         9.47352e+57
          1413.97510	         8.80982e+57
          1414.78140	         1.00724e+58
          1415.58770	         1.08369e+58
          1416.39400	         9.10907e+57
          1417.20030	         9.27088e+57
          1418.00660	         1.11788e+58
          1418.81290	         1.13340e+58
          1419.61920	         1.15167e+58
          1420.42550	         1.33952e+58
          1421.23180	         1.36692e+58
          1422.03810	         1.23825e+58
          1422.84440	         1.11170e+58
          1423.65070	         1.33963e+58
          1424.45700	         1.16519e+58
          1425.26330	         8.53749e+57
          1426.06960	         9.14161e+57
          1426.87590	         1.16704e+58
          1427.68220	         1.11462e+58
          1428.48850	         1.24021e+58
          1429.29480	         1.11748e+58
          1430.10110	         1.00299e+58
          1430.90740	         9.42830e+57
          1431.71370	         8.72955e+57
          1432.52000	         8.17921e+57
          1433.32630	         7.70735e+57
          1434.13260	         7.98321e+57
          1434.93890	         8.73760e+57
          1435.74520	         9.11155e+57
          1436.55150	         9.92496e+57
          1437.35780	         9.46777e+57
          1438.16410	         9.85362e+57
          1438.97040	         1.02147e+58
          1439.77670	         9.68494e+57
          1440.58300	         9.27047e+57
          1441.38930	         8.97751e+57
          1442.19560	         9.38763e+57
          1443.00190	         8.97203e+57
          1443.80820	         1.05383e+58
          1444.61450	         1.09660e+58
          1445.42080	         8.69535e+57
          1446.22710	         8.96687e+57
          1447.03340	         1.00978e+58
          1447.83970	         1.09413e+58
          1448.64600	         1.05962e+58
          1449.45230	         9.97425e+57
          1450.25860	         1.05469e+58
          1451.06490	         1.02312e+58
          1451.87120	         9.18988e+57
          1452.67750	         8.49114e+57
          1453.48380	         8.66422e+57
          1454.29010	         8.40018e+57
          1455.09640	         8.15983e+57
          1455.90270	         9.42008e+57
          1456.70900	         8.75984e+57
          1457.51530	         9.31249e+57
          1458.32160	         1.09594e+58
          1459.12790	         1.19650e+58
          1459.93420	         1.10221e+58
          1460.74050	         8.88853e+57
          1461.54680	         8.59112e+57
          1462.35310	         8.73808e+57
          1463.15940	         1.02825e+58
          1463.96570	         1.14972e+58
          1464.77200	         1.20476e+58
          1465.57830	         1.10077e+58
          1466.38460	         9.46413e+57
          1467.19090	         9.14971e+57
          1467.99720	         9.71408e+57
          1468.80350	         8.74500e+57
          1469.60980	         9.23369e+57
          1470.41610	         1.09210e+58
          1471.22240	         9.94539e+57
          1472.02870	         1.01275e+58
          1472.83500	         9.48748e+57
          1473.64130	         8.67559e+57
          1474.44760	         9.24951e+57
          1475.25390	         1.00478e+58
          1476.06020	         9.73265e+57
          1476.86650	         9.29157e+57
          1477.67280	         7.79222e+57
          1478.47910	         7.62270e+57
          1479.28540	         7.75251e+57
          1480.09170	         7.57147e+57
          1480.89800	         8.80608e+57
          1481.70430	         8.09309e+57
          1482.51060	         7.71251e+57
          1483.31690	         8.12416e+57
          1484.12320	         8.40023e+57
          1484.92950	         8.50306e+57
          1485.73580	         8.66271e+57
          1486.54210	         9.22210e+57
          1487.34840	         8.49274e+57
          1488.15470	         7.86599e+57
          1488.96100	         8.57062e+57
          1489.76730	         9.30369e+57
