#sample_282_stacked_spectrum_rest_UV-bands_median_H-alpha_noDC.txt
#median Lum: 1.69707e+42
#Rest-frame wavelength (A) | Luminosity (erg/s/A)
#
          1110.00000	         0.00000e+00
          1110.80630	         9.11536e+58
          1111.61260	         1.56615e+59
          1112.41890	         1.62628e+59
          1113.22520	        -4.24411e+56
          1114.03150	        -2.02743e+59
          1114.83780	         9.22474e+58
          1115.64410	         1.72488e+59
          1116.45040	         2.68020e+59
          1117.25670	         2.11046e+58
          1118.06300	         6.79793e+58
          1118.86930	        -9.16090e+58
          1119.67560	        -2.95826e+58
          1120.48190	        -7.49410e+58
          1121.28820	        -8.86536e+58
          1122.09450	        -1.64685e+58
          1122.90080	         4.20437e+58
          1123.70710	         1.15433e+59
          1124.51340	         6.78534e+58
          1125.31970	         5.36884e+58
          1126.12600	         5.51508e+58
          1126.93230	        -4.13060e+58
          1127.73860	        -3.52029e+58
          1128.54490	         3.27686e+58
          1129.35120	         1.60599e+58
          1130.15750	        -3.00100e+58
          1130.96380	        -3.46717e+58
          1131.77010	         3.99189e+58
          1132.57640	         4.10134e+58
          1133.38270	         3.49089e+58
          1134.18900	        -3.79868e+57
          1134.99530	         9.31816e+55
          1135.80160	         2.74847e+58
          1136.60790	         1.98190e+58
          1137.41420	         1.55016e+58
          1138.22050	         9.99196e+57
          1139.02680	        -6.22709e+57
          1139.83310	         2.30954e+56
          1140.63940	         1.32889e+58
          1141.44570	        -1.98033e+58
          1142.25200	        -1.83466e+58
          1143.05830	         2.42517e+57
          1143.86460	         6.24290e+57
          1144.67090	         3.43687e+58
          1145.47720	         1.60855e+58
          1146.28350	         1.43669e+58
          1147.08980	         1.18376e+58
          1147.89610	         1.84293e+58
          1148.70240	         2.02567e+58
          1149.50870	         3.23268e+58
          1150.31500	         1.81590e+58
          1151.12130	        -3.65240e+56
          1151.92760	        -5.14337e+57
          1152.73390	         5.20530e+57
          1153.54020	         2.33151e+58
          1154.34650	         2.46448e+58
          1155.15280	         8.16353e+57
          1155.95910	         1.21072e+58
          1156.76540	         1.91882e+58
          1157.57170	        -3.65588e+57
          1158.37800	        -5.44176e+57
          1159.18430	        -1.19881e+57
          1159.99060	         9.28773e+57
          1160.79690	         4.03786e+57
          1161.60320	         3.87506e+57
          1162.40950	         1.49804e+58
          1163.21580	         2.78749e+57
          1164.02210	         1.38978e+58
          1164.82840	         1.56377e+58
          1165.63470	         2.99490e+58
          1166.44100	         3.53244e+58
          1167.24730	         1.82570e+58
          1168.05360	         4.12024e+57
          1168.85990	         2.80922e+57
          1169.66620	         4.76879e+57
          1170.47250	         5.26204e+57
          1171.27880	         1.59144e+58
          1172.08510	         1.42419e+58
          1172.89140	         7.68295e+57
          1173.69770	         8.87713e+57
          1174.50400	         1.11187e+58
          1175.31030	         1.83294e+58
          1176.11660	         1.37005e+58
          1176.92290	         1.41379e+58
          1177.72920	         1.26663e+58
          1178.53550	         6.47996e+57
          1179.34180	         1.62500e+57
          1180.14810	         8.22244e+57
          1180.95440	         1.19321e+58
          1181.76070	         3.60135e+57
          1182.56700	         8.28036e+57
          1183.37330	         1.05200e+58
          1184.17960	         1.57349e+58
          1184.98590	         1.50578e+58
          1185.79220	         1.11929e+58
          1186.59850	         1.10742e+58
          1187.40480	         1.00254e+58
          1188.21110	         1.29180e+58
          1189.01740	         9.07261e+57
          1189.82370	         8.62910e+57
          1190.63000	         1.47457e+58
          1191.43630	         1.37975e+58
          1192.24260	         6.47929e+57
          1193.04890	         1.12568e+58
          1193.85520	         1.26997e+58
          1194.66150	         6.88828e+57
          1195.46780	         8.79405e+57
          1196.27410	         9.70360e+57
          1197.08040	         1.09410e+58
          1197.88670	         1.40862e+58
          1198.69300	         1.66712e+58
          1199.49930	         1.69402e+58
          1200.30560	         1.19999e+58
          1201.11190	         1.12306e+58
          1201.91820	         9.15217e+57
          1202.72450	         6.28585e+57
          1203.53080	         1.61424e+58
          1204.33710	         1.11153e+58
          1205.14340	         7.30909e+57
          1205.94970	         8.99948e+57
          1206.75600	         7.29171e+57
          1207.56230	         4.91818e+57
          1208.36860	         5.77969e+57
          1209.17490	         3.30399e+57
          1209.98120	         3.34383e+57
          1210.78750	         4.51774e+57
          1211.59380	         1.14757e+58
          1212.40010	         1.87142e+58
          1213.20640	         2.23926e+58
          1214.01270	         2.06125e+58
          1214.81900	         2.72571e+58
          1215.62530	         4.72051e+58
          1216.43160	         9.48294e+58
          1217.23790	         1.55718e+59
          1218.04420	         1.15859e+59
          1218.85050	         8.35560e+58
          1219.65680	         5.30991e+58
          1220.46310	         3.43562e+58
          1221.26940	         2.37619e+58
          1222.07570	         1.29125e+58
          1222.88200	         1.02656e+58
          1223.68830	         1.07945e+58
          1224.49460	         9.13329e+57
          1225.30090	         7.48568e+57
          1226.10720	         8.56896e+57
          1226.91350	         1.05841e+58
          1227.71980	         1.04636e+58
          1228.52610	         1.37508e+58
          1229.33240	         8.44585e+57
          1230.13870	         8.66140e+57
          1230.94500	         9.21780e+57
          1231.75130	         7.28635e+57
          1232.55760	         6.61101e+57
          1233.36390	         9.78398e+57
          1234.17020	         1.17566e+58
          1234.97650	         9.82469e+57
          1235.78280	         8.49588e+57
          1236.58910	         9.26783e+57
          1237.39540	         8.93236e+57
          1238.20170	         8.99334e+57
          1239.00800	         1.08561e+58
          1239.81430	         1.06850e+58
          1240.62060	         9.35192e+57
          1241.42690	         9.13147e+57
          1242.23320	         1.12731e+58
          1243.03950	         8.00486e+57
          1243.84580	         7.35650e+57
          1244.65210	         8.75983e+57
          1245.45840	         1.00108e+58
          1246.26470	         1.11191e+58
          1247.07100	         7.27505e+57
          1247.87730	         4.30070e+57
          1248.68360	         3.50613e+57
          1249.48990	         6.11347e+57
          1250.29620	         8.16935e+57
          1251.10250	         5.85961e+57
          1251.90880	         2.47514e+57
          1252.71510	         3.84449e+57
          1253.52140	         6.33483e+57
          1254.32770	         8.60773e+57
          1255.13400	         1.40568e+58
          1255.94030	         1.39411e+58
          1256.74660	         1.20258e+58
          1257.55290	         1.32829e+58
          1258.35920	         9.81138e+57
          1259.16550	         5.93707e+57
          1259.97180	         6.57781e+57
          1260.77810	         9.86915e+57
          1261.58440	         9.82090e+57
          1262.39070	         6.95764e+57
          1263.19700	         8.66396e+57
          1264.00330	         1.07671e+58
          1264.80960	         8.37288e+57
          1265.61590	         1.28860e+58
          1266.42220	         1.26057e+58
          1267.22850	         1.00708e+58
          1268.03480	         1.33062e+58
          1268.84110	         1.54521e+58
          1269.64740	         1.25581e+58
          1270.45370	         1.25210e+58
          1271.26000	         1.16112e+58
          1272.06630	         1.20497e+58
          1272.87260	         1.43571e+58
          1273.67890	         1.50663e+58
          1274.48520	         1.29063e+58
          1275.29150	         1.20457e+58
          1276.09780	         1.15399e+58
          1276.90410	         1.30497e+58
          1277.71040	         1.29912e+58
          1278.51670	         1.24640e+58
          1279.32300	         1.30036e+58
          1280.12930	         1.19077e+58
          1280.93560	         1.15846e+58
          1281.74190	         1.22648e+58
          1282.54820	         1.38247e+58
          1283.35450	         1.25053e+58
          1284.16080	         1.07493e+58
          1284.96710	         1.43713e+58
          1285.77340	         1.26234e+58
          1286.57970	         1.00725e+58
          1287.38600	         1.41667e+58
          1288.19230	         1.75976e+58
          1288.99860	         1.45857e+58
          1289.80490	         1.01338e+58
          1290.61120	         1.42362e+58
          1291.41750	         1.50315e+58
          1292.22380	         1.23629e+58
          1293.03010	         1.13415e+58
          1293.83640	         1.04974e+58
          1294.64270	         7.55335e+57
          1295.44900	         5.76540e+57
          1296.25530	         7.02023e+57
          1297.06160	         9.49659e+57
          1297.86790	         8.52438e+57
          1298.67420	         8.17126e+57
          1299.48050	         1.08220e+58
          1300.28680	         1.17292e+58
          1301.09310	         9.32449e+57
          1301.89940	         5.30677e+57
          1302.70570	         7.89150e+57
          1303.51200	         7.67661e+57
          1304.31830	         9.00139e+57
          1305.12460	         1.05702e+58
          1305.93090	         1.17078e+58
          1306.73720	         1.12405e+58
          1307.54350	         1.35047e+58
          1308.34980	         1.44889e+58
          1309.15610	         1.39230e+58
          1309.96240	         1.37947e+58
          1310.76870	         1.31905e+58
          1311.57500	         1.30747e+58
          1312.38130	         1.28918e+58
          1313.18760	         1.50767e+58
          1313.99390	         1.73107e+58
          1314.80020	         1.68798e+58
          1315.60650	         1.44162e+58
          1316.41280	         1.05711e+58
          1317.21910	         9.01785e+57
          1318.02540	         1.19163e+58
          1318.83170	         1.24375e+58
          1319.63800	         1.06651e+58
          1320.44430	         9.63793e+57
          1321.25060	         1.08768e+58
          1322.05690	         1.07406e+58
          1322.86320	         1.14914e+58
          1323.66950	         1.16093e+58
          1324.47580	         9.47912e+57
          1325.28210	         9.40636e+57
          1326.08840	         1.06205e+58
          1326.89470	         1.31725e+58
          1327.70100	         1.20328e+58
          1328.50730	         7.23390e+57
          1329.31360	         6.75704e+57
          1330.11990	         7.99836e+57
          1330.92620	         7.65792e+57
          1331.73250	         8.58457e+57
          1332.53880	         7.95874e+57
          1333.34510	         9.50015e+57
          1334.15140	         9.78498e+57
          1334.95770	         9.17412e+57
          1335.76400	         1.10118e+58
          1336.57030	         1.04018e+58
          1337.37660	         9.51166e+57
          1338.18290	         1.15317e+58
          1338.98920	         1.20697e+58
          1339.79550	         1.23595e+58
          1340.60180	         1.15969e+58
          1341.40810	         1.36972e+58
          1342.21440	         1.37395e+58
          1343.02070	         1.14083e+58
          1343.82700	         1.27223e+58
          1344.63330	         1.17565e+58
          1345.43960	         1.23999e+58
          1346.24590	         1.17602e+58
          1347.05220	         1.12049e+58
          1347.85850	         1.14862e+58
          1348.66480	         1.23352e+58
          1349.47110	         1.24120e+58
          1350.27740	         1.17221e+58
          1351.08370	         1.15841e+58
          1351.89000	         1.08208e+58
          1352.69630	         1.03038e+58
          1353.50260	         1.15587e+58
          1354.30890	         1.21773e+58
          1355.11520	         1.17633e+58
          1355.92150	         1.12243e+58
          1356.72780	         1.01500e+58
          1357.53410	         9.68333e+57
          1358.34040	         9.92237e+57
          1359.14670	         9.71214e+57
          1359.95300	         1.07204e+58
          1360.75930	         1.16827e+58
          1361.56560	         1.11751e+58
          1362.37190	         1.13754e+58
          1363.17820	         1.22588e+58
          1363.98450	         1.27747e+58
          1364.79080	         1.24403e+58
          1365.59710	         1.25664e+58
          1366.40340	         1.23588e+58
          1367.20970	         1.09022e+58
          1368.01600	         9.98735e+57
          1368.82230	         8.65736e+57
          1369.62860	         8.45906e+57
          1370.43490	         9.82889e+57
          1371.24120	         1.07288e+58
          1372.04750	         9.14269e+57
          1372.85380	         1.04424e+58
          1373.66010	         1.11250e+58
          1374.46640	         1.04859e+58
          1375.27270	         1.03326e+58
          1376.07900	         1.00194e+58
          1376.88530	         8.79676e+57
          1377.69160	         7.73637e+57
          1378.49790	         6.97998e+57
          1379.30420	         7.64427e+57
          1380.11050	         1.05423e+58
          1380.91680	         1.04653e+58
          1381.72310	         8.84052e+57
          1382.52940	         8.43705e+57
          1383.33570	         8.93456e+57
          1384.14200	         9.70515e+57
          1384.94830	         1.01131e+58
          1385.75460	         1.11054e+58
          1386.56090	         9.69393e+57
          1387.36720	         1.11075e+58
          1388.17350	         1.28811e+58
          1388.97980	         1.09294e+58
          1389.78610	         9.52611e+57
          1390.59240	         8.43290e+57
          1391.39870	         8.94819e+57
          1392.20500	         9.75802e+57
          1393.01130	         7.77948e+57
          1393.81760	         6.10862e+57
          1394.62390	         6.52872e+57
          1395.43020	         6.82049e+57
          1396.23650	         6.95673e+57
          1397.04280	         7.85400e+57
          1397.84910	         9.11892e+57
          1398.65540	         9.05537e+57
          1399.46170	         1.02406e+58
          1400.26800	         9.76370e+57
          1401.07430	         8.32422e+57
          1401.88060	         8.48944e+57
          1402.68690	         9.58177e+57
          1403.49320	         1.02823e+58
          1404.29950	         9.69288e+57
          1405.10580	         9.92000e+57
          1405.91210	         1.08242e+58
          1406.71840	         1.13189e+58
          1407.52470	         9.84093e+57
          1408.33100	         9.40278e+57
          1409.13730	         1.13402e+58
          1409.94360	         1.11768e+58
          1410.74990	         1.08582e+58
          1411.55620	         9.18694e+57
          1412.36250	         8.74570e+57
          1413.16880	         8.97254e+57
          1413.97510	         8.39613e+57
          1414.78140	         9.39435e+57
          1415.58770	         1.10390e+58
          1416.39400	         1.04391e+58
          1417.20030	         9.84662e+57
          1418.00660	         9.52328e+57
          1418.81290	         9.30454e+57
          1419.61920	         1.02047e+58
          1420.42550	         1.24863e+58
          1421.23180	         1.47727e+58
          1422.03810	         1.25856e+58
          1422.84440	         1.07370e+58
          1423.65070	         1.38071e+58
          1424.45700	         1.24748e+58
          1425.26330	         8.79245e+57
          1426.06960	         9.28858e+57
          1426.87590	         1.00933e+58
          1427.68220	         1.00735e+58
          1428.48850	         1.12093e+58
          1429.29480	         1.06591e+58
          1430.10110	         9.48247e+57
          1430.90740	         8.62475e+57
          1431.71370	         8.19293e+57
          1432.52000	         7.69003e+57
          1433.32630	         7.60361e+57
          1434.13260	         7.94170e+57
          1434.93890	         8.53403e+57
          1435.74520	         9.20294e+57
          1436.55150	         9.82500e+57
          1437.35780	         9.48904e+57
          1438.16410	         8.97674e+57
          1438.97040	         8.92637e+57
          1439.77670	         8.83664e+57
          1440.58300	         8.75005e+57
          1441.38930	         9.27577e+57
          1442.19560	         1.01143e+58
          1443.00190	         9.51289e+57
          1443.80820	         1.06380e+58
          1444.61450	         1.14227e+58
          1445.42080	         9.58239e+57
          1446.22710	         9.45307e+57
          1447.03340	         9.94027e+57
          1447.83970	         1.06807e+58
          1448.64600	         1.00865e+58
          1449.45230	         9.11990e+57
          1450.25860	         9.57938e+57
          1451.06490	         8.85101e+57
          1451.87120	         8.56913e+57
          1452.67750	         8.12344e+57
          1453.48380	         8.52550e+57
          1454.29010	         7.56521e+57
          1455.09640	         7.65224e+57
          1455.90270	         9.57843e+57
          1456.70900	         8.77719e+57
          1457.51530	         9.18702e+57
          1458.32160	         1.18388e+58
          1459.12790	         1.35327e+58
          1459.93420	         1.07909e+58
          1460.74050	         7.51602e+57
          1461.54680	         7.94838e+57
          1462.35310	         8.30458e+57
          1463.15940	         9.52323e+57
          1463.96570	         1.03858e+58
          1464.77200	         1.12640e+58
          1465.57830	         1.04564e+58
          1466.38460	         9.70935e+57
          1467.19090	         9.46279e+57
          1467.99720	         9.38803e+57
          1468.80350	         9.48423e+57
          1469.60980	         1.06985e+58
          1470.41610	         1.17788e+58
          1471.22240	         9.50765e+57
          1472.02870	         9.84891e+57
          1472.83500	         1.07841e+58
          1473.64130	         1.02099e+58
          1474.44760	         8.57255e+57
          1475.25390	         8.24321e+57
          1476.06020	         8.47444e+57
          1476.86650	         8.56735e+57
          1477.67280	         8.34223e+57
          1478.47910	         7.36578e+57
          1479.28540	         6.92652e+57
          1480.09170	         8.03639e+57
          1480.89800	         8.54457e+57
          1481.70430	         8.78673e+57
          1482.51060	         8.57892e+57
          1483.31690	         8.01727e+57
          1484.12320	         7.70316e+57
          1484.92950	         7.90309e+57
          1485.73580	         8.63076e+57
          1486.54210	         7.60494e+57
          1487.34840	         7.67826e+57
          1488.15470	         8.22863e+57
          1488.96100	         8.08512e+57
          1489.76730	         8.64583e+57
