#sample_464_stacked_spectrum_rest_UV-bands_median_H-alpha_noDC.txt
#median Lum: 1.68534e+42
#Rest-frame wavelength (A) | Luminosity (erg/s/A)
#
          1110.00000	         0.00000e+00
          1110.80630	         7.03769e+58
          1111.61260	         3.23847e+59
          1112.41890	        -3.99814e+58
          1113.22520	         6.22078e+58
          1114.03150	        -3.46991e+58
          1114.83780	         1.46727e+59
          1115.64410	         1.73692e+59
          1116.45040	         3.12711e+59
          1117.25670	         1.07090e+59
          1118.06300	         9.88474e+58
          1118.86930	        -3.06433e+58
          1119.67560	         9.59556e+58
          1120.48190	         6.71863e+57
          1121.28820	        -1.18448e+59
          1122.09450	         3.54029e+58
          1122.90080	         4.09054e+58
          1123.70710	         5.26083e+58
          1124.51340	         2.14273e+59
          1125.31970	         8.17856e+58
          1126.12600	        -1.62534e+58
          1126.93230	        -2.76246e+58
          1127.73860	        -3.72974e+58
          1128.54490	         1.90667e+58
          1129.35120	         3.09262e+58
          1130.15750	        -4.18350e+58
          1130.96380	        -1.99534e+58
          1131.77010	         4.59681e+58
          1132.57640	         5.19987e+58
          1133.38270	         4.82786e+58
          1134.18900	         2.41578e+58
          1134.99530	        -1.45105e+58
          1135.80160	         2.66527e+57
          1136.60790	         1.20932e+58
          1137.41420	         1.33074e+58
          1138.22050	         5.65286e+58
          1139.02680	         2.66899e+58
          1139.83310	         2.94913e+58
          1140.63940	         1.39328e+58
          1141.44570	        -1.11019e+58
          1142.25200	        -1.68237e+57
          1143.05830	         1.89052e+58
          1143.86460	         2.05237e+58
          1144.67090	         2.89496e+58
          1145.47720	         1.67954e+58
          1146.28350	         1.58984e+58
          1147.08980	         1.18422e+58
          1147.89610	         2.16357e+58
          1148.70240	         2.67688e+58
          1149.50870	         2.22873e+58
          1150.31500	         3.39805e+57
          1151.12130	         1.37671e+56
          1151.92760	         7.93624e+57
          1152.73390	         2.10743e+58
          1153.54020	         3.76021e+57
          1154.34650	         2.06386e+58
          1155.15280	         2.31984e+58
          1155.95910	         1.62229e+58
          1156.76540	         1.74895e+58
          1157.57170	         1.57663e+57
          1158.37800	        -1.36769e+58
          1159.18430	        -8.45503e+57
          1159.99060	        -2.56692e+56
          1160.79690	         2.32780e+57
          1161.60320	         1.77992e+58
          1162.40950	         1.92715e+58
          1163.21580	         1.86116e+58
          1164.02210	         1.87677e+58
          1164.82840	         1.53582e+58
          1165.63470	         1.85337e+58
          1166.44100	         2.89221e+58
          1167.24730	         2.41690e+58
          1168.05360	         1.36698e+58
          1168.85990	         8.64773e+57
          1169.66620	         1.43236e+58
          1170.47250	         1.65751e+58
          1171.27880	         1.61502e+58
          1172.08510	         1.68512e+58
          1172.89140	         1.66712e+58
          1173.69770	         1.23863e+58
          1174.50400	         1.65148e+58
          1175.31030	         1.17342e+58
          1176.11660	         9.26948e+57
          1176.92290	         1.31972e+58
          1177.72920	         1.16247e+58
          1178.53550	         6.12637e+57
          1179.34180	        -2.66740e+57
          1180.14810	         4.39798e+57
          1180.95440	         1.17212e+58
          1181.76070	         8.47129e+57
          1182.56700	         1.07308e+58
          1183.37330	         1.00157e+58
          1184.17960	         1.40629e+58
          1184.98590	         1.11380e+58
          1185.79220	         6.63713e+57
          1186.59850	         1.31093e+58
          1187.40480	         9.95949e+57
          1188.21110	         1.35385e+58
          1189.01740	         5.61505e+57
          1189.82370	         6.03980e+57
          1190.63000	         1.36488e+58
          1191.43630	         1.39546e+58
          1192.24260	         9.56267e+57
          1193.04890	         1.20719e+58
          1193.85520	         8.94222e+57
          1194.66150	         8.79372e+57
          1195.46780	         1.06194e+58
          1196.27410	         1.42013e+58
          1197.08040	         1.38882e+58
          1197.88670	         1.43185e+58
          1198.69300	         1.46886e+58
          1199.49930	         1.57910e+58
          1200.30560	         1.20251e+58
          1201.11190	         9.54387e+57
          1201.91820	         1.03973e+58
          1202.72450	         1.28820e+58
          1203.53080	         1.40318e+58
          1204.33710	         1.03337e+58
          1205.14340	         7.83606e+57
          1205.94970	         7.76487e+57
          1206.75600	         7.54012e+57
          1207.56230	         5.49228e+57
          1208.36860	         9.55579e+57
          1209.17490	         5.20118e+57
          1209.98120	         7.58614e+57
          1210.78750	         8.00328e+57
          1211.59380	         1.12575e+58
          1212.40010	         1.54788e+58
          1213.20640	         2.26181e+58
          1214.01270	         1.95317e+58
          1214.81900	         2.70015e+58
          1215.62530	         4.42819e+58
          1216.43160	         8.97744e+58
          1217.23790	         1.52589e+59
          1218.04420	         1.17869e+59
          1218.85050	         8.87425e+58
          1219.65680	         6.02102e+58
          1220.46310	         3.61242e+58
          1221.26940	         2.43285e+58
          1222.07570	         1.31901e+58
          1222.88200	         1.26020e+58
          1223.68830	         1.32425e+58
          1224.49460	         9.54994e+57
          1225.30090	         5.88006e+57
          1226.10720	         6.01192e+57
          1226.91350	         7.60448e+57
          1227.71980	         6.56076e+57
          1228.52610	         1.01752e+58
          1229.33240	         1.22626e+58
          1230.13870	         7.04922e+57
          1230.94500	         8.40562e+57
          1231.75130	         8.70536e+57
          1232.55760	         8.94076e+57
          1233.36390	         8.17864e+57
          1234.17020	         1.25725e+58
          1234.97650	         1.25817e+58
          1235.78280	         9.93778e+57
          1236.58910	         8.52170e+57
          1237.39540	         9.96562e+57
          1238.20170	         8.55336e+57
          1239.00800	         1.03846e+58
          1239.81430	         1.33613e+58
          1240.62060	         1.05012e+58
          1241.42690	         9.16698e+57
          1242.23320	         1.19130e+58
          1243.03950	         9.39499e+57
          1243.84580	         1.02739e+58
          1244.65210	         1.04406e+58
          1245.45840	         9.74044e+57
          1246.26470	         9.56567e+57
          1247.07100	         5.12292e+57
          1247.87730	         6.76575e+57
          1248.68360	         7.18274e+57
          1249.48990	         9.73779e+57
          1250.29620	         7.89637e+57
          1251.10250	         6.95742e+57
          1251.90880	         5.75667e+57
          1252.71510	         6.54164e+57
          1253.52140	         6.58871e+57
          1254.32770	         8.24343e+57
          1255.13400	         1.24670e+58
          1255.94030	         1.24598e+58
          1256.74660	         1.08027e+58
          1257.55290	         1.05488e+58
          1258.35920	         1.09886e+58
          1259.16550	         7.44255e+57
          1259.97180	         4.29099e+57
          1260.77810	         6.07356e+57
          1261.58440	         9.30575e+57
          1262.39070	         7.86473e+57
          1263.19700	         9.67405e+57
          1264.00330	         1.18603e+58
          1264.80960	         1.07248e+58
          1265.61590	         1.22466e+58
          1266.42220	         1.35417e+58
          1267.22850	         1.20800e+58
          1268.03480	         1.36886e+58
          1268.84110	         1.37099e+58
          1269.64740	         1.11136e+58
          1270.45370	         1.28779e+58
          1271.26000	         1.32521e+58
          1272.06630	         1.21360e+58
          1272.87260	         1.20906e+58
          1273.67890	         1.15689e+58
          1274.48520	         1.36241e+58
          1275.29150	         1.44140e+58
          1276.09780	         1.28675e+58
          1276.90410	         1.56384e+58
          1277.71040	         1.24340e+58
          1278.51670	         1.19503e+58
          1279.32300	         1.35415e+58
          1280.12930	         1.25223e+58
          1280.93560	         1.21189e+58
          1281.74190	         1.23252e+58
          1282.54820	         1.30859e+58
          1283.35450	         1.38553e+58
          1284.16080	         1.26892e+58
          1284.96710	         1.28111e+58
          1285.77340	         1.14144e+58
          1286.57970	         1.21278e+58
          1287.38600	         1.63488e+58
          1288.19230	         1.97647e+58
          1288.99860	         1.73379e+58
          1289.80490	         1.20704e+58
          1290.61120	         1.46393e+58
          1291.41750	         1.63940e+58
          1292.22380	         1.36012e+58
          1293.03010	         1.24063e+58
          1293.83640	         1.12801e+58
          1294.64270	         8.52234e+57
          1295.44900	         5.81958e+57
          1296.25530	         6.51953e+57
          1297.06160	         9.86897e+57
          1297.86790	         1.02470e+58
          1298.67420	         9.87885e+57
          1299.48050	         1.08167e+58
          1300.28680	         1.04236e+58
          1301.09310	         7.86129e+57
          1301.89940	         3.14012e+57
          1302.70570	         5.76784e+57
          1303.51200	         1.00626e+58
          1304.31830	         1.27797e+58
          1305.12460	         1.19026e+58
          1305.93090	         1.00974e+58
          1306.73720	         1.17170e+58
          1307.54350	         1.45410e+58
          1308.34980	         1.39593e+58
          1309.15610	         1.47801e+58
          1309.96240	         1.65844e+58
          1310.76870	         1.39457e+58
          1311.57500	         1.22737e+58
          1312.38130	         1.16635e+58
          1313.18760	         1.28040e+58
          1313.99390	         1.91593e+58
          1314.80020	         1.70656e+58
          1315.60650	         1.46599e+58
          1316.41280	         1.30128e+58
          1317.21910	         1.17708e+58
          1318.02540	         1.26185e+58
          1318.83170	         1.39892e+58
          1319.63800	         1.24330e+58
          1320.44430	         1.24576e+58
          1321.25060	         1.33541e+58
          1322.05690	         1.20450e+58
          1322.86320	         1.32609e+58
          1323.66950	         1.33389e+58
          1324.47580	         1.07791e+58
          1325.28210	         9.61735e+57
          1326.08840	         1.02049e+58
          1326.89470	         1.06581e+58
          1327.70100	         9.08546e+57
          1328.50730	         7.14265e+57
          1329.31360	         1.02690e+58
          1330.11990	         1.16605e+58
          1330.92620	         1.02005e+58
          1331.73250	         1.07694e+58
          1332.53880	         1.23718e+58
          1333.34510	         1.11142e+58
          1334.15140	         8.93350e+57
          1334.95770	         8.72126e+57
          1335.76400	         1.21691e+58
          1336.57030	         1.12362e+58
          1337.37660	         1.12194e+58
          1338.18290	         1.09012e+58
          1338.98920	         1.10166e+58
          1339.79550	         1.14827e+58
          1340.60180	         1.29889e+58
          1341.40810	         1.50617e+58
          1342.21440	         1.45975e+58
          1343.02070	         1.24031e+58
          1343.82700	         1.25423e+58
          1344.63330	         1.14979e+58
          1345.43960	         1.18146e+58
          1346.24590	         9.99763e+57
          1347.05220	         1.08149e+58
          1347.85850	         1.15974e+58
          1348.66480	         1.17736e+58
          1349.47110	         1.35830e+58
          1350.27740	         1.17877e+58
          1351.08370	         1.11314e+58
          1351.89000	         1.23106e+58
          1352.69630	         1.24821e+58
          1353.50260	         1.27141e+58
          1354.30890	         1.11619e+58
          1355.11520	         1.15231e+58
          1355.92150	         1.18748e+58
          1356.72780	         1.12259e+58
          1357.53410	         1.19476e+58
          1358.34040	         1.10180e+58
          1359.14670	         1.05306e+58
          1359.95300	         1.15431e+58
          1360.75930	         1.09058e+58
          1361.56560	         1.05375e+58
          1362.37190	         1.08813e+58
          1363.17820	         1.06572e+58
          1363.98450	         1.21082e+58
          1364.79080	         1.39897e+58
          1365.59710	         1.32242e+58
          1366.40340	         1.17749e+58
          1367.20970	         1.11558e+58
          1368.01600	         1.08280e+58
          1368.82230	         1.08056e+58
          1369.62860	         1.23865e+58
          1370.43490	         1.11366e+58
          1371.24120	         9.96885e+57
          1372.04750	         1.13606e+58
          1372.85380	         1.33981e+58
          1373.66010	         1.23493e+58
          1374.46640	         1.02784e+58
          1375.27270	         1.08488e+58
          1376.07900	         1.10442e+58
          1376.88530	         9.08866e+57
          1377.69160	         7.96058e+57
          1378.49790	         7.31068e+57
          1379.30420	         7.99278e+57
          1380.11050	         9.72768e+57
          1380.91680	         7.96547e+57
          1381.72310	         8.06480e+57
          1382.52940	         8.85394e+57
          1383.33570	         8.48785e+57
          1384.14200	         1.11054e+58
          1384.94830	         1.33790e+58
          1385.75460	         1.19652e+58
          1386.56090	         1.16578e+58
          1387.36720	         1.20329e+58
          1388.17350	         1.24434e+58
          1388.97980	         1.24619e+58
          1389.78610	         1.05595e+58
          1390.59240	         9.41897e+57
          1391.39870	         7.77305e+57
          1392.20500	         8.18088e+57
          1393.01130	         8.61115e+57
          1393.81760	         8.65560e+57
          1394.62390	         8.04810e+57
          1395.43020	         5.50151e+57
          1396.23650	         6.06917e+57
          1397.04280	         8.47130e+57
          1397.84910	         8.82480e+57
          1398.65540	         8.46677e+57
          1399.46170	         1.01349e+58
          1400.26800	         1.01710e+58
          1401.07430	         8.53286e+57
          1401.88060	         8.64232e+57
          1402.68690	         9.63918e+57
          1403.49320	         1.01057e+58
          1404.29950	         9.76001e+57
          1405.10580	         9.71932e+57
          1405.91210	         1.18555e+58
          1406.71840	         1.19687e+58
          1407.52470	         1.14456e+58
          1408.33100	         1.13712e+58
          1409.13730	         1.16550e+58
          1409.94360	         1.17603e+58
          1410.74990	         1.16720e+58
          1411.55620	         1.11335e+58
          1412.36250	         8.79803e+57
          1413.16880	         9.18876e+57
          1413.97510	         7.98194e+57
          1414.78140	         8.49867e+57
          1415.58770	         1.20904e+58
          1416.39400	         1.23561e+58
          1417.20030	         1.07484e+58
          1418.00660	         8.49799e+57
          1418.81290	         1.03064e+58
          1419.61920	         1.07513e+58
          1420.42550	         1.14931e+58
          1421.23180	         1.25031e+58
          1422.03810	         1.23092e+58
          1422.84440	         1.23845e+58
          1423.65070	         1.41467e+58
          1424.45700	         1.25378e+58
          1425.26330	         8.10763e+57
          1426.06960	         8.60372e+57
          1426.87590	         1.09277e+58
          1427.68220	         1.11907e+58
          1428.48850	         1.14324e+58
          1429.29480	         1.13712e+58
          1430.10110	         1.13741e+58
          1430.90740	         9.57357e+57
          1431.71370	         8.58991e+57
          1432.52000	         8.74152e+57
          1433.32630	         8.00662e+57
          1434.13260	         7.54555e+57
          1434.93890	         7.98736e+57
          1435.74520	         9.77279e+57
          1436.55150	         1.02919e+58
          1437.35780	         8.97302e+57
          1438.16410	         9.25673e+57
          1438.97040	         9.09739e+57
          1439.77670	         9.55001e+57
          1440.58300	         9.96189e+57
          1441.38930	         9.19822e+57
          1442.19560	         9.36138e+57
          1443.00190	         9.86908e+57
          1443.80820	         1.03136e+58
          1444.61450	         1.01553e+58
          1445.42080	         9.31826e+57
          1446.22710	         1.05023e+58
          1447.03340	         1.02520e+58
          1447.83970	         1.07641e+58
          1448.64600	         1.02202e+58
          1449.45230	         9.68422e+57
          1450.25860	         9.81043e+57
          1451.06490	         9.61580e+57
          1451.87120	         8.87656e+57
          1452.67750	         7.61587e+57
          1453.48380	         8.16239e+57
          1454.29010	         8.63216e+57
          1455.09640	         8.50573e+57
          1455.90270	         9.56409e+57
          1456.70900	         9.49741e+57
          1457.51530	         1.05250e+58
          1458.32160	         1.28748e+58
          1459.12790	         1.24082e+58
          1459.93420	         1.04050e+58
          1460.74050	         8.59494e+57
          1461.54680	         8.19199e+57
          1462.35310	         7.23412e+57
          1463.15940	         9.19372e+57
          1463.96570	         1.21544e+58
          1464.77200	         1.26321e+58
          1465.57830	         1.07780e+58
          1466.38460	         9.05838e+57
          1467.19090	         8.76436e+57
          1467.99720	         9.37699e+57
          1468.80350	         1.04490e+58
          1469.60980	         1.00438e+58
          1470.41610	         1.08031e+58
          1471.22240	         1.06038e+58
          1472.02870	         1.04164e+58
          1472.83500	         1.01345e+58
          1473.64130	         1.01991e+58
          1474.44760	         1.11852e+58
          1475.25390	         1.00752e+58
          1476.06020	         9.00406e+57
          1476.86650	         8.54898e+57
          1477.67280	         7.32772e+57
          1478.47910	         7.07915e+57
          1479.28540	         7.83258e+57
          1480.09170	         8.58946e+57
          1480.89800	         8.73618e+57
          1481.70430	         1.02891e+58
          1482.51060	         9.25364e+57
          1483.31690	         8.22480e+57
          1484.12320	         8.13001e+57
          1484.92950	         7.90636e+57
          1485.73580	         9.28491e+57
          1486.54210	         9.29663e+57
          1487.34840	         9.14695e+57
          1488.15470	         8.92947e+57
          1488.96100	         7.54619e+57
          1489.76730	         8.59185e+57
