#sample_131_stacked_spectrum_rest_UV-bands_median_H-alpha_noDC.txt
#median Lum: 1.68606e+42
#Rest-frame wavelength (A) | Luminosity (erg/s/A)
#
          1110.00000	         0.00000e+00
          1110.80630	         1.38528e+59
          1111.61260	         3.30051e+59
          1112.41890	         3.47446e+59
          1113.22520	         3.72480e+59
          1114.03150	        -2.95793e+59
          1114.83780	        -6.01627e+58
          1115.64410	        -5.63328e+58
          1116.45040	         1.02786e+59
          1117.25670	         2.08967e+59
          1118.06300	         2.72759e+59
          1118.86930	         3.71563e+58
          1119.67560	         1.00533e+59
          1120.48190	         5.07488e+58
          1121.28820	        -1.10529e+59
          1122.09450	        -2.85983e+58
          1122.90080	         2.91423e+58
          1123.70710	         1.26245e+59
          1124.51340	         3.66800e+58
          1125.31970	        -2.96150e+58
          1126.12600	         3.38240e+58
          1126.93230	        -2.61077e+58
          1127.73860	        -3.80539e+58
          1128.54490	         3.38899e+58
          1129.35120	         7.41587e+58
          1130.15750	        -1.70914e+58
          1130.96380	         5.05643e+57
          1131.77010	         5.79232e+58
          1132.57640	         4.30353e+58
          1133.38270	         1.30023e+58
          1134.18900	         2.05112e+58
          1134.99530	         5.06546e+57
          1135.80160	         2.43837e+58
          1136.60790	         4.75664e+57
          1137.41420	        -9.08623e+57
          1138.22050	         3.61502e+58
          1139.02680	         3.73290e+58
          1139.83310	         3.09021e+58
          1140.63940	         1.26589e+58
          1141.44570	        -2.12181e+58
          1142.25200	         1.21607e+58
          1143.05830	         1.58117e+58
          1143.86460	         1.96645e+58
          1144.67090	         2.86999e+58
          1145.47720	         1.96914e+58
          1146.28350	         2.25348e+58
          1147.08980	         1.22024e+58
          1147.89610	         2.37262e+58
          1148.70240	         3.58842e+58
          1149.50870	         2.61510e+58
          1150.31500	         2.06659e+58
          1151.12130	         1.56285e+58
          1151.92760	         1.94967e+58
          1152.73390	         1.51368e+58
          1153.54020	         7.82675e+57
          1154.34650	         2.36063e+58
          1155.15280	         2.69951e+58
          1155.95910	         1.44619e+58
          1156.76540	         1.94445e+58
          1157.57170	         6.05497e+57
          1158.37800	        -1.56189e+57
          1159.18430	        -3.57140e+57
          1159.99060	         8.92100e+57
          1160.79690	         1.10611e+58
          1161.60320	         1.38318e+57
          1162.40950	         9.24898e+57
          1163.21580	         2.33796e+58
          1164.02210	         8.52826e+57
          1164.82840	         1.53905e+58
          1165.63470	         2.29151e+58
          1166.44100	         3.05987e+58
          1167.24730	         3.53143e+58
          1168.05360	         1.16636e+58
          1168.85990	         3.90290e+56
          1169.66620	         1.86243e+57
          1170.47250	         3.85621e+56
          1171.27880	         2.50500e+57
          1172.08510	         4.42228e+57
          1172.89140	         5.38976e+57
          1173.69770	         3.13644e+57
          1174.50400	         7.93394e+57
          1175.31030	         1.74020e+58
          1176.11660	         1.81827e+58
          1176.92290	         1.52928e+58
          1177.72920	         9.67069e+57
          1178.53550	         4.73631e+57
          1179.34180	         2.20387e+57
          1180.14810	         2.39584e+57
          1180.95440	         4.89151e+57
          1181.76070	         6.05733e+57
          1182.56700	         6.06002e+57
          1183.37330	         7.32029e+57
          1184.17960	         1.13443e+58
          1184.98590	         1.14933e+58
          1185.79220	         5.56087e+57
          1186.59850	         1.44939e+58
          1187.40480	         1.08219e+58
          1188.21110	         1.64068e+58
          1189.01740	         1.27543e+58
          1189.82370	         1.38871e+58
          1190.63000	         9.63031e+57
          1191.43630	         1.05702e+58
          1192.24260	         7.79247e+57
          1193.04890	         1.16931e+58
          1193.85520	         1.00620e+58
          1194.66150	         8.80381e+57
          1195.46780	         1.55821e+58
          1196.27410	         1.83060e+58
          1197.08040	         9.04044e+57
          1197.88670	         1.14627e+58
          1198.69300	         1.66251e+58
          1199.49930	         1.63540e+58
          1200.30560	         1.23714e+58
          1201.11190	         9.25763e+57
          1201.91820	         8.68453e+57
          1202.72450	         1.04447e+58
          1203.53080	         1.30310e+58
          1204.33710	         1.17609e+58
          1205.14340	         7.58256e+57
          1205.94970	         7.63356e+57
          1206.75600	         8.02773e+57
          1207.56230	         6.26222e+57
          1208.36860	         8.53219e+57
          1209.17490	         3.02703e+57
          1209.98120	         1.43799e+57
          1210.78750	         9.97232e+57
          1211.59380	         1.75405e+58
          1212.40010	         2.05570e+58
          1213.20640	         2.02092e+58
          1214.01270	         1.91962e+58
          1214.81900	         2.49544e+58
          1215.62530	         4.57140e+58
          1216.43160	         8.90844e+58
          1217.23790	         1.49538e+59
          1218.04420	         1.15772e+59
          1218.85050	         8.94894e+58
          1219.65680	         6.23138e+58
          1220.46310	         3.64418e+58
          1221.26940	         2.37620e+58
          1222.07570	         1.28937e+58
          1222.88200	         7.66192e+57
          1223.68830	         8.40501e+57
          1224.49460	         7.79045e+57
          1225.30090	         7.31329e+57
          1226.10720	         6.57292e+57
          1226.91350	         7.19451e+57
          1227.71980	         6.57149e+57
          1228.52610	         1.06020e+58
          1229.33240	         1.01640e+58
          1230.13870	         7.23775e+57
          1230.94500	         6.77753e+57
          1231.75130	         6.29613e+57
          1232.55760	         9.96247e+57
          1233.36390	         1.02870e+58
          1234.17020	         1.06233e+58
          1234.97650	         8.07041e+57
          1235.78280	         5.46314e+57
          1236.58910	         8.71882e+57
          1237.39540	         1.07531e+58
          1238.20170	         1.02891e+58
          1239.00800	         1.32384e+58
          1239.81430	         1.31421e+58
          1240.62060	         9.23123e+57
          1241.42690	         9.38704e+57
          1242.23320	         1.16894e+58
          1243.03950	         7.94284e+57
          1243.84580	         8.66338e+57
          1244.65210	         9.51899e+57
          1245.45840	         8.25766e+57
          1246.26470	         9.91528e+57
          1247.07100	         8.38960e+57
          1247.87730	         5.54944e+57
          1248.68360	         6.18362e+57
          1249.48990	         5.46951e+57
          1250.29620	         9.70830e+57
          1251.10250	         6.77535e+57
          1251.90880	         4.57653e+57
          1252.71510	         6.36600e+57
          1253.52140	         9.09714e+57
          1254.32770	         9.88251e+57
          1255.13400	         1.18767e+58
          1255.94030	         1.27584e+58
          1256.74660	         1.10067e+58
          1257.55290	         1.10765e+58
          1258.35920	         8.54575e+57
          1259.16550	         5.13988e+57
          1259.97180	         5.36403e+57
          1260.77810	         9.67907e+57
          1261.58440	         1.06275e+58
          1262.39070	         9.45472e+57
          1263.19700	         8.47927e+57
          1264.00330	         1.11083e+58
          1264.80960	         1.28380e+58
          1265.61590	         1.13628e+58
          1266.42220	         1.29481e+58
          1267.22850	         1.20305e+58
          1268.03480	         1.34407e+58
          1268.84110	         1.61803e+58
          1269.64740	         1.42666e+58
          1270.45370	         1.26166e+58
          1271.26000	         8.66480e+57
          1272.06630	         1.03016e+58
          1272.87260	         1.28157e+58
          1273.67890	         1.08615e+58
          1274.48520	         1.18831e+58
          1275.29150	         1.10789e+58
          1276.09780	         8.48811e+57
          1276.90410	         1.44347e+58
          1277.71040	         1.40442e+58
          1278.51670	         1.22798e+58
          1279.32300	         1.43798e+58
          1280.12930	         1.44334e+58
          1280.93560	         1.43432e+58
          1281.74190	         1.50758e+58
          1282.54820	         1.43463e+58
          1283.35450	         1.16402e+58
          1284.16080	         1.17632e+58
          1284.96710	         1.46911e+58
          1285.77340	         1.27145e+58
          1286.57970	         1.00996e+58
          1287.38600	         1.48915e+58
          1288.19230	         1.74056e+58
          1288.99860	         1.39574e+58
          1289.80490	         9.13253e+57
          1290.61120	         1.14745e+58
          1291.41750	         1.42110e+58
          1292.22380	         1.33277e+58
          1293.03010	         1.19435e+58
          1293.83640	         1.29344e+58
          1294.64270	         1.14552e+58
          1295.44900	         6.94173e+57
          1296.25530	         6.28321e+57
          1297.06160	         9.97981e+57
          1297.86790	         8.23784e+57
          1298.67420	         7.56423e+57
          1299.48050	         8.73365e+57
          1300.28680	         1.03806e+58
          1301.09310	         8.72246e+57
          1301.89940	         4.38305e+57
          1302.70570	         6.83669e+57
          1303.51200	         8.59279e+57
          1304.31830	         1.06861e+58
          1305.12460	         1.26242e+58
          1305.93090	         1.24025e+58
          1306.73720	         1.29499e+58
          1307.54350	         1.43895e+58
          1308.34980	         1.57183e+58
          1309.15610	         1.66384e+58
          1309.96240	         1.57034e+58
          1310.76870	         1.42190e+58
          1311.57500	         1.37845e+58
          1312.38130	         1.28435e+58
          1313.18760	         1.40939e+58
          1313.99390	         1.55995e+58
          1314.80020	         1.52704e+58
          1315.60650	         1.61327e+58
          1316.41280	         1.24085e+58
          1317.21910	         7.49051e+57
          1318.02540	         8.43675e+57
          1318.83170	         1.13092e+58
          1319.63800	         1.18126e+58
          1320.44430	         1.07698e+58
          1321.25060	         1.26147e+58
          1322.05690	         1.29106e+58
          1322.86320	         1.16238e+58
          1323.66950	         1.03063e+58
          1324.47580	         9.56158e+57
          1325.28210	         9.57390e+57
          1326.08840	         1.03854e+58
          1326.89470	         1.10730e+58
          1327.70100	         1.01750e+58
          1328.50730	         8.71809e+57
          1329.31360	         1.04307e+58
          1330.11990	         1.04146e+58
          1330.92620	         9.27224e+57
          1331.73250	         1.13572e+58
          1332.53880	         9.78232e+57
          1333.34510	         8.46968e+57
          1334.15140	         9.47649e+57
          1334.95770	         1.04625e+58
          1335.76400	         1.04715e+58
          1336.57030	         1.02445e+58
          1337.37660	         1.00729e+58
          1338.18290	         1.08058e+58
          1338.98920	         1.18064e+58
          1339.79550	         1.16516e+58
          1340.60180	         1.29180e+58
          1341.40810	         1.46031e+58
          1342.21440	         1.43521e+58
          1343.02070	         1.17253e+58
          1343.82700	         1.33334e+58
          1344.63330	         1.30867e+58
          1345.43960	         1.25155e+58
          1346.24590	         1.04410e+58
          1347.05220	         1.10995e+58
          1347.85850	         1.03131e+58
          1348.66480	         1.20799e+58
          1349.47110	         1.27463e+58
          1350.27740	         1.10046e+58
          1351.08370	         1.01884e+58
          1351.89000	         1.08224e+58
          1352.69630	         1.03347e+58
          1353.50260	         1.04268e+58
          1354.30890	         1.12013e+58
          1355.11520	         1.12195e+58
          1355.92150	         1.02233e+58
          1356.72780	         1.02118e+58
          1357.53410	         1.02315e+58
          1358.34040	         8.97663e+57
          1359.14670	         8.15719e+57
          1359.95300	         8.93993e+57
          1360.75930	         1.06029e+58
          1361.56560	         9.97044e+57
          1362.37190	         1.02640e+58
          1363.17820	         1.07586e+58
          1363.98450	         1.05751e+58
          1364.79080	         1.08128e+58
          1365.59710	         1.28427e+58
          1366.40340	         1.16513e+58
          1367.20970	         9.44651e+57
          1368.01600	         8.28188e+57
          1368.82230	         8.45195e+57
          1369.62860	         1.00894e+58
          1370.43490	         8.38150e+57
          1371.24120	         8.88850e+57
          1372.04750	         7.14252e+57
          1372.85380	         8.97606e+57
          1373.66010	         1.12986e+58
          1374.46640	         1.13784e+58
          1375.27270	         1.16601e+58
          1376.07900	         8.46622e+57
          1376.88530	         7.98316e+57
          1377.69160	         9.13049e+57
          1378.49790	         7.47075e+57
          1379.30420	         6.67962e+57
          1380.11050	         8.65818e+57
          1380.91680	         9.02845e+57
          1381.72310	         9.02727e+57
          1382.52940	         8.31787e+57
          1383.33570	         7.88746e+57
          1384.14200	         9.46082e+57
          1384.94830	         1.03027e+58
          1385.75460	         9.21183e+57
          1386.56090	         9.51932e+57
          1387.36720	         1.00941e+58
          1388.17350	         1.27293e+58
          1388.97980	         1.01079e+58
          1389.78610	         7.95766e+57
          1390.59240	         8.93077e+57
          1391.39870	         7.44980e+57
          1392.20500	         6.76474e+57
          1393.01130	         6.54043e+57
          1393.81760	         7.69613e+57
          1394.62390	         7.24067e+57
          1395.43020	         6.71813e+57
          1396.23650	         6.97254e+57
          1397.04280	         7.59688e+57
          1397.84910	         8.53201e+57
          1398.65540	         9.26365e+57
          1399.46170	         9.62922e+57
          1400.26800	         8.48943e+57
          1401.07430	         7.24548e+57
          1401.88060	         7.37659e+57
          1402.68690	         8.26707e+57
          1403.49320	         8.93745e+57
          1404.29950	         9.48183e+57
          1405.10580	         1.03895e+58
          1405.91210	         1.14973e+58
          1406.71840	         1.11347e+58
          1407.52470	         1.04916e+58
          1408.33100	         9.98532e+57
          1409.13730	         1.14229e+58
          1409.94360	         1.14964e+58
          1410.74990	         1.01645e+58
          1411.55620	         1.05100e+58
          1412.36250	         9.85922e+57
          1413.16880	         8.95685e+57
          1413.97510	         8.16139e+57
          1414.78140	         8.26056e+57
          1415.58770	         9.70455e+57
          1416.39400	         1.03385e+58
          1417.20030	         9.47634e+57
          1418.00660	         8.10566e+57
          1418.81290	         9.65949e+57
          1419.61920	         9.44448e+57
          1420.42550	         1.17985e+58
          1421.23180	         1.44943e+58
          1422.03810	         1.26799e+58
          1422.84440	         1.27449e+58
          1423.65070	         1.42884e+58
          1424.45700	         1.23799e+58
          1425.26330	         1.06013e+58
          1426.06960	         9.95618e+57
          1426.87590	         1.07084e+58
          1427.68220	         1.02557e+58
          1428.48850	         1.16669e+58
          1429.29480	         1.22519e+58
          1430.10110	         1.00817e+58
          1430.90740	         8.02275e+57
          1431.71370	         8.07090e+57
          1432.52000	         7.96546e+57
          1433.32630	         7.79045e+57
          1434.13260	         8.29967e+57
          1434.93890	         8.52387e+57
          1435.74520	         9.81963e+57
          1436.55150	         9.76069e+57
          1437.35780	         8.91959e+57
          1438.16410	         9.74388e+57
          1438.97040	         8.92184e+57
          1439.77670	         8.99385e+57
          1440.58300	         9.80553e+57
          1441.38930	         1.00850e+58
          1442.19560	         9.21758e+57
          1443.00190	         8.96208e+57
          1443.80820	         9.80615e+57
          1444.61450	         8.42041e+57
          1445.42080	         7.30340e+57
          1446.22710	         8.59424e+57
          1447.03340	         9.59433e+57
          1447.83970	         1.14479e+58
          1448.64600	         1.12225e+58
          1449.45230	         9.88666e+57
          1450.25860	         1.08263e+58
          1451.06490	         9.77589e+57
          1451.87120	         8.26002e+57
          1452.67750	         7.79409e+57
          1453.48380	         8.51528e+57
          1454.29010	         8.01388e+57
          1455.09640	         7.71578e+57
          1455.90270	         8.89636e+57
          1456.70900	         8.59891e+57
          1457.51530	         9.91891e+57
          1458.32160	         1.20547e+58
          1459.12790	         1.20606e+58
          1459.93420	         1.10788e+58
          1460.74050	         8.18187e+57
          1461.54680	         7.04127e+57
          1462.35310	         7.60697e+57
          1463.15940	         9.37350e+57
          1463.96570	         1.22315e+58
          1464.77200	         1.25925e+58
          1465.57830	         1.12691e+58
          1466.38460	         8.71049e+57
          1467.19090	         7.13193e+57
          1467.99720	         8.11516e+57
          1468.80350	         9.33398e+57
          1469.60980	         1.08256e+58
          1470.41610	         1.24844e+58
          1471.22240	         1.06805e+58
          1472.02870	         1.00597e+58
          1472.83500	         1.07829e+58
          1473.64130	         9.89664e+57
          1474.44760	         1.02866e+58
          1475.25390	         9.53873e+57
          1476.06020	         8.59669e+57
          1476.86650	         7.45941e+57
          1477.67280	         6.55502e+57
          1478.47910	         7.32187e+57
          1479.28540	         8.15815e+57
          1480.09170	         8.84179e+57
          1480.89800	         8.25281e+57
          1481.70430	         7.91982e+57
          1482.51060	         8.38175e+57
          1483.31690	         7.96711e+57
          1484.12320	         7.75646e+57
          1484.92950	         7.20567e+57
          1485.73580	         7.47337e+57
          1486.54210	         9.13896e+57
          1487.34840	         9.51466e+57
          1488.15470	         9.19809e+57
          1488.96100	         9.74068e+57
          1489.76730	         1.05732e+58
