#sample_490_stacked_spectrum_rest_UV-bands_median_H-alpha_noDC.txt
#median Lum: 1.71717e+42
#Rest-frame wavelength (A) | Luminosity (erg/s/A)
#
          1110.00000	         0.00000e+00
          1110.80630	        -1.69873e+59
          1111.61260	         1.54801e+59
          1112.41890	         2.19178e+59
          1113.22520	         4.35630e+58
          1114.03150	         3.59241e+58
          1114.83780	         1.90338e+59
          1115.64410	         6.62655e+58
          1116.45040	         1.97035e+59
          1117.25670	        -1.95941e+58
          1118.06300	        -6.92459e+57
          1118.86930	        -4.88045e+58
          1119.67560	         5.20217e+58
          1120.48190	        -1.79094e+58
          1121.28820	        -5.72159e+58
          1122.09450	        -6.31140e+58
          1122.90080	         3.27831e+58
          1123.70710	         9.51661e+58
          1124.51340	         7.57469e+58
          1125.31970	        -4.31413e+58
          1126.12600	        -1.64868e+58
          1126.93230	        -2.45600e+58
          1127.73860	        -2.58273e+58
          1128.54490	         2.29628e+58
          1129.35120	        -3.91803e+57
          1130.15750	        -8.21503e+58
          1130.96380	        -4.99732e+58
          1131.77010	         2.95200e+58
          1132.57640	        -1.73931e+57
          1133.38270	         4.60307e+58
          1134.18900	         1.93556e+58
          1134.99530	         4.00107e+57
          1135.80160	         1.94832e+58
          1136.60790	         1.16082e+58
          1137.41420	        -1.15891e+58
          1138.22050	         1.78340e+58
          1139.02680	         3.38757e+58
          1139.83310	         1.79516e+58
          1140.63940	         2.45170e+58
          1141.44570	        -3.47507e+57
          1142.25200	        -2.22359e+57
          1143.05830	         2.07107e+58
          1143.86460	         2.33090e+58
          1144.67090	         2.75213e+58
          1145.47720	         1.76365e+58
          1146.28350	         2.09595e+58
          1147.08980	         1.89021e+58
          1147.89610	         2.14174e+58
          1148.70240	         2.94436e+58
          1149.50870	         2.73769e+58
          1150.31500	         1.56670e+58
          1151.12130	         1.46470e+58
          1151.92760	         5.15005e+57
          1152.73390	         2.42215e+57
          1153.54020	        -8.21316e+57
          1154.34650	         1.40888e+58
          1155.15280	         2.02958e+58
          1155.95910	         4.87635e+57
          1156.76540	         3.76514e+56
          1157.57170	        -5.18596e+57
          1158.37800	        -4.15248e+56
          1159.18430	        -5.29025e+57
          1159.99060	         8.35466e+57
          1160.79690	         1.47755e+58
          1161.60320	         1.30274e+58
          1162.40950	         1.04353e+58
          1163.21580	         1.57297e+58
          1164.02210	         1.32710e+58
          1164.82840	         6.67290e+57
          1165.63470	         1.51749e+58
          1166.44100	         2.96843e+58
          1167.24730	         2.21341e+58
          1168.05360	         7.11660e+57
          1168.85990	         3.55250e+57
          1169.66620	         8.22441e+57
          1170.47250	         8.15696e+57
          1171.27880	         1.02953e+58
          1172.08510	         1.51328e+58
          1172.89140	         1.44607e+58
          1173.69770	         5.57629e+57
          1174.50400	         7.50840e+57
          1175.31030	         1.56170e+58
          1176.11660	         1.91408e+58
          1176.92290	         1.31303e+58
          1177.72920	         9.85961e+57
          1178.53550	         4.75669e+57
          1179.34180	        -9.81526e+56
          1180.14810	         3.00454e+57
          1180.95440	         1.50073e+58
          1181.76070	         1.18519e+58
          1182.56700	         5.83516e+57
          1183.37330	         3.54751e+57
          1184.17960	         1.00105e+58
          1184.98590	         7.90829e+57
          1185.79220	         4.64140e+57
          1186.59850	         1.09699e+58
          1187.40480	         1.11503e+58
          1188.21110	         1.26958e+58
          1189.01740	         1.15063e+58
          1189.82370	         1.69791e+58
          1190.63000	         1.22537e+58
          1191.43630	         1.16893e+58
          1192.24260	         8.99473e+57
          1193.04890	         1.28677e+58
          1193.85520	         1.15441e+58
          1194.66150	         6.43010e+57
          1195.46780	         1.40723e+58
          1196.27410	         1.65908e+58
          1197.08040	         1.32044e+58
          1197.88670	         1.41064e+58
          1198.69300	         1.48367e+58
          1199.49930	         1.95652e+58
          1200.30560	         1.26406e+58
          1201.11190	         4.81437e+57
          1201.91820	         6.80739e+57
          1202.72450	         8.62931e+57
          1203.53080	         1.58462e+58
          1204.33710	         8.40622e+57
          1205.14340	         6.47428e+57
          1205.94970	         9.08430e+57
          1206.75600	         7.38563e+57
          1207.56230	         4.79555e+57
          1208.36860	         6.76545e+57
          1209.17490	         5.13517e+57
          1209.98120	         7.57286e+57
          1210.78750	         8.70268e+57
          1211.59380	         8.73105e+57
          1212.40010	         1.58576e+58
          1213.20640	         2.16491e+58
          1214.01270	         1.99861e+58
          1214.81900	         2.68473e+58
          1215.62530	         4.94771e+58
          1216.43160	         9.56153e+58
          1217.23790	         1.57647e+59
          1218.04420	         1.11594e+59
          1218.85050	         8.16877e+58
          1219.65680	         5.72908e+58
          1220.46310	         3.28332e+58
          1221.26940	         2.20983e+58
          1222.07570	         1.29425e+58
          1222.88200	         8.75068e+57
          1223.68830	         1.16041e+58
          1224.49460	         9.30114e+57
          1225.30090	         8.50234e+57
          1226.10720	         9.74271e+57
          1226.91350	         6.76699e+57
          1227.71980	         8.76441e+57
          1228.52610	         1.09823e+58
          1229.33240	         8.28370e+57
          1230.13870	         5.48841e+57
          1230.94500	         6.96310e+57
          1231.75130	         7.05147e+57
          1232.55760	         9.07583e+57
          1233.36390	         7.72341e+57
          1234.17020	         8.72780e+57
          1234.97650	         8.38836e+57
          1235.78280	         8.00576e+57
          1236.58910	         8.68458e+57
          1237.39540	         1.15191e+58
          1238.20170	         1.21669e+58
          1239.00800	         1.13010e+58
          1239.81430	         1.30975e+58
          1240.62060	         1.14074e+58
          1241.42690	         1.15512e+58
          1242.23320	         1.42162e+58
          1243.03950	         9.51779e+57
          1243.84580	         8.31393e+57
          1244.65210	         1.00240e+58
          1245.45840	         9.28004e+57
          1246.26470	         6.71935e+57
          1247.07100	         5.03764e+57
          1247.87730	         5.06037e+57
          1248.68360	         4.30755e+57
          1249.48990	         6.41041e+57
          1250.29620	         8.51737e+57
          1251.10250	         6.46091e+57
          1251.90880	         3.29115e+57
          1252.71510	         6.90859e+57
          1253.52140	         1.25448e+58
          1254.32770	         1.18042e+58
          1255.13400	         1.16248e+58
          1255.94030	         1.04524e+58
          1256.74660	         7.87227e+57
          1257.55290	         8.93333e+57
          1258.35920	         8.97249e+57
          1259.16550	         7.57157e+57
          1259.97180	         6.16472e+57
          1260.77810	         7.90615e+57
          1261.58440	         9.88868e+57
          1262.39070	         7.76909e+57
          1263.19700	         7.41641e+57
          1264.00330	         9.06396e+57
          1264.80960	         1.07606e+58
          1265.61590	         1.17750e+58
          1266.42220	         1.17343e+58
          1267.22850	         1.21735e+58
          1268.03480	         1.48327e+58
          1268.84110	         1.47091e+58
          1269.64740	         1.40153e+58
          1270.45370	         1.65211e+58
          1271.26000	         1.42624e+58
          1272.06630	         1.28503e+58
          1272.87260	         1.18317e+58
          1273.67890	         1.08234e+58
          1274.48520	         1.17087e+58
          1275.29150	         1.25990e+58
          1276.09780	         1.10777e+58
          1276.90410	         1.41335e+58
          1277.71040	         1.27763e+58
          1278.51670	         1.00461e+58
          1279.32300	         1.37737e+58
          1280.12930	         1.40457e+58
          1280.93560	         1.09981e+58
          1281.74190	         1.16062e+58
          1282.54820	         1.37474e+58
          1283.35450	         1.15250e+58
          1284.16080	         1.12970e+58
          1284.96710	         1.30713e+58
          1285.77340	         1.14292e+58
          1286.57970	         1.03886e+58
          1287.38600	         1.25209e+58
          1288.19230	         1.62670e+58
          1288.99860	         1.59861e+58
          1289.80490	         1.25951e+58
          1290.61120	         1.45256e+58
          1291.41750	         1.39957e+58
          1292.22380	         1.10290e+58
          1293.03010	         1.18584e+58
          1293.83640	         1.24427e+58
          1294.64270	         1.00935e+58
          1295.44900	         7.03083e+57
          1296.25530	         7.29860e+57
          1297.06160	         1.03334e+58
          1297.86790	         1.10320e+58
          1298.67420	         1.04317e+58
          1299.48050	         9.54253e+57
          1300.28680	         9.13189e+57
          1301.09310	         5.84233e+57
          1301.89940	         3.53842e+57
          1302.70570	         5.13794e+57
          1303.51200	         6.99142e+57
          1304.31830	         9.68148e+57
          1305.12460	         1.06210e+58
          1305.93090	         1.03271e+58
          1306.73720	         1.31327e+58
          1307.54350	         1.59516e+58
          1308.34980	         1.45894e+58
          1309.15610	         1.49298e+58
          1309.96240	         1.59039e+58
          1310.76870	         1.37672e+58
          1311.57500	         1.08175e+58
          1312.38130	         1.19499e+58
          1313.18760	         1.37105e+58
          1313.99390	         1.50034e+58
          1314.80020	         1.58700e+58
          1315.60650	         1.34249e+58
          1316.41280	         1.27200e+58
          1317.21910	         1.25759e+58
          1318.02540	         1.16704e+58
          1318.83170	         1.25041e+58
          1319.63800	         1.19000e+58
          1320.44430	         1.00540e+58
          1321.25060	         1.12724e+58
          1322.05690	         1.29715e+58
          1322.86320	         1.29158e+58
          1323.66950	         1.10009e+58
          1324.47580	         8.66486e+57
          1325.28210	         9.07583e+57
          1326.08840	         1.12117e+58
          1326.89470	         1.28572e+58
          1327.70100	         1.16092e+58
          1328.50730	         8.80622e+57
          1329.31360	         9.02879e+57
          1330.11990	         9.14281e+57
          1330.92620	         9.58694e+57
          1331.73250	         1.10922e+58
          1332.53880	         1.02367e+58
          1333.34510	         9.00472e+57
          1334.15140	         9.86537e+57
          1334.95770	         9.90131e+57
          1335.76400	         1.03389e+58
          1336.57030	         1.15939e+58
          1337.37660	         1.09431e+58
          1338.18290	         9.31083e+57
          1338.98920	         1.21446e+58
          1339.79550	         1.28501e+58
          1340.60180	         1.26228e+58
          1341.40810	         1.22961e+58
          1342.21440	         9.89905e+57
          1343.02070	         1.19052e+58
          1343.82700	         1.45648e+58
          1344.63330	         1.40332e+58
          1345.43960	         1.41093e+58
          1346.24590	         1.23186e+58
          1347.05220	         1.10907e+58
          1347.85850	         9.95902e+57
          1348.66480	         1.15274e+58
          1349.47110	         1.26897e+58
          1350.27740	         1.17856e+58
          1351.08370	         1.16312e+58
          1351.89000	         1.16275e+58
          1352.69630	         1.07779e+58
          1353.50260	         1.15159e+58
          1354.30890	         1.23887e+58
          1355.11520	         1.29118e+58
          1355.92150	         1.13879e+58
          1356.72780	         9.13047e+57
          1357.53410	         9.29579e+57
          1358.34040	         9.84833e+57
          1359.14670	         1.17983e+58
          1359.95300	         1.23229e+58
          1360.75930	         1.25751e+58
          1361.56560	         1.17977e+58
          1362.37190	         1.08616e+58
          1363.17820	         1.12047e+58
          1363.98450	         1.29962e+58
          1364.79080	         1.38072e+58
          1365.59710	         1.28327e+58
          1366.40340	         1.10701e+58
          1367.20970	         8.63785e+57
          1368.01600	         8.86981e+57
          1368.82230	         9.63314e+57
          1369.62860	         1.05186e+58
          1370.43490	         7.80907e+57
          1371.24120	         9.04257e+57
          1372.04750	         9.58617e+57
          1372.85380	         1.08171e+58
          1373.66010	         1.11344e+58
          1374.46640	         1.04393e+58
          1375.27270	         1.11724e+58
          1376.07900	         9.57176e+57
          1376.88530	         8.48382e+57
          1377.69160	         8.42356e+57
          1378.49790	         8.38243e+57
          1379.30420	         8.71420e+57
          1380.11050	         9.68764e+57
          1380.91680	         1.08671e+58
          1381.72310	         9.41091e+57
          1382.52940	         8.32299e+57
          1383.33570	         9.84625e+57
          1384.14200	         1.09653e+58
          1384.94830	         1.02448e+58
          1385.75460	         9.28756e+57
          1386.56090	         1.02190e+58
          1387.36720	         1.04414e+58
          1388.17350	         1.36003e+58
          1388.97980	         1.04292e+58
          1389.78610	         7.91753e+57
          1390.59240	         7.16680e+57
          1391.39870	         6.98746e+57
          1392.20500	         7.20826e+57
          1393.01130	         7.58276e+57
          1393.81760	         8.04968e+57
          1394.62390	         7.72281e+57
          1395.43020	         5.86372e+57
          1396.23650	         5.28751e+57
          1397.04280	         6.82276e+57
          1397.84910	         8.51505e+57
          1398.65540	         8.85181e+57
          1399.46170	         1.05539e+58
          1400.26800	         9.57471e+57
          1401.07430	         8.59131e+57
          1401.88060	         7.89581e+57
          1402.68690	         7.74475e+57
          1403.49320	         9.61977e+57
          1404.29950	         1.02372e+58
          1405.10580	         1.07233e+58
          1405.91210	         1.10824e+58
          1406.71840	         1.08437e+58
          1407.52470	         1.01619e+58
          1408.33100	         1.01396e+58
          1409.13730	         1.05694e+58
          1409.94360	         1.19516e+58
          1410.74990	         1.25315e+58
          1411.55620	         1.12131e+58
          1412.36250	         1.02074e+58
          1413.16880	         9.30557e+57
          1413.97510	         7.18817e+57
          1414.78140	         7.48679e+57
          1415.58770	         1.08800e+58
          1416.39400	         1.19887e+58
          1417.20030	         9.83071e+57
          1418.00660	         8.55974e+57
          1418.81290	         8.61011e+57
          1419.61920	         9.65397e+57
          1420.42550	         1.18075e+58
          1421.23180	         1.32230e+58
          1422.03810	         1.19307e+58
          1422.84440	         9.74097e+57
          1423.65070	         1.25889e+58
          1424.45700	         1.23794e+58
          1425.26330	         8.51336e+57
          1426.06960	         7.52921e+57
          1426.87590	         9.98231e+57
          1427.68220	         9.91610e+57
          1428.48850	         1.10673e+58
          1429.29480	         1.17681e+58
          1430.10110	         9.94380e+57
          1430.90740	         7.80933e+57
          1431.71370	         7.91678e+57
          1432.52000	         8.67149e+57
          1433.32630	         7.91117e+57
          1434.13260	         8.00951e+57
          1434.93890	         8.56149e+57
          1435.74520	         9.56968e+57
          1436.55150	         9.41076e+57
          1437.35780	         8.33588e+57
          1438.16410	         9.67050e+57
          1438.97040	         9.45873e+57
          1439.77670	         8.93187e+57
          1440.58300	         9.75848e+57
          1441.38930	         9.79856e+57
          1442.19560	         9.48566e+57
          1443.00190	         8.57646e+57
          1443.80820	         1.00526e+58
          1444.61450	         9.47573e+57
          1445.42080	         7.41519e+57
          1446.22710	         9.04059e+57
          1447.03340	         1.04801e+58
          1447.83970	         1.15254e+58
          1448.64600	         1.11483e+58
          1449.45230	         1.03037e+58
          1450.25860	         1.04322e+58
          1451.06490	         9.24925e+57
          1451.87120	         7.30035e+57
          1452.67750	         6.20063e+57
          1453.48380	         7.52738e+57
          1454.29010	         8.22603e+57
          1455.09640	         8.60819e+57
          1455.90270	         8.79151e+57
          1456.70900	         9.20537e+57
          1457.51530	         9.51496e+57
          1458.32160	         1.24962e+58
          1459.12790	         1.25720e+58
          1459.93420	         1.01311e+58
          1460.74050	         8.77656e+57
          1461.54680	         8.04253e+57
          1462.35310	         8.06845e+57
          1463.15940	         9.32069e+57
          1463.96570	         9.31413e+57
          1464.77200	         1.03052e+58
          1465.57830	         9.59791e+57
          1466.38460	         8.61533e+57
          1467.19090	         8.62197e+57
          1467.99720	         8.62184e+57
          1468.80350	         9.87567e+57
          1469.60980	         9.40974e+57
          1470.41610	         9.50993e+57
          1471.22240	         1.04991e+58
          1472.02870	         1.02700e+58
          1472.83500	         9.29345e+57
          1473.64130	         9.46227e+57
          1474.44760	         9.48562e+57
          1475.25390	         9.62563e+57
          1476.06020	         8.52391e+57
          1476.86650	         6.70069e+57
          1477.67280	         5.53643e+57
          1478.47910	         6.40256e+57
          1479.28540	         7.55543e+57
          1480.09170	         7.74746e+57
          1480.89800	         8.09715e+57
          1481.70430	         7.72913e+57
          1482.51060	         7.78882e+57
          1483.31690	         7.51474e+57
          1484.12320	         7.07053e+57
          1484.92950	         7.82388e+57
          1485.73580	         8.66086e+57
          1486.54210	         8.58341e+57
          1487.34840	         8.53959e+57
          1488.15470	         9.16935e+57
          1488.96100	         9.36914e+57
          1489.76730	         9.71051e+57
