#sample_499_stacked_spectrum_rest_UV-bands_median_H-alpha_noDC.txt
#median Lum: 1.68681e+42
#Rest-frame wavelength (A) | Luminosity (erg/s/A)
#
          1110.00000	         0.00000e+00
          1110.80630	         3.22688e+59
          1111.61260	         4.10696e+59
          1112.41890	        -3.32634e+58
          1113.22520	        -1.06828e+59
          1114.03150	         1.41315e+59
          1114.83780	         8.88377e+58
          1115.64410	        -7.69218e+58
          1116.45040	        -3.97184e+57
          1117.25670	        -6.05868e+58
          1118.06300	         1.75073e+59
          1118.86930	         1.58342e+58
          1119.67560	         5.70752e+58
          1120.48190	        -4.45257e+58
          1121.28820	        -1.31593e+59
          1122.09450	        -3.90894e+58
          1122.90080	         3.84378e+58
          1123.70710	         4.81378e+58
          1124.51340	         1.96709e+59
          1125.31970	         4.03828e+58
          1126.12600	         3.50460e+57
          1126.93230	        -2.62872e+58
          1127.73860	        -5.12708e+58
          1128.54490	        -2.31373e+58
          1129.35120	         4.96684e+57
          1130.15750	        -2.61351e+57
          1130.96380	        -6.00891e+58
          1131.77010	         3.68124e+58
          1132.57640	         4.49772e+58
          1133.38270	         6.30166e+58
          1134.18900	         3.36750e+58
          1134.99530	         9.31450e+57
          1135.80160	         2.03419e+58
          1136.60790	         1.55724e+58
          1137.41420	         9.22516e+57
          1138.22050	         4.47691e+58
          1139.02680	         4.04030e+58
          1139.83310	         4.18347e+58
          1140.63940	         2.26328e+58
          1141.44570	        -2.01043e+58
          1142.25200	        -5.65517e+57
          1143.05830	         2.80893e+58
          1143.86460	         2.01904e+58
          1144.67090	         1.59200e+58
          1145.47720	         1.41866e+58
          1146.28350	         1.71499e+58
          1147.08980	         7.13624e+57
          1147.89610	         8.84814e+57
          1148.70240	         1.79206e+58
          1149.50870	         2.15410e+58
          1150.31500	         1.56157e+58
          1151.12130	         1.28043e+58
          1151.92760	         1.16694e+58
          1152.73390	         1.67780e+58
          1153.54020	         2.33963e+58
          1154.34650	         3.19943e+58
          1155.15280	         2.78378e+58
          1155.95910	         9.56445e+57
          1156.76540	         1.19996e+58
          1157.57170	         1.31302e+58
          1158.37800	         1.96104e+57
          1159.18430	        -2.23661e+57
          1159.99060	         5.47105e+57
          1160.79690	         1.04816e+58
          1161.60320	         2.01601e+58
          1162.40950	         1.06715e+58
          1163.21580	         1.69804e+58
          1164.02210	         2.06812e+58
          1164.82840	         1.06560e+58
          1165.63470	         1.78561e+58
          1166.44100	         3.55650e+58
          1167.24730	         1.99402e+58
          1168.05360	         1.37397e+58
          1168.85990	         6.58828e+57
          1169.66620	         6.11630e+57
          1170.47250	         1.57707e+58
          1171.27880	         1.86288e+58
          1172.08510	         1.88433e+58
          1172.89140	         1.12980e+58
          1173.69770	        -8.95812e+56
          1174.50400	         6.20809e+57
          1175.31030	         1.41248e+58
          1176.11660	         1.84645e+58
          1176.92290	         2.00643e+58
          1177.72920	         1.25406e+58
          1178.53550	         6.48963e+57
          1179.34180	         3.70204e+57
          1180.14810	         8.21784e+57
          1180.95440	         8.29812e+57
          1181.76070	         4.36369e+57
          1182.56700	         1.69658e+55
          1183.37330	         2.35863e+57
          1184.17960	         1.34615e+58
          1184.98590	         1.18204e+58
          1185.79220	         5.86006e+57
          1186.59850	         1.36803e+58
          1187.40480	         1.26598e+58
          1188.21110	         1.09587e+58
          1189.01740	         1.49009e+58
          1189.82370	         1.39439e+58
          1190.63000	         1.29124e+58
          1191.43630	         1.03499e+58
          1192.24260	         4.89061e+57
          1193.04890	         1.27062e+58
          1193.85520	         1.06663e+58
          1194.66150	         5.10388e+57
          1195.46780	         1.48715e+58
          1196.27410	         1.62951e+58
          1197.08040	         7.71149e+57
          1197.88670	         1.07691e+58
          1198.69300	         1.34245e+58
          1199.49930	         1.32131e+58
          1200.30560	         1.38342e+58
          1201.11190	         1.37391e+58
          1201.91820	         1.22802e+58
          1202.72450	         4.97064e+57
          1203.53080	         1.18832e+58
          1204.33710	         1.06929e+58
          1205.14340	         4.75331e+57
          1205.94970	         5.11686e+57
          1206.75600	         7.38822e+57
          1207.56230	         7.64115e+57
          1208.36860	         7.17337e+57
          1209.17490	         2.11267e+57
          1209.98120	         4.79580e+57
          1210.78750	         1.10868e+58
          1211.59380	         1.06587e+58
          1212.40010	         1.51534e+58
          1213.20640	         1.81074e+58
          1214.01270	         1.93785e+58
          1214.81900	         2.20935e+58
          1215.62530	         4.36340e+58
          1216.43160	         9.00051e+58
          1217.23790	         1.49284e+59
          1218.04420	         1.13284e+59
          1218.85050	         8.44330e+58
          1219.65680	         5.79010e+58
          1220.46310	         3.26509e+58
          1221.26940	         2.17520e+58
          1222.07570	         1.61527e+58
          1222.88200	         8.88301e+57
          1223.68830	         8.19149e+57
          1224.49460	         9.01542e+57
          1225.30090	         6.27604e+57
          1226.10720	         7.09878e+57
          1226.91350	         6.86538e+57
          1227.71980	         5.98887e+57
          1228.52610	         1.19056e+58
          1229.33240	         1.01805e+58
          1230.13870	         8.32350e+57
          1230.94500	         6.50648e+57
          1231.75130	         5.60281e+57
          1232.55760	         8.16612e+57
          1233.36390	         8.75689e+57
          1234.17020	         9.68312e+57
          1234.97650	         8.17318e+57
          1235.78280	         6.44514e+57
          1236.58910	         8.25353e+57
          1237.39540	         1.22798e+58
          1238.20170	         1.12908e+58
          1239.00800	         1.35330e+58
          1239.81430	         1.68851e+58
          1240.62060	         1.09017e+58
          1241.42690	         9.27680e+57
          1242.23320	         1.12487e+58
          1243.03950	         7.26306e+57
          1243.84580	         7.03923e+57
          1244.65210	         8.34982e+57
          1245.45840	         9.62282e+57
          1246.26470	         1.03131e+58
          1247.07100	         7.94088e+57
          1247.87730	         8.36730e+57
          1248.68360	         7.43068e+57
          1249.48990	         3.93020e+57
          1250.29620	         6.38114e+57
          1251.10250	         8.96276e+57
          1251.90880	         6.82937e+57
          1252.71510	         4.87432e+57
          1253.52140	         8.61728e+57
          1254.32770	         1.10144e+58
          1255.13400	         1.31356e+58
          1255.94030	         1.06331e+58
          1256.74660	         8.46813e+57
          1257.55290	         9.15482e+57
          1258.35920	         8.48806e+57
          1259.16550	         5.31702e+57
          1259.97180	         5.88472e+57
          1260.77810	         9.74564e+57
          1261.58440	         1.07658e+58
          1262.39070	         8.63859e+57
          1263.19700	         8.58216e+57
          1264.00330	         1.05365e+58
          1264.80960	         1.02942e+58
          1265.61590	         1.17206e+58
          1266.42220	         1.21593e+58
          1267.22850	         1.15538e+58
          1268.03480	         1.55226e+58
          1268.84110	         1.49629e+58
          1269.64740	         1.20267e+58
          1270.45370	         1.47818e+58
          1271.26000	         1.41913e+58
          1272.06630	         1.10705e+58
          1272.87260	         1.24482e+58
          1273.67890	         1.25204e+58
          1274.48520	         1.33612e+58
          1275.29150	         1.49412e+58
          1276.09780	         1.39681e+58
          1276.90410	         1.62941e+58
          1277.71040	         1.52862e+58
          1278.51670	         1.31225e+58
          1279.32300	         1.25790e+58
          1280.12930	         1.27791e+58
          1280.93560	         1.21293e+58
          1281.74190	         1.24475e+58
          1282.54820	         1.22104e+58
          1283.35450	         9.66772e+57
          1284.16080	         1.05503e+58
          1284.96710	         1.26196e+58
          1285.77340	         1.18455e+58
          1286.57970	         1.35855e+58
          1287.38600	         1.48791e+58
          1288.19230	         1.90409e+58
          1288.99860	         1.83438e+58
          1289.80490	         1.19369e+58
          1290.61120	         1.31664e+58
          1291.41750	         1.42815e+58
          1292.22380	         1.25381e+58
          1293.03010	         1.04463e+58
          1293.83640	         1.29672e+58
          1294.64270	         1.17612e+58
          1295.44900	         9.03874e+57
          1296.25530	         8.51811e+57
          1297.06160	         9.87171e+57
          1297.86790	         1.16039e+58
          1298.67420	         1.03594e+58
          1299.48050	         8.83196e+57
          1300.28680	         9.25902e+57
          1301.09310	         8.00591e+57
          1301.89940	         3.11747e+57
          1302.70570	         5.00592e+57
          1303.51200	         8.07228e+57
          1304.31830	         1.06043e+58
          1305.12460	         1.13382e+58
          1305.93090	         1.23398e+58
          1306.73720	         1.33615e+58
          1307.54350	         1.46308e+58
          1308.34980	         1.51611e+58
          1309.15610	         1.54293e+58
          1309.96240	         1.58677e+58
          1310.76870	         1.37609e+58
          1311.57500	         1.20292e+58
          1312.38130	         1.04392e+58
          1313.18760	         1.34211e+58
          1313.99390	         1.47970e+58
          1314.80020	         1.64521e+58
          1315.60650	         1.51186e+58
          1316.41280	         1.31219e+58
          1317.21910	         1.23129e+58
          1318.02540	         1.19941e+58
          1318.83170	         1.28475e+58
          1319.63800	         1.20304e+58
          1320.44430	         1.03518e+58
          1321.25060	         1.08155e+58
          1322.05690	         1.25871e+58
          1322.86320	         1.28490e+58
          1323.66950	         1.02740e+58
          1324.47580	         9.05015e+57
          1325.28210	         1.06517e+58
          1326.08840	         1.23910e+58
          1326.89470	         1.32822e+58
          1327.70100	         1.03033e+58
          1328.50730	         8.52075e+57
          1329.31360	         9.20545e+57
          1330.11990	         8.65300e+57
          1330.92620	         8.73126e+57
          1331.73250	         1.03951e+58
          1332.53880	         1.01098e+58
          1333.34510	         8.88742e+57
          1334.15140	         9.28536e+57
          1334.95770	         9.67008e+57
          1335.76400	         1.02487e+58
          1336.57030	         1.11620e+58
          1337.37660	         1.12357e+58
          1338.18290	         1.00808e+58
          1338.98920	         1.08196e+58
          1339.79550	         1.20631e+58
          1340.60180	         1.35956e+58
          1341.40810	         1.28924e+58
          1342.21440	         1.03247e+58
          1343.02070	         1.11781e+58
          1343.82700	         1.46262e+58
          1344.63330	         1.42639e+58
          1345.43960	         1.35198e+58
          1346.24590	         1.12173e+58
          1347.05220	         1.12001e+58
          1347.85850	         1.22759e+58
          1348.66480	         1.21780e+58
          1349.47110	         1.27765e+58
          1350.27740	         1.23079e+58
          1351.08370	         1.02025e+58
          1351.89000	         1.04462e+58
          1352.69630	         1.18503e+58
          1353.50260	         1.24103e+58
          1354.30890	         1.15358e+58
          1355.11520	         1.24209e+58
          1355.92150	         1.18501e+58
          1356.72780	         9.92234e+57
          1357.53410	         1.05434e+58
          1358.34040	         1.11755e+58
          1359.14670	         1.01901e+58
          1359.95300	         1.04296e+58
          1360.75930	         1.14250e+58
          1361.56560	         1.23104e+58
          1362.37190	         1.17381e+58
          1363.17820	         1.14902e+58
          1363.98450	         1.19252e+58
          1364.79080	         1.23720e+58
          1365.59710	         1.22991e+58
          1366.40340	         1.09556e+58
          1367.20970	         9.81123e+57
          1368.01600	         9.58717e+57
          1368.82230	         9.32999e+57
          1369.62860	         1.20813e+58
          1370.43490	         1.07842e+58
          1371.24120	         9.60906e+57
          1372.04750	         8.60019e+57
          1372.85380	         1.03816e+58
          1373.66010	         1.15856e+58
          1374.46640	         1.00765e+58
          1375.27270	         9.84728e+57
          1376.07900	         8.24556e+57
          1376.88530	         8.31547e+57
          1377.69160	         9.15934e+57
          1378.49790	         7.81543e+57
          1379.30420	         7.83479e+57
          1380.11050	         1.02734e+58
          1380.91680	         1.05527e+58
          1381.72310	         8.67270e+57
          1382.52940	         7.37190e+57
          1383.33570	         8.00237e+57
          1384.14200	         9.93073e+57
          1384.94830	         1.10570e+58
          1385.75460	         9.52754e+57
          1386.56090	         1.08282e+58
          1387.36720	         1.03872e+58
          1388.17350	         1.31188e+58
          1388.97980	         1.03693e+58
          1389.78610	         8.07623e+57
          1390.59240	         8.29067e+57
          1391.39870	         7.27957e+57
          1392.20500	         1.00111e+58
          1393.01130	         8.65262e+57
          1393.81760	         6.80577e+57
          1394.62390	         8.15642e+57
          1395.43020	         6.37963e+57
          1396.23650	         3.85733e+57
          1397.04280	         6.66285e+57
          1397.84910	         8.13143e+57
          1398.65540	         8.09917e+57
          1399.46170	         8.41036e+57
          1400.26800	         8.50617e+57
          1401.07430	         7.41091e+57
          1401.88060	         8.27766e+57
          1402.68690	         1.01669e+58
          1403.49320	         1.00296e+58
          1404.29950	         8.37383e+57
          1405.10580	         1.00306e+58
          1405.91210	         1.23019e+58
          1406.71840	         1.09998e+58
          1407.52470	         9.79617e+57
          1408.33100	         9.22798e+57
          1409.13730	         1.06008e+58
          1409.94360	         1.16056e+58
          1410.74990	         1.13100e+58
          1411.55620	         9.46477e+57
          1412.36250	         8.03591e+57
          1413.16880	         8.01990e+57
          1413.97510	         6.91192e+57
          1414.78140	         8.20431e+57
          1415.58770	         9.06671e+57
          1416.39400	         9.00310e+57
          1417.20030	         1.08682e+58
          1418.00660	         9.45442e+57
          1418.81290	         9.51529e+57
          1419.61920	         1.16844e+58
          1420.42550	         1.18081e+58
          1421.23180	         1.29330e+58
          1422.03810	         1.25355e+58
          1422.84440	         1.04859e+58
          1423.65070	         1.26135e+58
          1424.45700	         1.20956e+58
          1425.26330	         9.02194e+57
          1426.06960	         8.56274e+57
          1426.87590	         1.03037e+58
          1427.68220	         9.53636e+57
          1428.48850	         1.11181e+58
          1429.29480	         1.12626e+58
          1430.10110	         1.08242e+58
          1430.90740	         9.30605e+57
          1431.71370	         8.58565e+57
          1432.52000	         8.30316e+57
          1433.32630	         7.79896e+57
          1434.13260	         7.48196e+57
          1434.93890	         8.41407e+57
          1435.74520	         9.17618e+57
          1436.55150	         8.38923e+57
          1437.35780	         8.48409e+57
          1438.16410	         9.95486e+57
          1438.97040	         9.39664e+57
          1439.77670	         8.57148e+57
          1440.58300	         9.29027e+57
          1441.38930	         9.12044e+57
          1442.19560	         9.03926e+57
          1443.00190	         1.02298e+58
          1443.80820	         1.06170e+58
          1444.61450	         1.00787e+58
          1445.42080	         9.52939e+57
          1446.22710	         1.05430e+58
          1447.03340	         1.09262e+58
          1447.83970	         1.08688e+58
          1448.64600	         1.09391e+58
          1449.45230	         1.04920e+58
          1450.25860	         9.93784e+57
          1451.06490	         8.97507e+57
          1451.87120	         8.49634e+57
          1452.67750	         7.56007e+57
          1453.48380	         8.83946e+57
          1454.29010	         8.03021e+57
          1455.09640	         7.76948e+57
          1455.90270	         9.07356e+57
          1456.70900	         9.10869e+57
          1457.51530	         9.54128e+57
          1458.32160	         1.19678e+58
          1459.12790	         1.25696e+58
          1459.93420	         9.69505e+57
          1460.74050	         7.90317e+57
          1461.54680	         8.43706e+57
          1462.35310	         7.93997e+57
          1463.15940	         8.93901e+57
          1463.96570	         1.11902e+58
          1464.77200	         1.24281e+58
          1465.57830	         1.09745e+58
          1466.38460	         9.74371e+57
          1467.19090	         9.21663e+57
          1467.99720	         9.20722e+57
          1468.80350	         9.33069e+57
          1469.60980	         8.81836e+57
          1470.41610	         1.02132e+58
          1471.22240	         9.26872e+57
          1472.02870	         1.01721e+58
          1472.83500	         1.11929e+58
          1473.64130	         9.18070e+57
          1474.44760	         8.91811e+57
          1475.25390	         9.12488e+57
          1476.06020	         9.15331e+57
          1476.86650	         9.16769e+57
          1477.67280	         8.37471e+57
          1478.47910	         6.61247e+57
          1479.28540	         7.16891e+57
          1480.09170	         8.89460e+57
          1480.89800	         8.99389e+57
          1481.70430	         9.28112e+57
          1482.51060	         8.49636e+57
          1483.31690	         8.02748e+57
          1484.12320	         7.56254e+57
          1484.92950	         7.09725e+57
          1485.73580	         7.69301e+57
          1486.54210	         8.70304e+57
          1487.34840	         8.30517e+57
          1488.15470	         8.51937e+57
          1488.96100	         8.92796e+57
          1489.76730	         9.18854e+57
