#sample_444_stacked_spectrum_rest_UV-bands_median_H-alpha_noDC.txt
#median Lum: 1.70882e+42
#Rest-frame wavelength (A) | Luminosity (erg/s/A)
#
          1110.00000	         0.00000e+00
          1110.80630	        -3.35853e+59
          1111.61260	         3.42797e+58
          1112.41890	         9.77487e+58
          1113.22520	        -7.72083e+58
          1114.03150	        -8.36777e+58
          1114.83780	         1.45892e+59
          1115.64410	         1.24725e+59
          1116.45040	         2.17978e+59
          1117.25670	        -5.83747e+58
          1118.06300	         1.45693e+58
          1118.86930	         2.20174e+58
          1119.67560	         1.16106e+59
          1120.48190	         3.75754e+58
          1121.28820	        -1.18308e+59
          1122.09450	         5.95477e+57
          1122.90080	         2.24568e+57
          1123.70710	         9.42323e+58
          1124.51340	         8.23244e+58
          1125.31970	         3.44624e+58
          1126.12600	         2.24394e+58
          1126.93230	        -2.91605e+58
          1127.73860	        -7.28862e+58
          1128.54490	        -1.71591e+57
          1129.35120	         2.38361e+58
          1130.15750	        -3.70307e+58
          1130.96380	        -6.03399e+58
          1131.77010	         1.23597e+58
          1132.57640	         1.45999e+58
          1133.38270	        -5.90846e+57
          1134.18900	        -2.02915e+58
          1134.99530	         2.78955e+58
          1135.80160	         2.22855e+58
          1136.60790	         2.14282e+57
          1137.41420	        -4.17164e+57
          1138.22050	         6.25470e+58
          1139.02680	         3.23275e+58
          1139.83310	         3.17486e+58
          1140.63940	         1.77022e+58
          1141.44570	        -4.97482e+57
          1142.25200	         1.53677e+58
          1143.05830	         1.97890e+58
          1143.86460	         1.45151e+58
          1144.67090	         3.68885e+58
          1145.47720	         9.68471e+57
          1146.28350	         9.86892e+57
          1147.08980	         1.39340e+58
          1147.89610	         1.72203e+58
          1148.70240	         1.48575e+58
          1149.50870	         3.49397e+58
          1150.31500	         1.00055e+58
          1151.12130	         2.86946e+57
          1151.92760	        -8.94029e+57
          1152.73390	        -4.43184e+57
          1153.54020	         8.10141e+57
          1154.34650	         2.63962e+58
          1155.15280	         1.84630e+58
          1155.95910	         2.53932e+57
          1156.76540	         1.07045e+58
          1157.57170	         4.75090e+57
          1158.37800	         1.30080e+57
          1159.18430	        -3.77610e+57
          1159.99060	         1.19118e+58
          1160.79690	         3.38803e+57
          1161.60320	         4.20980e+57
          1162.40950	         1.43700e+58
          1163.21580	         1.16819e+58
          1164.02210	         1.31149e+58
          1164.82840	         2.22674e+57
          1165.63470	         1.86275e+58
          1166.44100	         2.70252e+58
          1167.24730	         2.17390e+58
          1168.05360	         7.15682e+57
          1168.85990	         6.82706e+57
          1169.66620	         1.20875e+58
          1170.47250	         8.10194e+57
          1171.27880	         2.62072e+57
          1172.08510	         5.96470e+57
          1172.89140	         5.67090e+57
          1173.69770	         8.03690e+57
          1174.50400	         6.12470e+57
          1175.31030	         9.36964e+57
          1176.11660	         1.82479e+58
          1176.92290	         1.45086e+58
          1177.72920	         9.45543e+57
          1178.53550	         9.53775e+57
          1179.34180	         1.91487e+57
          1180.14810	         3.91649e+57
          1180.95440	         1.20942e+58
          1181.76070	         8.29018e+57
          1182.56700	         6.94609e+57
          1183.37330	         7.28806e+57
          1184.17960	         1.08240e+58
          1184.98590	         5.19161e+57
          1185.79220	         1.67904e+57
          1186.59850	         1.06402e+58
          1187.40480	         1.41962e+58
          1188.21110	         1.61872e+58
          1189.01740	         1.09445e+58
          1189.82370	         1.08123e+58
          1190.63000	         1.44303e+58
          1191.43630	         1.43993e+58
          1192.24260	         1.00409e+58
          1193.04890	         1.15171e+58
          1193.85520	         1.29275e+58
          1194.66150	         7.09850e+57
          1195.46780	         5.65559e+57
          1196.27410	         1.22502e+58
          1197.08040	         1.30446e+58
          1197.88670	         1.28563e+58
          1198.69300	         1.22886e+58
          1199.49930	         1.50915e+58
          1200.30560	         1.28982e+58
          1201.11190	         1.24959e+58
          1201.91820	         1.48258e+58
          1202.72450	         1.10590e+58
          1203.53080	         9.21628e+57
          1204.33710	         6.98667e+57
          1205.14340	         4.57219e+57
          1205.94970	         4.89085e+57
          1206.75600	         5.90183e+57
          1207.56230	         7.11818e+57
          1208.36860	         7.87228e+57
          1209.17490	         1.35536e+57
          1209.98120	         3.76574e+57
          1210.78750	         4.51711e+57
          1211.59380	         9.90916e+57
          1212.40010	         1.80202e+58
          1213.20640	         1.99623e+58
          1214.01270	         2.31912e+58
          1214.81900	         2.66847e+58
          1215.62530	         4.32070e+58
          1216.43160	         8.93456e+58
          1217.23790	         1.54152e+59
          1218.04420	         1.14740e+59
          1218.85050	         8.86215e+58
          1219.65680	         6.14197e+58
          1220.46310	         3.38499e+58
          1221.26940	         2.20444e+58
          1222.07570	         1.66544e+58
          1222.88200	         1.20229e+58
          1223.68830	         8.83874e+57
          1224.49460	         7.53525e+57
          1225.30090	         5.74065e+57
          1226.10720	         5.31303e+57
          1226.91350	         8.12865e+57
          1227.71980	         8.09027e+57
          1228.52610	         1.19159e+58
          1229.33240	         1.00381e+58
          1230.13870	         7.42606e+57
          1230.94500	         6.68687e+57
          1231.75130	         6.89222e+57
          1232.55760	         1.03866e+58
          1233.36390	         1.05635e+58
          1234.17020	         9.64381e+57
          1234.97650	         9.13229e+57
          1235.78280	         8.15719e+57
          1236.58910	         1.04919e+58
          1237.39540	         9.36187e+57
          1238.20170	         9.34993e+57
          1239.00800	         1.26562e+58
          1239.81430	         1.47830e+58
          1240.62060	         1.31981e+58
          1241.42690	         1.14857e+58
          1242.23320	         1.26920e+58
          1243.03950	         9.07041e+57
          1243.84580	         9.37606e+57
          1244.65210	         1.09097e+58
          1245.45840	         1.13789e+58
          1246.26470	         1.30414e+58
          1247.07100	         1.07776e+58
          1247.87730	         5.59468e+57
          1248.68360	         1.56449e+57
          1249.48990	         4.83066e+57
          1250.29620	         8.75602e+57
          1251.10250	         4.37399e+57
          1251.90880	         4.32024e+57
          1252.71510	         5.35712e+57
          1253.52140	         6.05280e+57
          1254.32770	         1.03895e+58
          1255.13400	         1.40804e+58
          1255.94030	         1.16087e+58
          1256.74660	         9.09547e+57
          1257.55290	         9.48269e+57
          1258.35920	         7.09521e+57
          1259.16550	         3.45593e+57
          1259.97180	         6.02498e+57
          1260.77810	         9.30571e+57
          1261.58440	         1.14475e+58
          1262.39070	         7.32211e+57
          1263.19700	         8.06992e+57
          1264.00330	         1.00794e+58
          1264.80960	         1.07947e+58
          1265.61590	         1.27968e+58
          1266.42220	         1.36261e+58
          1267.22850	         1.19116e+58
          1268.03480	         1.30240e+58
          1268.84110	         1.51041e+58
          1269.64740	         1.38131e+58
          1270.45370	         1.47340e+58
          1271.26000	         1.26525e+58
          1272.06630	         1.24371e+58
          1272.87260	         1.33849e+58
          1273.67890	         1.22011e+58
          1274.48520	         1.21268e+58
          1275.29150	         1.12278e+58
          1276.09780	         1.18075e+58
          1276.90410	         1.47497e+58
          1277.71040	         1.42361e+58
          1278.51670	         1.44983e+58
          1279.32300	         1.51859e+58
          1280.12930	         1.39311e+58
          1280.93560	         1.21749e+58
          1281.74190	         1.34937e+58
          1282.54820	         1.23777e+58
          1283.35450	         1.02576e+58
          1284.16080	         1.07685e+58
          1284.96710	         1.38568e+58
          1285.77340	         1.30628e+58
          1286.57970	         1.19406e+58
          1287.38600	         1.61088e+58
          1288.19230	         1.75988e+58
          1288.99860	         1.39056e+58
          1289.80490	         1.13565e+58
          1290.61120	         1.49344e+58
          1291.41750	         1.55602e+58
          1292.22380	         1.28452e+58
          1293.03010	         1.14839e+58
          1293.83640	         1.22816e+58
          1294.64270	         1.06838e+58
          1295.44900	         5.51363e+57
          1296.25530	         3.89684e+57
          1297.06160	         7.15264e+57
          1297.86790	         8.65420e+57
          1298.67420	         8.07820e+57
          1299.48050	         8.92211e+57
          1300.28680	         1.06214e+58
          1301.09310	         1.03073e+58
          1301.89940	         5.54366e+57
          1302.70570	         6.96913e+57
          1303.51200	         8.54863e+57
          1304.31830	         1.02008e+58
          1305.12460	         1.22247e+58
          1305.93090	         1.31900e+58
          1306.73720	         1.31141e+58
          1307.54350	         1.48886e+58
          1308.34980	         1.54581e+58
          1309.15610	         1.45227e+58
          1309.96240	         1.54326e+58
          1310.76870	         1.26380e+58
          1311.57500	         9.98186e+57
          1312.38130	         1.23597e+58
          1313.18760	         1.42616e+58
          1313.99390	         1.57162e+58
          1314.80020	         1.62308e+58
          1315.60650	         1.49776e+58
          1316.41280	         1.20570e+58
          1317.21910	         9.56285e+57
          1318.02540	         1.22070e+58
          1318.83170	         1.32435e+58
          1319.63800	         1.01196e+58
          1320.44430	         9.73534e+57
          1321.25060	         1.23682e+58
          1322.05690	         1.39422e+58
          1322.86320	         1.22143e+58
          1323.66950	         9.64097e+57
          1324.47580	         9.00088e+57
          1325.28210	         9.53425e+57
          1326.08840	         1.03650e+58
          1326.89470	         1.09759e+58
          1327.70100	         1.00102e+58
          1328.50730	         8.67276e+57
          1329.31360	         1.03346e+58
          1330.11990	         1.09175e+58
          1330.92620	         9.74677e+57
          1331.73250	         1.05261e+58
          1332.53880	         1.01355e+58
          1333.34510	         9.44925e+57
          1334.15140	         8.42461e+57
          1334.95770	         8.95760e+57
          1335.76400	         1.07756e+58
          1336.57030	         1.14695e+58
          1337.37660	         1.01396e+58
          1338.18290	         1.15863e+58
          1338.98920	         1.18941e+58
          1339.79550	         1.07876e+58
          1340.60180	         1.22786e+58
          1341.40810	         1.40137e+58
          1342.21440	         1.10957e+58
          1343.02070	         1.07359e+58
          1343.82700	         1.36804e+58
          1344.63330	         1.37965e+58
          1345.43960	         1.29246e+58
          1346.24590	         1.07364e+58
          1347.05220	         1.19622e+58
          1347.85850	         1.04869e+58
          1348.66480	         1.19438e+58
          1349.47110	         1.24765e+58
          1350.27740	         1.20753e+58
          1351.08370	         1.08571e+58
          1351.89000	         1.09313e+58
          1352.69630	         1.13087e+58
          1353.50260	         1.06936e+58
          1354.30890	         1.17941e+58
          1355.11520	         1.19606e+58
          1355.92150	         1.13996e+58
          1356.72780	         1.06725e+58
          1357.53410	         9.78283e+57
          1358.34040	         9.16839e+57
          1359.14670	         8.82234e+57
          1359.95300	         1.01954e+58
          1360.75930	         1.08009e+58
          1361.56560	         1.06291e+58
          1362.37190	         1.19042e+58
          1363.17820	         1.14277e+58
          1363.98450	         1.07815e+58
          1364.79080	         1.15178e+58
          1365.59710	         1.29353e+58
          1366.40340	         1.33836e+58
          1367.20970	         9.86331e+57
          1368.01600	         8.38230e+57
          1368.82230	         9.68147e+57
          1369.62860	         9.76719e+57
          1370.43490	         8.52408e+57
          1371.24120	         9.27209e+57
          1372.04750	         9.76150e+57
          1372.85380	         1.12906e+58
          1373.66010	         1.12374e+58
          1374.46640	         1.15211e+58
          1375.27270	         1.22389e+58
          1376.07900	         9.91668e+57
          1376.88530	         7.89811e+57
          1377.69160	         8.15153e+57
          1378.49790	         6.47560e+57
          1379.30420	         7.28950e+57
          1380.11050	         1.08007e+58
          1380.91680	         9.25728e+57
          1381.72310	         8.05164e+57
          1382.52940	         8.89596e+57
          1383.33570	         8.50978e+57
          1384.14200	         9.38763e+57
          1384.94830	         1.05406e+58
          1385.75460	         1.16396e+58
          1386.56090	         1.15197e+58
          1387.36720	         1.15717e+58
          1388.17350	         1.29533e+58
          1388.97980	         1.26395e+58
          1389.78610	         1.02820e+58
          1390.59240	         9.01187e+57
          1391.39870	         8.44536e+57
          1392.20500	         8.37449e+57
          1393.01130	         6.66689e+57
          1393.81760	         6.96409e+57
          1394.62390	         6.94583e+57
          1395.43020	         6.03767e+57
          1396.23650	         6.62561e+57
          1397.04280	         8.13017e+57
          1397.84910	         1.02006e+58
          1398.65540	         1.05131e+58
          1399.46170	         1.03698e+58
          1400.26800	         1.00543e+58
          1401.07430	         7.75688e+57
          1401.88060	         7.05894e+57
          1402.68690	         9.26299e+57
          1403.49320	         9.85600e+57
          1404.29950	         9.51349e+57
          1405.10580	         9.88537e+57
          1405.91210	         9.75027e+57
          1406.71840	         9.31849e+57
          1407.52470	         9.92278e+57
          1408.33100	         1.07635e+58
          1409.13730	         1.15125e+58
          1409.94360	         1.14838e+58
          1410.74990	         1.18106e+58
          1411.55620	         1.04723e+58
          1412.36250	         1.02194e+58
          1413.16880	         8.94526e+57
          1413.97510	         7.10860e+57
          1414.78140	         8.62487e+57
          1415.58770	         1.08726e+58
          1416.39400	         1.11714e+58
          1417.20030	         1.14620e+58
          1418.00660	         9.39527e+57
          1418.81290	         9.59438e+57
          1419.61920	         1.03187e+58
          1420.42550	         1.32442e+58
          1421.23180	         1.38860e+58
          1422.03810	         1.30371e+58
          1422.84440	         1.18920e+58
          1423.65070	         1.38903e+58
          1424.45700	         1.31723e+58
          1425.26330	         9.53583e+57
          1426.06960	         8.20678e+57
          1426.87590	         9.39614e+57
          1427.68220	         9.66242e+57
          1428.48850	         1.00969e+58
          1429.29480	         9.70160e+57
          1430.10110	         8.36740e+57
          1430.90740	         7.44813e+57
          1431.71370	         8.82088e+57
          1432.52000	         9.62596e+57
          1433.32630	         7.33704e+57
          1434.13260	         7.77031e+57
          1434.93890	         8.45524e+57
          1435.74520	         8.79359e+57
          1436.55150	         9.70944e+57
          1437.35780	         9.37738e+57
          1438.16410	         9.46441e+57
          1438.97040	         9.06694e+57
          1439.77670	         9.05126e+57
          1440.58300	         9.32662e+57
          1441.38930	         9.01010e+57
          1442.19560	         9.92529e+57
          1443.00190	         1.09694e+58
          1443.80820	         1.15368e+58
          1444.61450	         9.38282e+57
          1445.42080	         7.74794e+57
          1446.22710	         1.11626e+58
          1447.03340	         1.11373e+58
          1447.83970	         1.03382e+58
          1448.64600	         1.05985e+58
          1449.45230	         1.05836e+58
          1450.25860	         9.68941e+57
          1451.06490	         9.25545e+57
          1451.87120	         9.53716e+57
          1452.67750	         8.34619e+57
          1453.48380	         8.57775e+57
          1454.29010	         8.34478e+57
          1455.09640	         7.90330e+57
          1455.90270	         8.80802e+57
          1456.70900	         8.78324e+57
          1457.51530	         1.03632e+58
          1458.32160	         1.23200e+58
          1459.12790	         1.11225e+58
          1459.93420	         9.28139e+57
          1460.74050	         7.86573e+57
          1461.54680	         8.34088e+57
          1462.35310	         8.30347e+57
          1463.15940	         8.99746e+57
          1463.96570	         1.13151e+58
          1464.77200	         1.22144e+58
          1465.57830	         1.17278e+58
          1466.38460	         1.02066e+58
          1467.19090	         8.41622e+57
          1467.99720	         8.61909e+57
          1468.80350	         9.90140e+57
          1469.60980	         1.16557e+58
          1470.41610	         1.09339e+58
          1471.22240	         9.24697e+57
          1472.02870	         1.01263e+58
          1472.83500	         1.06714e+58
          1473.64130	         1.15323e+58
          1474.44760	         1.03850e+58
          1475.25390	         8.61354e+57
          1476.06020	         8.09341e+57
          1476.86650	         8.62555e+57
          1477.67280	         8.31267e+57
          1478.47910	         7.06385e+57
          1479.28540	         6.52427e+57
          1480.09170	         7.61980e+57
          1480.89800	         9.65386e+57
          1481.70430	         1.03191e+58
          1482.51060	         8.76321e+57
          1483.31690	         6.75570e+57
          1484.12320	         6.72949e+57
          1484.92950	         8.04063e+57
          1485.73580	         7.64612e+57
          1486.54210	         8.27949e+57
          1487.34840	         9.41796e+57
          1488.15470	         8.20100e+57
          1488.96100	         7.95257e+57
          1489.76730	         8.57416e+57
