#sample_400_stacked_spectrum_rest_UV-bands_median_H-alpha_noDC.txt
#median Lum: 1.72754e+42
#Rest-frame wavelength (A) | Luminosity (erg/s/A)
#
          1110.00000	         0.00000e+00
          1110.80630	        -3.13343e+59
          1111.61260	         2.39619e+58
          1112.41890	        -1.37571e+59
          1113.22520	         7.25716e+58
          1114.03150	        -2.17678e+59
          1114.83780	         1.77840e+58
          1115.64410	         1.53777e+59
          1116.45040	         2.07660e+59
          1117.25670	        -3.37828e+58
          1118.06300	         1.75759e+59
          1118.86930	        -3.69064e+58
          1119.67560	         6.87807e+58
          1120.48190	         6.99483e+57
          1121.28820	        -1.09142e+59
          1122.09450	         3.24997e+58
          1122.90080	         3.65310e+58
          1123.70710	         3.98798e+58
          1124.51340	         7.58545e+58
          1125.31970	         6.30187e+58
          1126.12600	         4.54897e+58
          1126.93230	        -2.92593e+57
          1127.73860	        -6.85829e+58
          1128.54490	         1.21959e+58
          1129.35120	         3.05457e+58
          1130.15750	        -1.51719e+58
          1130.96380	        -4.25811e+58
          1131.77010	         7.37795e+58
          1132.57640	         5.99477e+58
          1133.38270	         6.74696e+58
          1134.18900	         3.42800e+58
          1134.99530	         4.51543e+58
          1135.80160	         4.32249e+58
          1136.60790	         4.26942e+58
          1137.41420	        -3.96972e+57
          1138.22050	         1.79119e+58
          1139.02680	         1.89851e+58
          1139.83310	         1.68695e+58
          1140.63940	         1.97699e+58
          1141.44570	        -6.29574e+57
          1142.25200	        -7.72154e+57
          1143.05830	         1.55571e+58
          1143.86460	         2.17751e+58
          1144.67090	         2.50394e+58
          1145.47720	         1.30074e+58
          1146.28350	         1.47973e+58
          1147.08980	         1.72808e+58
          1147.89610	         1.07029e+58
          1148.70240	         2.44836e+58
          1149.50870	         3.55981e+58
          1150.31500	         1.44907e+58
          1151.12130	         8.95758e+57
          1151.92760	         9.24026e+57
          1152.73390	         8.25375e+57
          1153.54020	         9.51923e+57
          1154.34650	         2.45815e+58
          1155.15280	         2.11814e+58
          1155.95910	         1.59241e+58
          1156.76540	         1.48054e+58
          1157.57170	        -1.11110e+57
          1158.37800	         1.78798e+57
          1159.18430	         2.42517e+57
          1159.99060	         4.86893e+57
          1160.79690	         2.98362e+57
          1161.60320	         8.56182e+57
          1162.40950	         1.31366e+58
          1163.21580	         2.46094e+58
          1164.02210	         1.43685e+58
          1164.82840	         1.14921e+58
          1165.63470	         2.24070e+58
          1166.44100	         2.82015e+58
          1167.24730	         2.00443e+58
          1168.05360	         1.19376e+58
          1168.85990	         6.59348e+57
          1169.66620	         1.11482e+58
          1170.47250	         9.38204e+57
          1171.27880	         9.61254e+57
          1172.08510	         1.71711e+58
          1172.89140	         9.57034e+57
          1173.69770	         9.75896e+57
          1174.50400	         1.44345e+58
          1175.31030	         1.97359e+58
          1176.11660	         1.99650e+58
          1176.92290	         1.40769e+58
          1177.72920	         1.34768e+58
          1178.53550	         6.61586e+57
          1179.34180	         2.81995e+57
          1180.14810	         4.76486e+57
          1180.95440	         7.19355e+57
          1181.76070	         5.34724e+57
          1182.56700	         6.99667e+57
          1183.37330	         1.06438e+58
          1184.17960	         1.42638e+58
          1184.98590	         7.73318e+57
          1185.79220	         3.55596e+57
          1186.59850	         1.15731e+58
          1187.40480	         1.20050e+58
          1188.21110	         1.86123e+58
          1189.01740	         1.22349e+58
          1189.82370	         1.40924e+58
          1190.63000	         1.38000e+58
          1191.43630	         1.28402e+58
          1192.24260	         9.25366e+57
          1193.04890	         1.47733e+58
          1193.85520	         1.09803e+58
          1194.66150	         1.18060e+58
          1195.46780	         1.59721e+58
          1196.27410	         1.78844e+58
          1197.08040	         1.11177e+58
          1197.88670	         1.46653e+58
          1198.69300	         1.39225e+58
          1199.49930	         1.63092e+58
          1200.30560	         1.19915e+58
          1201.11190	         7.76315e+57
          1201.91820	         9.51042e+57
          1202.72450	         6.64085e+57
          1203.53080	         1.15206e+58
          1204.33710	         7.36279e+57
          1205.14340	         5.12819e+57
          1205.94970	         4.81491e+57
          1206.75600	         7.00233e+57
          1207.56230	         3.65831e+57
          1208.36860	         6.91355e+57
          1209.17490	         3.19567e+57
          1209.98120	         4.44908e+57
          1210.78750	         1.14296e+58
          1211.59380	         1.38773e+58
          1212.40010	         1.48956e+58
          1213.20640	         1.89880e+58
          1214.01270	         1.76736e+58
          1214.81900	         2.64075e+58
          1215.62530	         4.73495e+58
          1216.43160	         9.58668e+58
          1217.23790	         1.53896e+59
          1218.04420	         1.12223e+59
          1218.85050	         7.99641e+58
          1219.65680	         5.52893e+58
          1220.46310	         3.41481e+58
          1221.26940	         2.23880e+58
          1222.07570	         1.53551e+58
          1222.88200	         1.40666e+58
          1223.68830	         9.17284e+57
          1224.49460	         9.24202e+57
          1225.30090	         8.03618e+57
          1226.10720	         6.61902e+57
          1226.91350	         5.37802e+57
          1227.71980	         6.42386e+57
          1228.52610	         9.60984e+57
          1229.33240	         9.75464e+57
          1230.13870	         8.20623e+57
          1230.94500	         9.01364e+57
          1231.75130	         4.04494e+57
          1232.55760	         9.63575e+57
          1233.36390	         8.24428e+57
          1234.17020	         7.77693e+57
          1234.97650	         1.01119e+58
          1235.78280	         9.55074e+57
          1236.58910	         9.65224e+57
          1237.39540	         9.43761e+57
          1238.20170	         9.29901e+57
          1239.00800	         1.23049e+58
          1239.81430	         1.43198e+58
          1240.62060	         1.08706e+58
          1241.42690	         1.00322e+58
          1242.23320	         1.21038e+58
          1243.03950	         7.99080e+57
          1243.84580	         8.14897e+57
          1244.65210	         1.07533e+58
          1245.45840	         1.10846e+58
          1246.26470	         9.18165e+57
          1247.07100	         6.72754e+57
          1247.87730	         7.28429e+57
          1248.68360	         6.29286e+57
          1249.48990	         6.36648e+57
          1250.29620	         7.71207e+57
          1251.10250	         6.25148e+57
          1251.90880	         4.10420e+57
          1252.71510	         4.80630e+57
          1253.52140	         7.52715e+57
          1254.32770	         1.13364e+58
          1255.13400	         1.30466e+58
          1255.94030	         1.09566e+58
          1256.74660	         9.72169e+57
          1257.55290	         1.15231e+58
          1258.35920	         1.18889e+58
          1259.16550	         8.38178e+57
          1259.97180	         7.44070e+57
          1260.77810	         8.76491e+57
          1261.58440	         1.02131e+58
          1262.39070	         7.64212e+57
          1263.19700	         7.37847e+57
          1264.00330	         8.50644e+57
          1264.80960	         9.79556e+57
          1265.61590	         1.04346e+58
          1266.42220	         9.76553e+57
          1267.22850	         1.04004e+58
          1268.03480	         1.20631e+58
          1268.84110	         1.37204e+58
          1269.64740	         1.39438e+58
          1270.45370	         1.14512e+58
          1271.26000	         1.00042e+58
          1272.06630	         1.25646e+58
          1272.87260	         1.39306e+58
          1273.67890	         1.21285e+58
          1274.48520	         1.34898e+58
          1275.29150	         1.61326e+58
          1276.09780	         1.27706e+58
          1276.90410	         1.33426e+58
          1277.71040	         1.35041e+58
          1278.51670	         1.02575e+58
          1279.32300	         1.10995e+58
          1280.12930	         1.27126e+58
          1280.93560	         1.22812e+58
          1281.74190	         1.19823e+58
          1282.54820	         1.32352e+58
          1283.35450	         1.16079e+58
          1284.16080	         1.23561e+58
          1284.96710	         1.38359e+58
          1285.77340	         9.94916e+57
          1286.57970	         1.05884e+58
          1287.38600	         1.64832e+58
          1288.19230	         1.83269e+58
          1288.99860	         1.43733e+58
          1289.80490	         1.11214e+58
          1290.61120	         1.36018e+58
          1291.41750	         1.43892e+58
          1292.22380	         1.29035e+58
          1293.03010	         1.04925e+58
          1293.83640	         1.08160e+58
          1294.64270	         9.32899e+57
          1295.44900	         6.86043e+57
          1296.25530	         8.28990e+57
          1297.06160	         1.02666e+58
          1297.86790	         1.07904e+58
          1298.67420	         1.06709e+58
          1299.48050	         1.21540e+58
          1300.28680	         1.02741e+58
          1301.09310	         7.21582e+57
          1301.89940	         3.53144e+57
          1302.70570	         6.33870e+57
          1303.51200	         9.24719e+57
          1304.31830	         1.03985e+58
          1305.12460	         1.12296e+58
          1305.93090	         1.04602e+58
          1306.73720	         1.23198e+58
          1307.54350	         1.53745e+58
          1308.34980	         1.52800e+58
          1309.15610	         1.41187e+58
          1309.96240	         1.48375e+58
          1310.76870	         1.30527e+58
          1311.57500	         1.12500e+58
          1312.38130	         1.39626e+58
          1313.18760	         1.41500e+58
          1313.99390	         1.44245e+58
          1314.80020	         1.66516e+58
          1315.60650	         1.59859e+58
          1316.41280	         1.42562e+58
          1317.21910	         1.17434e+58
          1318.02540	         1.16070e+58
          1318.83170	         1.19032e+58
          1319.63800	         1.16224e+58
          1320.44430	         1.05974e+58
          1321.25060	         1.17913e+58
          1322.05690	         1.24859e+58
          1322.86320	         1.12173e+58
          1323.66950	         1.08820e+58
          1324.47580	         8.76548e+57
          1325.28210	         8.54543e+57
          1326.08840	         1.07661e+58
          1326.89470	         1.30744e+58
          1327.70100	         1.21650e+58
          1328.50730	         9.79982e+57
          1329.31360	         9.96979e+57
          1330.11990	         1.08997e+58
          1330.92620	         9.26387e+57
          1331.73250	         1.04542e+58
          1332.53880	         1.02356e+58
          1333.34510	         8.44840e+57
          1334.15140	         9.49573e+57
          1334.95770	         1.00775e+58
          1335.76400	         1.03102e+58
          1336.57030	         1.06517e+58
          1337.37660	         1.07048e+58
          1338.18290	         1.08593e+58
          1338.98920	         1.16157e+58
          1339.79550	         1.25235e+58
          1340.60180	         1.22995e+58
          1341.40810	         1.40338e+58
          1342.21440	         1.15828e+58
          1343.02070	         9.62531e+57
          1343.82700	         1.20773e+58
          1344.63330	         1.18636e+58
          1345.43960	         1.09019e+58
          1346.24590	         1.06376e+58
          1347.05220	         1.23669e+58
          1347.85850	         1.04248e+58
          1348.66480	         1.11987e+58
          1349.47110	         1.25459e+58
          1350.27740	         1.17008e+58
          1351.08370	         1.02277e+58
          1351.89000	         1.09053e+58
          1352.69630	         1.17043e+58
          1353.50260	         1.16334e+58
          1354.30890	         1.23085e+58
          1355.11520	         1.20854e+58
          1355.92150	         1.01762e+58
          1356.72780	         9.50114e+57
          1357.53410	         9.37973e+57
          1358.34040	         1.05088e+58
          1359.14670	         1.04202e+58
          1359.95300	         1.10532e+58
          1360.75930	         1.14506e+58
          1361.56560	         1.06242e+58
          1362.37190	         1.18285e+58
          1363.17820	         1.10151e+58
          1363.98450	         1.06348e+58
          1364.79080	         1.19681e+58
          1365.59710	         1.27497e+58
          1366.40340	         1.16246e+58
          1367.20970	         1.03796e+58
          1368.01600	         9.27627e+57
          1368.82230	         1.01913e+58
          1369.62860	         1.17831e+58
          1370.43490	         9.08453e+57
          1371.24120	         8.86606e+57
          1372.04750	         9.59582e+57
          1372.85380	         1.05408e+58
          1373.66010	         1.20809e+58
          1374.46640	         1.13682e+58
          1375.27270	         1.11153e+58
          1376.07900	         1.02884e+58
          1376.88530	         9.26562e+57
          1377.69160	         9.50392e+57
          1378.49790	         9.27009e+57
          1379.30420	         8.75881e+57
          1380.11050	         9.87281e+57
          1380.91680	         8.80979e+57
          1381.72310	         7.57887e+57
          1382.52940	         8.90920e+57
          1383.33570	         9.50948e+57
          1384.14200	         1.02555e+58
          1384.94830	         1.15013e+58
          1385.75460	         1.10977e+58
          1386.56090	         1.10562e+58
          1387.36720	         1.04780e+58
          1388.17350	         1.00752e+58
          1388.97980	         9.17701e+57
          1389.78610	         8.20785e+57
          1390.59240	         7.34268e+57
          1391.39870	         7.43762e+57
          1392.20500	         7.91938e+57
          1393.01130	         7.40742e+57
          1393.81760	         6.99024e+57
          1394.62390	         7.35340e+57
          1395.43020	         5.60539e+57
          1396.23650	         6.67438e+57
          1397.04280	         7.65510e+57
          1397.84910	         9.41172e+57
          1398.65540	         9.84074e+57
          1399.46170	         1.01406e+58
          1400.26800	         8.37451e+57
          1401.07430	         5.95202e+57
          1401.88060	         7.67949e+57
          1402.68690	         9.77062e+57
          1403.49320	         9.01874e+57
          1404.29950	         8.67537e+57
          1405.10580	         1.07975e+58
          1405.91210	         1.19775e+58
          1406.71840	         1.19596e+58
          1407.52470	         1.06462e+58
          1408.33100	         9.89649e+57
          1409.13730	         1.11661e+58
          1409.94360	         1.18374e+58
          1410.74990	         1.15043e+58
          1411.55620	         1.03089e+58
          1412.36250	         8.34572e+57
          1413.16880	         8.66862e+57
          1413.97510	         8.50280e+57
          1414.78140	         7.89909e+57
          1415.58770	         9.90535e+57
          1416.39400	         1.07577e+58
          1417.20030	         9.75304e+57
          1418.00660	         9.22329e+57
          1418.81290	         1.05836e+58
          1419.61920	         1.02382e+58
          1420.42550	         1.15383e+58
          1421.23180	         1.25222e+58
          1422.03810	         1.13028e+58
          1422.84440	         1.11855e+58
          1423.65070	         1.29398e+58
          1424.45700	         1.26263e+58
          1425.26330	         9.49448e+57
          1426.06960	         9.48274e+57
          1426.87590	         1.02972e+58
          1427.68220	         1.03618e+58
          1428.48850	         1.12190e+58
          1429.29480	         1.04029e+58
          1430.10110	         9.24162e+57
          1430.90740	         8.17570e+57
          1431.71370	         9.32209e+57
          1432.52000	         9.41183e+57
          1433.32630	         7.57984e+57
          1434.13260	         7.68254e+57
          1434.93890	         9.04970e+57
          1435.74520	         9.78986e+57
          1436.55150	         9.53894e+57
          1437.35780	         8.97588e+57
          1438.16410	         9.14341e+57
          1438.97040	         8.38229e+57
          1439.77670	         8.47600e+57
          1440.58300	         9.65623e+57
          1441.38930	         9.97095e+57
          1442.19560	         1.03880e+58
          1443.00190	         1.07053e+58
          1443.80820	         1.08371e+58
          1444.61450	         8.89327e+57
          1445.42080	         8.47961e+57
          1446.22710	         1.04773e+58
          1447.03340	         9.59987e+57
          1447.83970	         1.02861e+58
          1448.64600	         1.11625e+58
          1449.45230	         1.06512e+58
          1450.25860	         1.05354e+58
          1451.06490	         8.75457e+57
          1451.87120	         7.37978e+57
          1452.67750	         7.46840e+57
          1453.48380	         8.33401e+57
          1454.29010	         8.15203e+57
          1455.09640	         7.68273e+57
          1455.90270	         9.29598e+57
          1456.70900	         8.84886e+57
          1457.51530	         9.67307e+57
          1458.32160	         1.22433e+58
          1459.12790	         1.14670e+58
          1459.93420	         9.87414e+57
          1460.74050	         9.15017e+57
          1461.54680	         1.00990e+58
          1462.35310	         9.21351e+57
          1463.15940	         9.16990e+57
          1463.96570	         1.01144e+58
          1464.77200	         1.11517e+58
          1465.57830	         1.11217e+58
          1466.38460	         9.00980e+57
          1467.19090	         8.02562e+57
          1467.99720	         8.60673e+57
          1468.80350	         9.63524e+57
          1469.60980	         1.02515e+58
          1470.41610	         1.00333e+58
          1471.22240	         9.74117e+57
          1472.02870	         1.03986e+58
          1472.83500	         1.15416e+58
          1473.64130	         1.02957e+58
          1474.44760	         9.02830e+57
          1475.25390	         7.55218e+57
          1476.06020	         7.77115e+57
          1476.86650	         8.42768e+57
          1477.67280	         8.22693e+57
          1478.47910	         7.74089e+57
          1479.28540	         7.34872e+57
          1480.09170	         8.25487e+57
          1480.89800	         8.93486e+57
          1481.70430	         8.76969e+57
          1482.51060	         8.65221e+57
          1483.31690	         7.44300e+57
          1484.12320	         7.23763e+57
          1484.92950	         8.16509e+57
          1485.73580	         8.13077e+57
          1486.54210	         8.77255e+57
          1487.34840	         8.55678e+57
          1488.15470	         8.02893e+57
          1488.96100	         8.26257e+57
          1489.76730	         9.18612e+57
