#sample_381_stacked_spectrum_rest_UV-bands_median_H-alpha_noDC.txt
#median Lum: 1.67148e+42
#Rest-frame wavelength (A) | Luminosity (erg/s/A)
#
          1110.00000	         0.00000e+00
          1110.80630	        -3.65976e+59
          1111.61260	         2.39946e+59
          1112.41890	         1.40791e+59
          1113.22520	         4.23192e+58
          1114.03150	        -1.62038e+59
          1114.83780	         1.70613e+59
          1115.64410	        -4.59414e+58
          1116.45040	        -8.96370e+57
          1117.25670	         8.89537e+58
          1118.06300	         5.54816e+58
          1118.86930	        -4.91132e+58
          1119.67560	         1.62222e+59
          1120.48190	         4.28098e+58
          1121.28820	        -1.14954e+59
          1122.09450	        -4.52201e+58
          1122.90080	         4.59451e+58
          1123.70710	         1.15354e+59
          1124.51340	         9.61444e+58
          1125.31970	         3.03686e+58
          1126.12600	         4.32183e+58
          1126.93230	        -3.50352e+58
          1127.73860	         2.41064e+57
          1128.54490	         3.61987e+58
          1129.35120	         1.79237e+57
          1130.15750	        -1.05393e+58
          1130.96380	        -3.82004e+58
          1131.77010	         5.83519e+58
          1132.57640	         3.10317e+58
          1133.38270	         1.53692e+58
          1134.18900	         3.54541e+58
          1134.99530	         2.52308e+58
          1135.80160	         3.37495e+58
          1136.60790	         2.25931e+58
          1137.41420	        -2.70122e+58
          1138.22050	         3.28266e+58
          1139.02680	         2.21654e+58
          1139.83310	         1.19187e+58
          1140.63940	         1.16210e+58
          1141.44570	        -1.12903e+58
          1142.25200	         1.27860e+58
          1143.05830	         7.47837e+57
          1143.86460	         2.03910e+58
          1144.67090	         3.31677e+58
          1145.47720	         1.06744e+58
          1146.28350	         8.73418e+57
          1147.08980	         1.17610e+58
          1147.89610	         2.37673e+58
          1148.70240	         2.47240e+58
          1149.50870	         1.72401e+58
          1150.31500	         1.32793e+58
          1151.12130	         7.80291e+57
          1151.92760	         2.67563e+57
          1152.73390	        -2.93470e+57
          1153.54020	        -2.85705e+57
          1154.34650	         2.36528e+58
          1155.15280	         2.04764e+58
          1155.95910	         1.51601e+58
          1156.76540	         8.53247e+57
          1157.57170	        -6.55998e+57
          1158.37800	        -3.28211e+57
          1159.18430	        -6.55290e+57
          1159.99060	         3.19606e+57
          1160.79690	         2.95436e+57
          1161.60320	         9.05855e+57
          1162.40950	         2.18450e+58
          1163.21580	         2.97036e+58
          1164.02210	         1.40524e+58
          1164.82840	         7.48558e+57
          1165.63470	         1.86475e+58
          1166.44100	         2.57982e+58
          1167.24730	         2.50508e+58
          1168.05360	         9.27873e+57
          1168.85990	         1.81295e+56
          1169.66620	         5.25769e+57
          1170.47250	         8.42750e+57
          1171.27880	         6.68898e+57
          1172.08510	         1.25649e+58
          1172.89140	         8.01766e+57
          1173.69770	         3.15859e+57
          1174.50400	         6.44742e+57
          1175.31030	         1.43960e+58
          1176.11660	         2.17879e+58
          1176.92290	         2.05949e+58
          1177.72920	         1.45084e+58
          1178.53550	         7.85598e+57
          1179.34180	         2.14829e+57
          1180.14810	         3.41765e+57
          1180.95440	         5.62913e+57
          1181.76070	         6.41941e+57
          1182.56700	         8.40835e+57
          1183.37330	         7.04262e+57
          1184.17960	         1.76472e+58
          1184.98590	         1.71938e+58
          1185.79220	         8.84442e+57
          1186.59850	         1.20133e+58
          1187.40480	         6.63111e+57
          1188.21110	         8.32859e+57
          1189.01740	         1.11985e+58
          1189.82370	         8.66365e+57
          1190.63000	         8.35338e+57
          1191.43630	         1.31425e+58
          1192.24260	         9.02106e+57
          1193.04890	         1.03245e+58
          1193.85520	         1.45991e+58
          1194.66150	         6.88954e+57
          1195.46780	         1.21571e+58
          1196.27410	         1.49011e+58
          1197.08040	         1.37731e+58
          1197.88670	         1.44545e+58
          1198.69300	         1.35039e+58
          1199.49930	         1.63442e+58
          1200.30560	         9.94773e+57
          1201.11190	         9.38368e+57
          1201.91820	         1.12025e+58
          1202.72450	         7.58349e+57
          1203.53080	         1.20592e+58
          1204.33710	         6.84190e+57
          1205.14340	         1.14743e+58
          1205.94970	         9.49433e+57
          1206.75600	         5.20562e+57
          1207.56230	         7.39645e+57
          1208.36860	         9.76533e+57
          1209.17490	         4.35427e+57
          1209.98120	         6.54633e+57
          1210.78750	         8.36618e+57
          1211.59380	         1.25938e+58
          1212.40010	         1.60853e+58
          1213.20640	         2.36061e+58
          1214.01270	         2.19686e+58
          1214.81900	         2.51917e+58
          1215.62530	         4.66738e+58
          1216.43160	         8.95191e+58
          1217.23790	         1.51741e+59
          1218.04420	         1.15289e+59
          1218.85050	         8.85150e+58
          1219.65680	         5.77970e+58
          1220.46310	         3.12183e+58
          1221.26940	         2.14904e+58
          1222.07570	         1.87337e+58
          1222.88200	         1.50514e+58
          1223.68830	         1.06150e+58
          1224.49460	         5.06670e+57
          1225.30090	         6.23859e+57
          1226.10720	         9.08695e+57
          1226.91350	         7.59581e+57
          1227.71980	         1.42663e+58
          1228.52610	         1.19197e+58
          1229.33240	         9.46397e+57
          1230.13870	         7.71561e+57
          1230.94500	         5.62501e+57
          1231.75130	         4.03983e+57
          1232.55760	         6.88425e+57
          1233.36390	         1.10234e+58
          1234.17020	         1.25177e+58
          1234.97650	         1.06573e+58
          1235.78280	         8.63282e+57
          1236.58910	         8.21067e+57
          1237.39540	         9.89688e+57
          1238.20170	         1.15229e+58
          1239.00800	         1.32330e+58
          1239.81430	         1.26333e+58
          1240.62060	         9.08229e+57
          1241.42690	         1.08044e+58
          1242.23320	         1.21614e+58
          1243.03950	         7.02208e+57
          1243.84580	         7.63527e+57
          1244.65210	         1.01237e+58
          1245.45840	         1.16550e+58
          1246.26470	         1.13053e+58
          1247.07100	         7.61306e+57
          1247.87730	         3.96482e+57
          1248.68360	         4.21385e+57
          1249.48990	         7.51116e+57
          1250.29620	         9.06196e+57
          1251.10250	         9.80601e+57
          1251.90880	         8.98766e+57
          1252.71510	         6.28769e+57
          1253.52140	         7.98481e+57
          1254.32770	         1.22323e+58
          1255.13400	         1.28957e+58
          1255.94030	         1.05775e+58
          1256.74660	         9.71254e+57
          1257.55290	         1.11066e+58
          1258.35920	         8.67780e+57
          1259.16550	         6.83571e+57
          1259.97180	         4.05932e+57
          1260.77810	         7.90730e+57
          1261.58440	         1.32985e+58
          1262.39070	         8.74003e+57
          1263.19700	         8.36676e+57
          1264.00330	         1.09598e+58
          1264.80960	         1.10906e+58
          1265.61590	         1.34659e+58
          1266.42220	         1.16256e+58
          1267.22850	         1.10846e+58
          1268.03480	         1.41051e+58
          1268.84110	         1.45418e+58
          1269.64740	         1.28271e+58
          1270.45370	         1.29016e+58
          1271.26000	         1.33685e+58
          1272.06630	         1.36784e+58
          1272.87260	         1.30232e+58
          1273.67890	         1.12496e+58
          1274.48520	         1.15425e+58
          1275.29150	         1.41544e+58
          1276.09780	         1.32879e+58
          1276.90410	         1.42078e+58
          1277.71040	         1.22324e+58
          1278.51670	         1.17777e+58
          1279.32300	         1.39291e+58
          1280.12930	         1.07557e+58
          1280.93560	         9.63580e+57
          1281.74190	         1.08805e+58
          1282.54820	         1.38594e+58
          1283.35450	         1.12535e+58
          1284.16080	         8.08258e+57
          1284.96710	         1.17613e+58
          1285.77340	         1.09991e+58
          1286.57970	         8.90506e+57
          1287.38600	         1.39411e+58
          1288.19230	         1.81356e+58
          1288.99860	         1.65089e+58
          1289.80490	         1.32313e+58
          1290.61120	         1.35319e+58
          1291.41750	         1.27396e+58
          1292.22380	         1.19846e+58
          1293.03010	         1.14456e+58
          1293.83640	         1.21236e+58
          1294.64270	         1.00109e+58
          1295.44900	         7.09752e+57
          1296.25530	         8.25881e+57
          1297.06160	         1.02275e+58
          1297.86790	         9.26120e+57
          1298.67420	         6.98329e+57
          1299.48050	         1.03733e+58
          1300.28680	         1.09887e+58
          1301.09310	         7.91046e+57
          1301.89940	         5.33744e+57
          1302.70570	         5.78147e+57
          1303.51200	         6.65116e+57
          1304.31830	         9.40182e+57
          1305.12460	         1.07649e+58
          1305.93090	         1.15237e+58
          1306.73720	         1.20317e+58
          1307.54350	         1.36296e+58
          1308.34980	         1.36983e+58
          1309.15610	         1.56691e+58
          1309.96240	         1.70599e+58
          1310.76870	         1.54242e+58
          1311.57500	         1.28458e+58
          1312.38130	         1.11487e+58
          1313.18760	         1.28670e+58
          1313.99390	         1.79218e+58
          1314.80020	         1.48964e+58
          1315.60650	         1.57339e+58
          1316.41280	         1.38970e+58
          1317.21910	         9.74948e+57
          1318.02540	         9.90063e+57
          1318.83170	         1.21745e+58
          1319.63800	         1.39886e+58
          1320.44430	         1.21270e+58
          1321.25060	         1.16086e+58
          1322.05690	         1.21824e+58
          1322.86320	         1.11231e+58
          1323.66950	         1.00038e+58
          1324.47580	         8.81900e+57
          1325.28210	         9.25539e+57
          1326.08840	         1.14535e+58
          1326.89470	         1.34417e+58
          1327.70100	         1.16876e+58
          1328.50730	         8.59295e+57
          1329.31360	         8.27755e+57
          1330.11990	         8.21334e+57
          1330.92620	         9.03564e+57
          1331.73250	         1.10475e+58
          1332.53880	         1.02819e+58
          1333.34510	         8.83448e+57
          1334.15140	         8.19114e+57
          1334.95770	         8.10301e+57
          1335.76400	         9.67890e+57
          1336.57030	         1.05816e+58
          1337.37660	         1.11678e+58
          1338.18290	         1.02343e+58
          1338.98920	         1.05328e+58
          1339.79550	         1.18412e+58
          1340.60180	         1.19137e+58
          1341.40810	         1.28686e+58
          1342.21440	         1.17091e+58
          1343.02070	         1.14563e+58
          1343.82700	         1.40793e+58
          1344.63330	         1.30195e+58
          1345.43960	         1.30026e+58
          1346.24590	         1.28591e+58
          1347.05220	         1.24879e+58
          1347.85850	         1.15554e+58
          1348.66480	         1.28968e+58
          1349.47110	         1.31890e+58
          1350.27740	         1.23676e+58
          1351.08370	         1.22500e+58
          1351.89000	         1.24742e+58
          1352.69630	         1.15372e+58
          1353.50260	         1.11905e+58
          1354.30890	         1.20735e+58
          1355.11520	         1.12464e+58
          1355.92150	         1.14433e+58
          1356.72780	         1.13544e+58
          1357.53410	         9.90362e+57
          1358.34040	         9.89080e+57
          1359.14670	         1.05909e+58
          1359.95300	         1.12895e+58
          1360.75930	         1.24709e+58
          1361.56560	         1.08384e+58
          1362.37190	         1.12113e+58
          1363.17820	         1.07626e+58
          1363.98450	         9.73380e+57
          1364.79080	         1.19217e+58
          1365.59710	         1.24907e+58
          1366.40340	         1.20959e+58
          1367.20970	         1.08364e+58
          1368.01600	         1.02010e+58
          1368.82230	         1.01266e+58
          1369.62860	         9.98260e+57
          1370.43490	         9.86242e+57
          1371.24120	         9.58063e+57
          1372.04750	         9.33857e+57
          1372.85380	         1.03998e+58
          1373.66010	         1.05667e+58
          1374.46640	         1.12847e+58
          1375.27270	         1.13603e+58
          1376.07900	         9.48416e+57
          1376.88530	         8.25722e+57
          1377.69160	         8.06161e+57
          1378.49790	         7.65723e+57
          1379.30420	         7.58559e+57
          1380.11050	         8.37695e+57
          1380.91680	         7.32984e+57
          1381.72310	         7.52803e+57
          1382.52940	         8.80549e+57
          1383.33570	         8.40654e+57
          1384.14200	         1.01295e+58
          1384.94830	         1.27554e+58
          1385.75460	         1.13526e+58
          1386.56090	         1.16276e+58
          1387.36720	         1.07835e+58
          1388.17350	         1.09304e+58
          1388.97980	         1.10465e+58
          1389.78610	         9.04331e+57
          1390.59240	         7.27367e+57
          1391.39870	         8.53301e+57
          1392.20500	         9.08554e+57
          1393.01130	         8.41810e+57
          1393.81760	         7.33438e+57
          1394.62390	         8.74438e+57
          1395.43020	         6.78642e+57
          1396.23650	         6.14974e+57
          1397.04280	         7.24924e+57
          1397.84910	         7.82211e+57
          1398.65540	         9.17098e+57
          1399.46170	         9.96182e+57
          1400.26800	         9.36801e+57
          1401.07430	         8.66196e+57
          1401.88060	         8.40221e+57
          1402.68690	         9.26876e+57
          1403.49320	         1.09106e+58
          1404.29950	         1.07098e+58
          1405.10580	         1.00369e+58
          1405.91210	         1.08226e+58
          1406.71840	         9.27861e+57
          1407.52470	         1.11133e+58
          1408.33100	         1.23700e+58
          1409.13730	         1.10562e+58
          1409.94360	         9.87399e+57
          1410.74990	         1.13551e+58
          1411.55620	         9.83003e+57
          1412.36250	         9.17618e+57
          1413.16880	         1.00472e+58
          1413.97510	         9.30719e+57
          1414.78140	         9.03556e+57
          1415.58770	         9.31906e+57
          1416.39400	         1.04650e+58
          1417.20030	         1.13419e+58
          1418.00660	         9.17986e+57
          1418.81290	         1.02371e+58
          1419.61920	         1.11796e+58
          1420.42550	         1.19209e+58
          1421.23180	         1.31612e+58
          1422.03810	         1.22550e+58
          1422.84440	         1.10677e+58
          1423.65070	         1.18007e+58
          1424.45700	         1.17146e+58
          1425.26330	         9.09316e+57
          1426.06960	         8.41346e+57
          1426.87590	         9.51668e+57
          1427.68220	         9.89356e+57
          1428.48850	         1.05469e+58
          1429.29480	         9.65739e+57
          1430.10110	         9.33227e+57
          1430.90740	         8.37331e+57
          1431.71370	         8.25289e+57
          1432.52000	         9.33406e+57
          1433.32630	         8.89239e+57
          1434.13260	         8.48140e+57
          1434.93890	         8.25825e+57
          1435.74520	         8.25862e+57
          1436.55150	         8.93858e+57
          1437.35780	         8.62023e+57
          1438.16410	         9.18934e+57
          1438.97040	         8.77026e+57
          1439.77670	         9.14716e+57
          1440.58300	         9.38454e+57
          1441.38930	         1.04033e+58
          1442.19560	         1.08999e+58
          1443.00190	         1.02303e+58
          1443.80820	         1.11074e+58
          1444.61450	         9.93334e+57
          1445.42080	         9.16688e+57
          1446.22710	         1.04254e+58
          1447.03340	         1.02105e+58
          1447.83970	         1.13731e+58
          1448.64600	         1.01576e+58
          1449.45230	         8.66760e+57
          1450.25860	         9.93657e+57
          1451.06490	         9.27666e+57
          1451.87120	         7.52757e+57
          1452.67750	         6.81631e+57
          1453.48380	         7.97417e+57
          1454.29010	         8.38228e+57
          1455.09640	         8.20363e+57
          1455.90270	         9.10941e+57
          1456.70900	         8.34581e+57
          1457.51530	         9.22687e+57
          1458.32160	         1.11866e+58
          1459.12790	         1.12023e+58
          1459.93420	         9.65497e+57
          1460.74050	         8.06403e+57
          1461.54680	         7.23881e+57
          1462.35310	         6.91194e+57
          1463.15940	         8.60961e+57
          1463.96570	         1.03071e+58
          1464.77200	         1.11888e+58
          1465.57830	         1.01357e+58
          1466.38460	         9.16358e+57
          1467.19090	         9.23315e+57
          1467.99720	         9.40400e+57
          1468.80350	         8.72965e+57
          1469.60980	         9.49641e+57
          1470.41610	         1.02117e+58
          1471.22240	         9.43926e+57
          1472.02870	         9.99606e+57
          1472.83500	         1.04086e+58
          1473.64130	         1.05412e+58
          1474.44760	         1.04042e+58
          1475.25390	         9.27732e+57
          1476.06020	         8.38024e+57
          1476.86650	         9.22194e+57
          1477.67280	         9.29304e+57
          1478.47910	         7.25697e+57
          1479.28540	         6.63921e+57
          1480.09170	         8.61588e+57
          1480.89800	         9.47476e+57
          1481.70430	         1.00111e+58
          1482.51060	         9.27041e+57
          1483.31690	         8.33079e+57
          1484.12320	         7.57495e+57
          1484.92950	         7.94727e+57
          1485.73580	         8.84461e+57
          1486.54210	         8.73693e+57
          1487.34840	         8.72007e+57
          1488.15470	         8.83059e+57
          1488.96100	         9.65865e+57
          1489.76730	         9.75136e+57
