#sample_389_stacked_spectrum_rest_UV-bands_median_H-alpha_noDC.txt
#median Lum: 1.72577e+42
#Rest-frame wavelength (A) | Luminosity (erg/s/A)
#
          1110.00000	         0.00000e+00
          1110.80630	        -1.54891e+59
          1111.61260	         4.59901e+59
          1112.41890	         1.70221e+59
          1113.22520	         1.14620e+59
          1114.03150	        -3.40578e+58
          1114.83780	         3.33904e+59
          1115.64410	         7.34147e+58
          1116.45040	         1.06517e+59
          1117.25670	        -5.88338e+58
          1118.06300	         2.09068e+59
          1118.86930	        -4.67928e+58
          1119.67560	         1.14420e+59
          1120.48190	        -6.35650e+58
          1121.28820	        -1.06868e+59
          1122.09450	         1.08266e+58
          1122.90080	         4.06797e+58
          1123.70710	         6.59728e+58
          1124.51340	         2.89180e+58
          1125.31970	         2.85959e+56
          1126.12600	        -3.16205e+57
          1126.93230	        -7.01948e+58
          1127.73860	        -7.64334e+58
          1128.54490	        -1.41122e+58
          1129.35120	         1.03504e+58
          1130.15750	         1.13634e+58
          1130.96380	        -4.11208e+58
          1131.77010	         7.85886e+57
          1132.57640	         2.30628e+58
          1133.38270	         1.65211e+58
          1134.18900	         1.99448e+58
          1134.99530	         2.21180e+58
          1135.80160	         2.54370e+58
          1136.60790	         1.47792e+58
          1137.41420	        -3.45039e+58
          1138.22050	         2.21746e+58
          1139.02680	         2.47548e+58
          1139.83310	         1.25321e+58
          1140.63940	         5.38111e+57
          1141.44570	        -2.46190e+58
          1142.25200	         2.35166e+58
          1143.05830	         3.32563e+58
          1143.86460	         3.45921e+58
          1144.67090	         2.34996e+58
          1145.47720	         1.85967e+58
          1146.28350	         9.52997e+57
          1147.08980	         1.62439e+58
          1147.89610	         2.42542e+58
          1148.70240	         1.71265e+58
          1149.50870	         2.30731e+58
          1150.31500	         1.09762e+58
          1151.12130	         1.14957e+58
          1151.92760	         9.99760e+57
          1152.73390	         7.05544e+57
          1153.54020	         1.37596e+58
          1154.34650	         1.52912e+58
          1155.15280	         1.60209e+58
          1155.95910	         1.47776e+58
          1156.76540	         1.62364e+58
          1157.57170	         4.15867e+57
          1158.37800	        -9.13605e+55
          1159.18430	         1.32653e+56
          1159.99060	        -4.03329e+57
          1160.79690	         5.79611e+57
          1161.60320	         1.50315e+58
          1162.40950	         1.09334e+58
          1163.21580	         5.50612e+57
          1164.02210	         7.62507e+57
          1164.82840	         7.28823e+57
          1165.63470	         1.46342e+58
          1166.44100	         2.75417e+58
          1167.24730	         1.38962e+58
          1168.05360	         3.65593e+57
          1168.85990	         9.34012e+57
          1169.66620	         8.47216e+57
          1170.47250	         8.84949e+57
          1171.27880	         8.97038e+57
          1172.08510	         1.25853e+58
          1172.89140	         1.00549e+58
          1173.69770	         7.62433e+57
          1174.50400	         8.85126e+57
          1175.31030	         1.22614e+58
          1176.11660	         1.77202e+58
          1176.92290	         1.76877e+58
          1177.72920	         1.40071e+58
          1178.53550	         5.19608e+57
          1179.34180	         3.57201e+57
          1180.14810	         9.32792e+57
          1180.95440	         8.92155e+57
          1181.76070	         6.12996e+57
          1182.56700	         9.66747e+57
          1183.37330	         6.91388e+57
          1184.17960	         1.14388e+58
          1184.98590	         1.73589e+58
          1185.79220	         1.16544e+58
          1186.59850	         8.07572e+57
          1187.40480	         6.22823e+57
          1188.21110	         1.58017e+58
          1189.01740	         8.93320e+57
          1189.82370	         1.46640e+58
          1190.63000	         1.15794e+58
          1191.43630	         1.33712e+58
          1192.24260	         1.08014e+58
          1193.04890	         1.38234e+58
          1193.85520	         1.20979e+58
          1194.66150	         7.07935e+57
          1195.46780	         1.35953e+58
          1196.27410	         1.44348e+58
          1197.08040	         9.16127e+57
          1197.88670	         1.23576e+58
          1198.69300	         1.62539e+58
          1199.49930	         1.70705e+58
          1200.30560	         1.24196e+58
          1201.11190	         8.00948e+57
          1201.91820	         1.00514e+58
          1202.72450	         9.45495e+57
          1203.53080	         1.58803e+58
          1204.33710	         1.01233e+58
          1205.14340	         8.22526e+57
          1205.94970	         5.33866e+57
          1206.75600	         6.05737e+57
          1207.56230	         7.43305e+57
          1208.36860	         5.01116e+57
          1209.17490	         3.59574e+57
          1209.98120	         5.89813e+57
          1210.78750	         8.03531e+57
          1211.59380	         1.16628e+58
          1212.40010	         1.75649e+58
          1213.20640	         1.96177e+58
          1214.01270	         2.21811e+58
          1214.81900	         2.65206e+58
          1215.62530	         4.53279e+58
          1216.43160	         8.99294e+58
          1217.23790	         1.47255e+59
          1218.04420	         1.12002e+59
          1218.85050	         8.11161e+58
          1219.65680	         5.18867e+58
          1220.46310	         2.86903e+58
          1221.26940	         1.97954e+58
          1222.07570	         1.47641e+58
          1222.88200	         1.12817e+58
          1223.68830	         9.82637e+57
          1224.49460	         5.65674e+57
          1225.30090	         4.59554e+57
          1226.10720	         6.80541e+57
          1226.91350	         6.56530e+57
          1227.71980	         5.30711e+57
          1228.52610	         1.06157e+58
          1229.33240	         1.10982e+58
          1230.13870	         9.28273e+57
          1230.94500	         9.24320e+57
          1231.75130	         5.22932e+57
          1232.55760	         8.88522e+57
          1233.36390	         9.64812e+57
          1234.17020	         9.63167e+57
          1234.97650	         7.46341e+57
          1235.78280	         6.76344e+57
          1236.58910	         1.04986e+58
          1237.39540	         9.66983e+57
          1238.20170	         8.93852e+57
          1239.00800	         1.30656e+58
          1239.81430	         1.42826e+58
          1240.62060	         9.65101e+57
          1241.42690	         8.95462e+57
          1242.23320	         1.18179e+58
          1243.03950	         8.48141e+57
          1243.84580	         6.73524e+57
          1244.65210	         8.35013e+57
          1245.45840	         9.03186e+57
          1246.26470	         9.78434e+57
          1247.07100	         9.45901e+57
          1247.87730	         6.83883e+57
          1248.68360	         3.34504e+57
          1249.48990	         4.81245e+57
          1250.29620	         8.06486e+57
          1251.10250	         7.45603e+57
          1251.90880	         4.07840e+57
          1252.71510	         6.73734e+57
          1253.52140	         7.68330e+57
          1254.32770	         9.66089e+57
          1255.13400	         1.26770e+58
          1255.94030	         1.30229e+58
          1256.74660	         1.13642e+58
          1257.55290	         1.05496e+58
          1258.35920	         9.90444e+57
          1259.16550	         7.35187e+57
          1259.97180	         7.09731e+57
          1260.77810	         8.25971e+57
          1261.58440	         1.11138e+58
          1262.39070	         9.38431e+57
          1263.19700	         8.91217e+57
          1264.00330	         9.06074e+57
          1264.80960	         1.03669e+58
          1265.61590	         1.30972e+58
          1266.42220	         1.20197e+58
          1267.22850	         1.05342e+58
          1268.03480	         1.34755e+58
          1268.84110	         1.41515e+58
          1269.64740	         1.09322e+58
          1270.45370	         1.25471e+58
          1271.26000	         1.46469e+58
          1272.06630	         1.31367e+58
          1272.87260	         1.03573e+58
          1273.67890	         1.18435e+58
          1274.48520	         1.44611e+58
          1275.29150	         1.46334e+58
          1276.09780	         1.43130e+58
          1276.90410	         1.53328e+58
          1277.71040	         1.31994e+58
          1278.51670	         1.21790e+58
          1279.32300	         1.41965e+58
          1280.12930	         1.28418e+58
          1280.93560	         9.91135e+57
          1281.74190	         1.27730e+58
          1282.54820	         1.40217e+58
          1283.35450	         9.59456e+57
          1284.16080	         1.15559e+58
          1284.96710	         1.63132e+58
          1285.77340	         1.31187e+58
          1286.57970	         1.23471e+58
          1287.38600	         1.58862e+58
          1288.19230	         1.57813e+58
          1288.99860	         1.21932e+58
          1289.80490	         1.02585e+58
          1290.61120	         1.08150e+58
          1291.41750	         1.22610e+58
          1292.22380	         1.13352e+58
          1293.03010	         1.01372e+58
          1293.83640	         1.18183e+58
          1294.64270	         1.02057e+58
          1295.44900	         6.50813e+57
          1296.25530	         6.77912e+57
          1297.06160	         1.07243e+58
          1297.86790	         1.15217e+58
          1298.67420	         1.02434e+58
          1299.48050	         1.06313e+58
          1300.28680	         9.07741e+57
          1301.09310	         6.71332e+57
          1301.89940	         5.01144e+57
          1302.70570	         6.84890e+57
          1303.51200	         8.66665e+57
          1304.31830	         1.15196e+58
          1305.12460	         1.14143e+58
          1305.93090	         1.10381e+58
          1306.73720	         1.26095e+58
          1307.54350	         1.41821e+58
          1308.34980	         1.22528e+58
          1309.15610	         1.49055e+58
          1309.96240	         1.50991e+58
          1310.76870	         1.04133e+58
          1311.57500	         9.14266e+57
          1312.38130	         8.88644e+57
          1313.18760	         1.22922e+58
          1313.99390	         1.51328e+58
          1314.80020	         1.70814e+58
          1315.60650	         1.51848e+58
          1316.41280	         1.31745e+58
          1317.21910	         1.01654e+58
          1318.02540	         9.87846e+57
          1318.83170	         1.30595e+58
          1319.63800	         1.17426e+58
          1320.44430	         9.85429e+57
          1321.25060	         1.10203e+58
          1322.05690	         1.14096e+58
          1322.86320	         1.24091e+58
          1323.66950	         1.17201e+58
          1324.47580	         1.02821e+58
          1325.28210	         1.10707e+58
          1326.08840	         1.24486e+58
          1326.89470	         1.27357e+58
          1327.70100	         9.85739e+57
          1328.50730	         7.99979e+57
          1329.31360	         9.59174e+57
          1330.11990	         1.09242e+58
          1330.92620	         1.00323e+58
          1331.73250	         1.20719e+58
          1332.53880	         1.12173e+58
          1333.34510	         8.93272e+57
          1334.15140	         8.91116e+57
          1334.95770	         1.04299e+58
          1335.76400	         1.13120e+58
          1336.57030	         1.04901e+58
          1337.37660	         9.73911e+57
          1338.18290	         9.72792e+57
          1338.98920	         1.14993e+58
          1339.79550	         1.09637e+58
          1340.60180	         1.01580e+58
          1341.40810	         1.33294e+58
          1342.21440	         1.33778e+58
          1343.02070	         1.27286e+58
          1343.82700	         1.24316e+58
          1344.63330	         1.31356e+58
          1345.43960	         1.37555e+58
          1346.24590	         1.19384e+58
          1347.05220	         1.28102e+58
          1347.85850	         1.05364e+58
          1348.66480	         1.00256e+58
          1349.47110	         1.11736e+58
          1350.27740	         1.13551e+58
          1351.08370	         1.06048e+58
          1351.89000	         1.09612e+58
          1352.69630	         1.10398e+58
          1353.50260	         1.21829e+58
          1354.30890	         1.30727e+58
          1355.11520	         1.17778e+58
          1355.92150	         1.09479e+58
          1356.72780	         1.11860e+58
          1357.53410	         1.10246e+58
          1358.34040	         1.11623e+58
          1359.14670	         9.88551e+57
          1359.95300	         1.07760e+58
          1360.75930	         1.20364e+58
          1361.56560	         1.16322e+58
          1362.37190	         1.10587e+58
          1363.17820	         1.04163e+58
          1363.98450	         1.07648e+58
          1364.79080	         1.27172e+58
          1365.59710	         1.35844e+58
          1366.40340	         1.24670e+58
          1367.20970	         1.14257e+58
          1368.01600	         1.10475e+58
          1368.82230	         9.57660e+57
          1369.62860	         1.16476e+58
          1370.43490	         1.00576e+58
          1371.24120	         9.26334e+57
          1372.04750	         8.55983e+57
          1372.85380	         9.71941e+57
          1373.66010	         1.22337e+58
          1374.46640	         1.06316e+58
          1375.27270	         9.33756e+57
          1376.07900	         8.75054e+57
          1376.88530	         9.18290e+57
          1377.69160	         9.48498e+57
          1378.49790	         7.50915e+57
          1379.30420	         7.14017e+57
          1380.11050	         8.76612e+57
          1380.91680	         7.94429e+57
          1381.72310	         6.73199e+57
          1382.52940	         7.37471e+57
          1383.33570	         8.68089e+57
          1384.14200	         9.93856e+57
          1384.94830	         1.03980e+58
          1385.75460	         9.10645e+57
          1386.56090	         1.05067e+58
          1387.36720	         1.19244e+58
          1388.17350	         1.39683e+58
          1388.97980	         1.40114e+58
          1389.78610	         1.07219e+58
          1390.59240	         7.99078e+57
          1391.39870	         6.34857e+57
          1392.20500	         7.37380e+57
          1393.01130	         6.58067e+57
          1393.81760	         6.44266e+57
          1394.62390	         7.44749e+57
          1395.43020	         6.93543e+57
          1396.23650	         6.24115e+57
          1397.04280	         5.93609e+57
          1397.84910	         8.12449e+57
          1398.65540	         9.19545e+57
          1399.46170	         9.17158e+57
          1400.26800	         7.26606e+57
          1401.07430	         6.99751e+57
          1401.88060	         7.83962e+57
          1402.68690	         8.04755e+57
          1403.49320	         8.33746e+57
          1404.29950	         8.65881e+57
          1405.10580	         1.01883e+58
          1405.91210	         1.06663e+58
          1406.71840	         1.06290e+58
          1407.52470	         9.56667e+57
          1408.33100	         9.94789e+57
          1409.13730	         1.17288e+58
          1409.94360	         1.11795e+58
          1410.74990	         1.12326e+58
          1411.55620	         9.76164e+57
          1412.36250	         8.35484e+57
          1413.16880	         8.34766e+57
          1413.97510	         8.47628e+57
          1414.78140	         8.00397e+57
          1415.58770	         9.81354e+57
          1416.39400	         1.13835e+58
          1417.20030	         1.10361e+58
          1418.00660	         9.38157e+57
          1418.81290	         9.22289e+57
          1419.61920	         9.51468e+57
          1420.42550	         1.12407e+58
          1421.23180	         1.35280e+58
          1422.03810	         1.28691e+58
          1422.84440	         1.16658e+58
          1423.65070	         1.30714e+58
          1424.45700	         1.16958e+58
          1425.26330	         9.46652e+57
          1426.06960	         8.17196e+57
          1426.87590	         8.71731e+57
          1427.68220	         1.01490e+58
          1428.48850	         1.15823e+58
          1429.29480	         1.03512e+58
          1430.10110	         9.59537e+57
          1430.90740	         9.83188e+57
          1431.71370	         9.64128e+57
          1432.52000	         8.84325e+57
          1433.32630	         8.37003e+57
          1434.13260	         7.56483e+57
          1434.93890	         8.49723e+57
          1435.74520	         8.74266e+57
          1436.55150	         9.32339e+57
          1437.35780	         1.01699e+58
          1438.16410	         1.04360e+58
          1438.97040	         8.96269e+57
          1439.77670	         8.26609e+57
          1440.58300	         9.37749e+57
          1441.38930	         9.93761e+57
          1442.19560	         9.74845e+57
          1443.00190	         9.18411e+57
          1443.80820	         1.05640e+58
          1444.61450	         9.17100e+57
          1445.42080	         7.77085e+57
          1446.22710	         9.86955e+57
          1447.03340	         9.99137e+57
          1447.83970	         9.97519e+57
          1448.64600	         1.09715e+58
          1449.45230	         1.01761e+58
          1450.25860	         9.41543e+57
          1451.06490	         8.65206e+57
          1451.87120	         7.48349e+57
          1452.67750	         6.85804e+57
          1453.48380	         8.48456e+57
          1454.29010	         8.37503e+57
          1455.09640	         7.70596e+57
          1455.90270	         9.31655e+57
          1456.70900	         8.32362e+57
          1457.51530	         9.09271e+57
          1458.32160	         1.16764e+58
          1459.12790	         1.10044e+58
          1459.93420	         9.86676e+57
          1460.74050	         8.59976e+57
          1461.54680	         8.27860e+57
          1462.35310	         7.75649e+57
          1463.15940	         8.98640e+57
          1463.96570	         1.00285e+58
          1464.77200	         1.06757e+58
          1465.57830	         1.02144e+58
          1466.38460	         8.57004e+57
          1467.19090	         9.27628e+57
          1467.99720	         8.99729e+57
          1468.80350	         8.83795e+57
          1469.60980	         9.33144e+57
          1470.41610	         8.97040e+57
          1471.22240	         8.93626e+57
          1472.02870	         9.88359e+57
          1472.83500	         9.58586e+57
          1473.64130	         9.91423e+57
          1474.44760	         9.67059e+57
          1475.25390	         9.50074e+57
          1476.06020	         9.76853e+57
          1476.86650	         8.84409e+57
          1477.67280	         7.36199e+57
          1478.47910	         6.80637e+57
          1479.28540	         6.94342e+57
          1480.09170	         7.62029e+57
          1480.89800	         8.29693e+57
          1481.70430	         7.85553e+57
          1482.51060	         7.71430e+57
          1483.31690	         7.85125e+57
          1484.12320	         7.34063e+57
          1484.92950	         8.16743e+57
          1485.73580	         8.83455e+57
          1486.54210	         8.75304e+57
          1487.34840	         8.38613e+57
          1488.15470	         9.00690e+57
          1488.96100	         9.72517e+57
          1489.76730	         9.19298e+57
