#sample_300_stacked_spectrum_rest_UV-bands_median_H-alpha_noDC.txt
#median Lum: 1.68227e+42
#Rest-frame wavelength (A) | Luminosity (erg/s/A)
#
          1110.00000	         0.00000e+00
          1110.80630	         5.04101e+59
          1111.61260	         1.36442e+59
          1112.41890	         2.32765e+59
          1113.22520	         9.21202e+58
          1114.03150	         1.49152e+59
          1114.83780	         3.55994e+59
          1115.64410	         1.28560e+59
          1116.45040	         1.05963e+59
          1117.25670	         1.28570e+59
          1118.06300	         2.11133e+59
          1118.86930	         1.50702e+59
          1119.67560	         1.27143e+59
          1120.48190	        -7.90229e+58
          1121.28820	        -7.83095e+58
          1122.09450	         1.19823e+59
          1122.90080	        -1.25166e+57
          1123.70710	         3.56146e+58
          1124.51340	         8.46927e+58
          1125.31970	         4.80736e+58
          1126.12600	         1.14511e+58
          1126.93230	        -4.81675e+58
          1127.73860	        -4.46542e+58
          1128.54490	        -5.43273e+57
          1129.35120	        -4.30017e+57
          1130.15750	        -3.73431e+57
          1130.96380	        -2.85541e+58
          1131.77010	         3.12786e+58
          1132.57640	         2.37252e+58
          1133.38270	         1.76495e+58
          1134.18900	         1.83395e+58
          1134.99530	         3.14343e+58
          1135.80160	         2.57937e+58
          1136.60790	         2.46057e+58
          1137.41420	        -1.05145e+58
          1138.22050	         3.74566e+58
          1139.02680	         2.00837e+58
          1139.83310	         2.42634e+58
          1140.63940	         2.59521e+58
          1141.44570	        -6.50139e+57
          1142.25200	         1.45407e+57
          1143.05830	         2.83538e+58
          1143.86460	         4.48154e+58
          1144.67090	         3.75389e+58
          1145.47720	         2.51329e+58
          1146.28350	         2.10177e+58
          1147.08980	         1.31094e+58
          1147.89610	         1.46023e+58
          1148.70240	         2.33543e+58
          1149.50870	         3.22753e+58
          1150.31500	         1.37474e+58
          1151.12130	         6.15319e+57
          1151.92760	        -7.07156e+56
          1152.73390	         1.17966e+57
          1153.54020	         1.65919e+58
          1154.34650	         1.62575e+58
          1155.15280	         9.25136e+57
          1155.95910	         1.16476e+58
          1156.76540	         9.04518e+57
          1157.57170	         2.15586e+57
          1158.37800	        -2.44558e+57
          1159.18430	        -5.93466e+57
          1159.99060	         4.47907e+57
          1160.79690	         1.15876e+58
          1161.60320	         1.32605e+58
          1162.40950	         1.62526e+58
          1163.21580	         1.02520e+58
          1164.02210	         1.74267e+58
          1164.82840	         6.60602e+57
          1165.63470	         1.07865e+58
          1166.44100	         2.48141e+58
          1167.24730	         2.08709e+58
          1168.05360	         1.42739e+58
          1168.85990	         8.89518e+57
          1169.66620	         7.21616e+57
          1170.47250	         8.02145e+57
          1171.27880	         1.19472e+58
          1172.08510	         1.72000e+58
          1172.89140	         1.38144e+58
          1173.69770	         1.02511e+58
          1174.50400	         1.67293e+58
          1175.31030	         1.88898e+58
          1176.11660	         1.86082e+58
          1176.92290	         1.71802e+58
          1177.72920	         1.15158e+58
          1178.53550	         7.46486e+57
          1179.34180	        -5.14254e+56
          1180.14810	         4.29190e+56
          1180.95440	         9.52639e+57
          1181.76070	         1.08762e+58
          1182.56700	         1.12914e+58
          1183.37330	         7.21349e+57
          1184.17960	         1.06995e+58
          1184.98590	         1.20501e+58
          1185.79220	         1.22035e+58
          1186.59850	         1.04230e+58
          1187.40480	         8.94122e+57
          1188.21110	         1.39120e+58
          1189.01740	         7.75168e+57
          1189.82370	         1.21915e+58
          1190.63000	         9.63245e+57
          1191.43630	         1.31579e+58
          1192.24260	         1.10818e+58
          1193.04890	         1.23344e+58
          1193.85520	         1.13437e+58
          1194.66150	         1.05637e+58
          1195.46780	         1.41222e+58
          1196.27410	         1.32011e+58
          1197.08040	         7.12564e+57
          1197.88670	         8.28598e+57
          1198.69300	         1.29418e+58
          1199.49930	         1.58862e+58
          1200.30560	         1.03697e+58
          1201.11190	         1.05492e+58
          1201.91820	         1.08610e+58
          1202.72450	         7.80139e+57
          1203.53080	         1.41483e+58
          1204.33710	         8.98100e+57
          1205.14340	         6.74255e+57
          1205.94970	         4.32134e+57
          1206.75600	         7.04419e+57
          1207.56230	         7.22547e+57
          1208.36860	         1.06911e+58
          1209.17490	         9.13682e+57
          1209.98120	         1.20633e+58
          1210.78750	         1.19545e+58
          1211.59380	         1.43260e+58
          1212.40010	         1.99167e+58
          1213.20640	         1.71983e+58
          1214.01270	         1.96804e+58
          1214.81900	         2.52426e+58
          1215.62530	         4.60991e+58
          1216.43160	         9.17829e+58
          1217.23790	         1.51339e+59
          1218.04420	         1.11372e+59
          1218.85050	         8.15079e+58
          1219.65680	         5.30167e+58
          1220.46310	         3.25745e+58
          1221.26940	         2.46273e+58
          1222.07570	         1.11513e+58
          1222.88200	         1.00206e+58
          1223.68830	         9.71457e+57
          1224.49460	         7.41313e+57
          1225.30090	         6.30843e+57
          1226.10720	         7.95812e+57
          1226.91350	         7.48965e+57
          1227.71980	         1.11337e+58
          1228.52610	         1.10565e+58
          1229.33240	         6.64177e+57
          1230.13870	         7.86058e+57
          1230.94500	         7.38653e+57
          1231.75130	         7.58008e+57
          1232.55760	         8.17440e+57
          1233.36390	         7.01272e+57
          1234.17020	         7.82886e+57
          1234.97650	         9.08208e+57
          1235.78280	         8.71314e+57
          1236.58910	         7.28058e+57
          1237.39540	         1.00594e+58
          1238.20170	         1.19297e+58
          1239.00800	         1.25888e+58
          1239.81430	         1.33074e+58
          1240.62060	         9.44787e+57
          1241.42690	         9.97229e+57
          1242.23320	         1.18877e+58
          1243.03950	         8.98596e+57
          1243.84580	         8.84214e+57
          1244.65210	         1.05965e+58
          1245.45840	         9.35787e+57
          1246.26470	         9.29642e+57
          1247.07100	         8.42618e+57
          1247.87730	         5.84601e+57
          1248.68360	         2.43347e+57
          1249.48990	         1.98723e+57
          1250.29620	         5.43822e+57
          1251.10250	         5.56219e+57
          1251.90880	         5.59680e+57
          1252.71510	         5.58733e+57
          1253.52140	         6.23680e+57
          1254.32770	         9.36043e+57
          1255.13400	         1.09804e+58
          1255.94030	         9.05567e+57
          1256.74660	         8.18186e+57
          1257.55290	         1.08306e+58
          1258.35920	         9.03518e+57
          1259.16550	         4.03497e+57
          1259.97180	         3.71460e+57
          1260.77810	         7.65344e+57
          1261.58440	         9.12937e+57
          1262.39070	         5.51519e+57
          1263.19700	         6.68226e+57
          1264.00330	         9.03454e+57
          1264.80960	         1.01087e+58
          1265.61590	         1.26069e+58
          1266.42220	         1.24469e+58
          1267.22850	         1.09451e+58
          1268.03480	         1.55183e+58
          1268.84110	         1.41798e+58
          1269.64740	         1.13524e+58
          1270.45370	         1.18227e+58
          1271.26000	         1.11561e+58
          1272.06630	         1.34652e+58
          1272.87260	         1.31712e+58
          1273.67890	         1.28157e+58
          1274.48520	         1.39208e+58
          1275.29150	         1.34210e+58
          1276.09780	         1.25899e+58
          1276.90410	         1.45766e+58
          1277.71040	         1.42710e+58
          1278.51670	         1.40100e+58
          1279.32300	         1.39179e+58
          1280.12930	         1.25798e+58
          1280.93560	         1.04546e+58
          1281.74190	         1.05529e+58
          1282.54820	         1.39291e+58
          1283.35450	         1.18867e+58
          1284.16080	         1.06854e+58
          1284.96710	         1.37106e+58
          1285.77340	         1.27068e+58
          1286.57970	         1.25720e+58
          1287.38600	         1.59854e+58
          1288.19230	         1.69934e+58
          1288.99860	         1.59830e+58
          1289.80490	         9.97461e+57
          1290.61120	         1.02809e+58
          1291.41750	         1.35206e+58
          1292.22380	         1.21153e+58
          1293.03010	         1.12358e+58
          1293.83640	         1.09726e+58
          1294.64270	         1.02809e+58
          1295.44900	         7.52681e+57
          1296.25530	         7.54098e+57
          1297.06160	         8.72756e+57
          1297.86790	         9.70234e+57
          1298.67420	         1.03406e+58
          1299.48050	         1.04831e+58
          1300.28680	         1.23882e+58
          1301.09310	         7.97049e+57
          1301.89940	         3.04818e+57
          1302.70570	         4.95462e+57
          1303.51200	         7.72406e+57
          1304.31830	         9.39253e+57
          1305.12460	         1.06456e+58
          1305.93090	         1.11814e+58
          1306.73720	         1.27510e+58
          1307.54350	         1.52593e+58
          1308.34980	         1.56790e+58
          1309.15610	         1.44879e+58
          1309.96240	         1.36601e+58
          1310.76870	         1.45635e+58
          1311.57500	         1.45431e+58
          1312.38130	         1.16026e+58
          1313.18760	         1.29057e+58
          1313.99390	         1.50606e+58
          1314.80020	         1.61513e+58
          1315.60650	         1.45411e+58
          1316.41280	         1.21993e+58
          1317.21910	         1.08157e+58
          1318.02540	         1.19202e+58
          1318.83170	         1.31709e+58
          1319.63800	         1.15463e+58
          1320.44430	         1.12328e+58
          1321.25060	         1.21450e+58
          1322.05690	         1.20753e+58
          1322.86320	         1.23021e+58
          1323.66950	         1.23675e+58
          1324.47580	         9.64275e+57
          1325.28210	         1.07564e+58
          1326.08840	         1.27662e+58
          1326.89470	         1.26722e+58
          1327.70100	         1.11490e+58
          1328.50730	         8.00537e+57
          1329.31360	         7.98201e+57
          1330.11990	         9.46540e+57
          1330.92620	         8.42241e+57
          1331.73250	         1.06237e+58
          1332.53880	         1.01330e+58
          1333.34510	         9.88172e+57
          1334.15140	         1.01371e+58
          1334.95770	         9.64468e+57
          1335.76400	         9.51980e+57
          1336.57030	         1.00399e+58
          1337.37660	         9.20858e+57
          1338.18290	         9.70246e+57
          1338.98920	         1.03259e+58
          1339.79550	         1.09336e+58
          1340.60180	         1.11654e+58
          1341.40810	         1.18299e+58
          1342.21440	         1.22584e+58
          1343.02070	         1.23767e+58
          1343.82700	         1.23301e+58
          1344.63330	         1.09964e+58
          1345.43960	         1.34204e+58
          1346.24590	         1.41529e+58
          1347.05220	         1.32047e+58
          1347.85850	         1.12069e+58
          1348.66480	         1.26325e+58
          1349.47110	         1.39063e+58
          1350.27740	         1.16510e+58
          1351.08370	         1.11196e+58
          1351.89000	         1.07275e+58
          1352.69630	         1.11040e+58
          1353.50260	         1.21803e+58
          1354.30890	         1.11353e+58
          1355.11520	         1.14171e+58
          1355.92150	         1.24373e+58
          1356.72780	         1.08779e+58
          1357.53410	         1.09052e+58
          1358.34040	         1.11898e+58
          1359.14670	         9.84308e+57
          1359.95300	         1.02792e+58
          1360.75930	         1.17098e+58
          1361.56560	         1.04735e+58
          1362.37190	         1.16632e+58
          1363.17820	         1.22571e+58
          1363.98450	         1.14057e+58
          1364.79080	         1.22626e+58
          1365.59710	         1.34561e+58
          1366.40340	         1.26226e+58
          1367.20970	         1.05832e+58
          1368.01600	         9.87454e+57
          1368.82230	         9.56788e+57
          1369.62860	         1.07409e+58
          1370.43490	         9.38789e+57
          1371.24120	         9.42543e+57
          1372.04750	         8.61544e+57
          1372.85380	         1.09824e+58
          1373.66010	         1.05542e+58
          1374.46640	         9.92238e+57
          1375.27270	         1.04898e+58
          1376.07900	         9.40166e+57
          1376.88530	         8.86506e+57
          1377.69160	         8.34150e+57
          1378.49790	         7.16226e+57
          1379.30420	         7.47488e+57
          1380.11050	         1.00785e+58
          1380.91680	         8.94642e+57
          1381.72310	         6.83499e+57
          1382.52940	         7.27982e+57
          1383.33570	         7.90391e+57
          1384.14200	         9.44025e+57
          1384.94830	         1.07123e+58
          1385.75460	         1.05144e+58
          1386.56090	         9.12910e+57
          1387.36720	         9.75060e+57
          1388.17350	         1.16024e+58
          1388.97980	         1.07787e+58
          1389.78610	         8.58384e+57
          1390.59240	         6.75079e+57
          1391.39870	         6.27522e+57
          1392.20500	         7.77968e+57
          1393.01130	         7.74335e+57
          1393.81760	         8.25552e+57
          1394.62390	         7.54482e+57
          1395.43020	         6.34014e+57
          1396.23650	         6.89741e+57
          1397.04280	         7.63263e+57
          1397.84910	         7.95663e+57
          1398.65540	         7.92561e+57
          1399.46170	         9.40427e+57
          1400.26800	         8.74093e+57
          1401.07430	         7.74639e+57
          1401.88060	         8.30004e+57
          1402.68690	         9.58388e+57
          1403.49320	         9.19798e+57
          1404.29950	         8.90201e+57
          1405.10580	         9.93747e+57
          1405.91210	         1.10747e+58
          1406.71840	         1.15358e+58
          1407.52470	         1.11030e+58
          1408.33100	         9.65633e+57
          1409.13730	         1.02649e+58
          1409.94360	         1.11144e+58
          1410.74990	         1.17545e+58
          1411.55620	         1.09673e+58
          1412.36250	         9.79688e+57
          1413.16880	         8.77192e+57
          1413.97510	         6.84863e+57
          1414.78140	         8.24262e+57
          1415.58770	         1.07074e+58
          1416.39400	         1.16045e+58
          1417.20030	         1.04384e+58
          1418.00660	         8.49497e+57
          1418.81290	         9.44465e+57
          1419.61920	         1.02700e+58
          1420.42550	         1.18248e+58
          1421.23180	         1.37421e+58
          1422.03810	         1.24010e+58
          1422.84440	         1.19474e+58
          1423.65070	         1.38314e+58
          1424.45700	         1.04771e+58
          1425.26330	         7.27901e+57
          1426.06960	         8.85768e+57
          1426.87590	         8.80213e+57
          1427.68220	         9.80425e+57
          1428.48850	         1.14624e+58
          1429.29480	         1.12576e+58
          1430.10110	         9.70010e+57
          1430.90740	         8.10786e+57
          1431.71370	         8.56603e+57
          1432.52000	         8.99780e+57
          1433.32630	         7.41693e+57
          1434.13260	         7.76859e+57
          1434.93890	         9.43812e+57
          1435.74520	         9.60040e+57
          1436.55150	         9.69576e+57
          1437.35780	         8.97439e+57
          1438.16410	         9.12295e+57
          1438.97040	         8.76254e+57
          1439.77670	         9.08532e+57
          1440.58300	         9.63230e+57
          1441.38930	         9.42449e+57
          1442.19560	         9.39416e+57
          1443.00190	         9.22720e+57
          1443.80820	         1.05294e+58
          1444.61450	         9.31538e+57
          1445.42080	         7.23997e+57
          1446.22710	         9.26205e+57
          1447.03340	         9.77743e+57
          1447.83970	         1.08780e+58
          1448.64600	         1.13742e+58
          1449.45230	         1.08203e+58
          1450.25860	         1.03163e+58
          1451.06490	         9.41477e+57
          1451.87120	         8.15054e+57
          1452.67750	         7.66768e+57
          1453.48380	         9.07285e+57
          1454.29010	         8.44235e+57
          1455.09640	         7.35494e+57
          1455.90270	         8.60493e+57
          1456.70900	         8.47334e+57
          1457.51530	         9.16800e+57
          1458.32160	         1.18192e+58
          1459.12790	         1.19643e+58
          1459.93420	         9.73045e+57
          1460.74050	         9.19489e+57
          1461.54680	         9.13767e+57
          1462.35310	         7.29211e+57
          1463.15940	         9.69914e+57
          1463.96570	         1.17554e+58
          1464.77200	         1.20380e+58
          1465.57830	         1.06266e+58
          1466.38460	         8.13982e+57
          1467.19090	         7.51802e+57
          1467.99720	         8.41505e+57
          1468.80350	         8.80510e+57
          1469.60980	         8.96257e+57
          1470.41610	         1.00753e+58
          1471.22240	         9.36148e+57
          1472.02870	         9.50972e+57
          1472.83500	         9.48997e+57
          1473.64130	         9.63726e+57
          1474.44760	         9.47181e+57
          1475.25390	         8.99519e+57
          1476.06020	         9.17624e+57
          1476.86650	         8.77916e+57
          1477.67280	         8.54164e+57
          1478.47910	         7.68747e+57
          1479.28540	         6.37359e+57
          1480.09170	         8.06655e+57
          1480.89800	         9.15139e+57
          1481.70430	         9.07555e+57
          1482.51060	         7.68740e+57
          1483.31690	         7.62915e+57
          1484.12320	         7.16294e+57
          1484.92950	         7.53987e+57
          1485.73580	         7.38046e+57
          1486.54210	         8.38589e+57
          1487.34840	         8.72182e+57
          1488.15470	         8.69646e+57
          1488.96100	         8.96843e+57
          1489.76730	         9.46728e+57
