#sample_257_stacked_spectrum_rest_UV-bands_median_H-alpha_noDC.txt
#median Lum: 1.69524e+42
#Rest-frame wavelength (A) | Luminosity (erg/s/A)
#
          1110.00000	         0.00000e+00
          1110.80630	         6.90162e+59
          1111.61260	         5.60602e+59
          1112.41890	         2.66275e+59
          1113.22520	        -5.10493e+58
          1114.03150	        -3.19359e+59
          1114.83780	         2.29722e+59
          1115.64410	        -1.51880e+58
          1116.45040	        -3.74116e+58
          1117.25670	         1.03499e+59
          1118.06300	         8.74992e+58
          1118.86930	        -8.63746e+58
          1119.67560	         6.72829e+58
          1120.48190	        -1.03151e+58
          1121.28820	        -1.09283e+59
          1122.09450	         6.53556e+58
          1122.90080	         7.14249e+58
          1123.70710	         1.05733e+59
          1124.51340	         3.31078e+58
          1125.31970	        -5.11582e+58
          1126.12600	         8.42237e+57
          1126.93230	        -1.91731e+58
          1127.73860	        -5.02855e+58
          1128.54490	        -3.28283e+58
          1129.35120	        -2.24682e+58
          1130.15750	        -1.03226e+58
          1130.96380	        -4.60670e+58
          1131.77010	         6.08956e+58
          1132.57640	         4.50313e+58
          1133.38270	         2.38805e+57
          1134.18900	         1.20717e+58
          1134.99530	         2.38966e+58
          1135.80160	         4.03038e+58
          1136.60790	         2.58101e+58
          1137.41420	        -4.25467e+57
          1138.22050	         2.06550e+58
          1139.02680	         3.05299e+58
          1139.83310	         2.14735e+58
          1140.63940	         2.09553e+58
          1141.44570	        -2.06249e+58
          1142.25200	         4.89065e+56
          1143.05830	         2.12002e+58
          1143.86460	         2.19215e+58
          1144.67090	         8.65146e+57
          1145.47720	         1.10903e+58
          1146.28350	         1.22989e+58
          1147.08980	         2.47979e+58
          1147.89610	         2.08124e+58
          1148.70240	         2.11222e+58
          1149.50870	         2.70961e+58
          1150.31500	         5.84547e+57
          1151.12130	         3.37146e+57
          1151.92760	         2.42479e+57
          1152.73390	         6.18155e+56
          1153.54020	         1.45941e+57
          1154.34650	         2.63033e+58
          1155.15280	         2.15478e+58
          1155.95910	         1.13483e+58
          1156.76540	         8.86491e+57
          1157.57170	         1.39021e+57
          1158.37800	        -1.50390e+57
          1159.18430	        -3.11150e+57
          1159.99060	         6.19284e+57
          1160.79690	         4.49369e+57
          1161.60320	         1.63623e+58
          1162.40950	         1.01764e+58
          1163.21580	         2.08475e+58
          1164.02210	         1.66962e+58
          1164.82840	         6.70856e+57
          1165.63470	         1.75687e+58
          1166.44100	         2.67585e+58
          1167.24730	         1.94801e+58
          1168.05360	         8.05472e+57
          1168.85990	         1.38592e+58
          1169.66620	         1.15707e+58
          1170.47250	         1.71897e+58
          1171.27880	         1.37837e+58
          1172.08510	         5.00977e+57
          1172.89140	         6.48649e+57
          1173.69770	         6.56573e+57
          1174.50400	         9.13366e+57
          1175.31030	         1.79573e+58
          1176.11660	         1.94800e+58
          1176.92290	         1.37193e+58
          1177.72920	         1.14689e+58
          1178.53550	         5.09858e+57
          1179.34180	         6.26673e+56
          1180.14810	         4.76262e+57
          1180.95440	         8.69731e+57
          1181.76070	         2.66463e+57
          1182.56700	         8.30688e+57
          1183.37330	         9.77224e+57
          1184.17960	         1.49246e+58
          1184.98590	         1.57530e+58
          1185.79220	         7.49779e+57
          1186.59850	         1.62223e+58
          1187.40480	         1.12699e+58
          1188.21110	         1.72806e+58
          1189.01740	         1.02176e+58
          1189.82370	         1.28847e+58
          1190.63000	         1.63147e+58
          1191.43630	         9.89919e+57
          1192.24260	         3.91547e+57
          1193.04890	         1.18189e+58
          1193.85520	         1.03917e+58
          1194.66150	         6.05061e+57
          1195.46780	         8.28303e+57
          1196.27410	         1.43716e+58
          1197.08040	         1.16812e+58
          1197.88670	         1.50270e+58
          1198.69300	         1.55888e+58
          1199.49930	         1.64594e+58
          1200.30560	         1.37356e+58
          1201.11190	         1.39726e+58
          1201.91820	         1.43505e+58
          1202.72450	         6.27504e+57
          1203.53080	         1.39275e+58
          1204.33710	         8.44970e+57
          1205.14340	         3.55834e+57
          1205.94970	         4.24002e+57
          1206.75600	         6.74460e+57
          1207.56230	         5.45512e+57
          1208.36860	         6.83379e+57
          1209.17490	         6.02471e+57
          1209.98120	         8.18238e+57
          1210.78750	         5.74213e+57
          1211.59380	         9.92429e+57
          1212.40010	         1.70612e+58
          1213.20640	         2.01982e+58
          1214.01270	         1.99637e+58
          1214.81900	         2.35923e+58
          1215.62530	         4.24593e+58
          1216.43160	         8.88659e+58
          1217.23790	         1.48763e+59
          1218.04420	         1.19195e+59
          1218.85050	         8.79429e+58
          1219.65680	         6.06922e+58
          1220.46310	         3.67790e+58
          1221.26940	         2.02726e+58
          1222.07570	         1.12022e+58
          1222.88200	         1.10487e+58
          1223.68830	         1.17768e+58
          1224.49460	         1.05089e+58
          1225.30090	         7.01759e+57
          1226.10720	         6.41575e+57
          1226.91350	         8.45654e+57
          1227.71980	         9.13453e+57
          1228.52610	         1.25353e+58
          1229.33240	         5.77266e+57
          1230.13870	         4.29498e+57
          1230.94500	         7.86769e+57
          1231.75130	         9.23811e+57
          1232.55760	         9.95449e+57
          1233.36390	         8.36584e+57
          1234.17020	         1.02488e+58
          1234.97650	         1.03096e+58
          1235.78280	         9.46382e+57
          1236.58910	         1.04170e+58
          1237.39540	         1.15710e+58
          1238.20170	         1.04388e+58
          1239.00800	         1.29198e+58
          1239.81430	         1.47469e+58
          1240.62060	         1.04653e+58
          1241.42690	         1.00590e+58
          1242.23320	         1.27766e+58
          1243.03950	         8.58084e+57
          1243.84580	         1.03529e+58
          1244.65210	         1.06917e+58
          1245.45840	         7.56322e+57
          1246.26470	         9.19829e+57
          1247.07100	         7.70314e+57
          1247.87730	         6.69585e+57
          1248.68360	         5.03238e+57
          1249.48990	         8.49144e+57
          1250.29620	         1.20729e+58
          1251.10250	         8.82533e+57
          1251.90880	         7.72098e+57
          1252.71510	         6.48064e+57
          1253.52140	         6.02000e+57
          1254.32770	         1.05553e+58
          1255.13400	         1.43480e+58
          1255.94030	         1.09781e+58
          1256.74660	         8.92297e+57
          1257.55290	         9.36051e+57
          1258.35920	         8.42081e+57
          1259.16550	         4.23724e+57
          1259.97180	         4.23720e+57
          1260.77810	         6.70875e+57
          1261.58440	         1.00227e+58
          1262.39070	         1.00487e+58
          1263.19700	         8.55618e+57
          1264.00330	         9.62894e+57
          1264.80960	         1.09181e+58
          1265.61590	         1.35298e+58
          1266.42220	         1.33034e+58
          1267.22850	         1.34611e+58
          1268.03480	         1.54749e+58
          1268.84110	         1.53890e+58
          1269.64740	         1.36745e+58
          1270.45370	         1.38711e+58
          1271.26000	         1.26156e+58
          1272.06630	         1.12446e+58
          1272.87260	         1.19316e+58
          1273.67890	         1.33686e+58
          1274.48520	         1.46634e+58
          1275.29150	         1.32296e+58
          1276.09780	         1.26344e+58
          1276.90410	         1.37773e+58
          1277.71040	         1.12354e+58
          1278.51670	         1.22582e+58
          1279.32300	         1.67425e+58
          1280.12930	         1.36732e+58
          1280.93560	         9.70493e+57
          1281.74190	         1.00786e+58
          1282.54820	         1.32906e+58
          1283.35450	         1.16613e+58
          1284.16080	         1.13908e+58
          1284.96710	         1.39584e+58
          1285.77340	         1.35078e+58
          1286.57970	         1.09233e+58
          1287.38600	         1.41129e+58
          1288.19230	         1.84593e+58
          1288.99860	         1.61732e+58
          1289.80490	         1.03155e+58
          1290.61120	         1.33543e+58
          1291.41750	         1.35813e+58
          1292.22380	         1.18188e+58
          1293.03010	         1.11823e+58
          1293.83640	         1.11337e+58
          1294.64270	         1.11011e+58
          1295.44900	         7.40013e+57
          1296.25530	         6.15967e+57
          1297.06160	         8.58597e+57
          1297.86790	         9.76718e+57
          1298.67420	         9.56299e+57
          1299.48050	         9.93944e+57
          1300.28680	         1.00419e+58
          1301.09310	         7.60787e+57
          1301.89940	         4.49242e+57
          1302.70570	         4.52967e+57
          1303.51200	         7.78021e+57
          1304.31830	         1.10732e+58
          1305.12460	         1.17902e+58
          1305.93090	         1.16881e+58
          1306.73720	         1.26298e+58
          1307.54350	         1.36807e+58
          1308.34980	         1.31231e+58
          1309.15610	         1.52775e+58
          1309.96240	         1.77238e+58
          1310.76870	         1.37937e+58
          1311.57500	         1.16688e+58
          1312.38130	         1.23111e+58
          1313.18760	         1.51742e+58
          1313.99390	         1.61297e+58
          1314.80020	         1.59009e+58
          1315.60650	         1.70017e+58
          1316.41280	         1.54278e+58
          1317.21910	         1.20788e+58
          1318.02540	         1.24832e+58
          1318.83170	         1.36253e+58
          1319.63800	         1.28967e+58
          1320.44430	         1.01642e+58
          1321.25060	         1.08539e+58
          1322.05690	         1.24855e+58
          1322.86320	         1.27105e+58
          1323.66950	         1.05870e+58
          1324.47580	         8.21775e+57
          1325.28210	         9.57563e+57
          1326.08840	         1.24142e+58
          1326.89470	         1.44504e+58
          1327.70100	         1.28328e+58
          1328.50730	         9.95976e+57
          1329.31360	         1.16632e+58
          1330.11990	         1.04337e+58
          1330.92620	         7.91569e+57
          1331.73250	         1.08153e+58
          1332.53880	         1.04860e+58
          1333.34510	         9.55666e+57
          1334.15140	         9.48940e+57
          1334.95770	         9.05839e+57
          1335.76400	         1.07558e+58
          1336.57030	         1.22108e+58
          1337.37660	         1.13156e+58
          1338.18290	         1.02684e+58
          1338.98920	         1.01176e+58
          1339.79550	         1.03682e+58
          1340.60180	         1.21872e+58
          1341.40810	         1.41191e+58
          1342.21440	         1.24341e+58
          1343.02070	         1.15802e+58
          1343.82700	         1.24042e+58
          1344.63330	         1.22391e+58
          1345.43960	         1.42583e+58
          1346.24590	         1.24501e+58
          1347.05220	         1.10057e+58
          1347.85850	         1.06454e+58
          1348.66480	         1.19525e+58
          1349.47110	         1.18206e+58
          1350.27740	         1.06139e+58
          1351.08370	         1.11490e+58
          1351.89000	         1.13250e+58
          1352.69630	         1.05718e+58
          1353.50260	         1.12002e+58
          1354.30890	         1.14154e+58
          1355.11520	         1.29632e+58
          1355.92150	         1.17204e+58
          1356.72780	         9.48987e+57
          1357.53410	         9.98484e+57
          1358.34040	         1.11381e+58
          1359.14670	         1.07238e+58
          1359.95300	         1.07860e+58
          1360.75930	         1.13401e+58
          1361.56560	         1.03724e+58
          1362.37190	         1.02760e+58
          1363.17820	         1.16034e+58
          1363.98450	         1.31263e+58
          1364.79080	         1.26539e+58
          1365.59710	         1.25421e+58
          1366.40340	         1.28280e+58
          1367.20970	         1.13534e+58
          1368.01600	         9.47728e+57
          1368.82230	         7.93786e+57
          1369.62860	         1.03458e+58
          1370.43490	         1.08652e+58
          1371.24120	         1.09602e+58
          1372.04750	         1.16787e+58
          1372.85380	         1.23695e+58
          1373.66010	         1.16341e+58
          1374.46640	         1.07314e+58
          1375.27270	         1.09694e+58
          1376.07900	         1.07797e+58
          1376.88530	         1.01099e+58
          1377.69160	         9.10774e+57
          1378.49790	         7.15225e+57
          1379.30420	         7.86338e+57
          1380.11050	         8.89320e+57
          1380.91680	         8.34605e+57
          1381.72310	         7.43068e+57
          1382.52940	         7.01372e+57
          1383.33570	         8.15367e+57
          1384.14200	         1.03462e+58
          1384.94830	         9.60137e+57
          1385.75460	         9.08736e+57
          1386.56090	         1.07823e+58
          1387.36720	         1.26111e+58
          1388.17350	         1.37615e+58
          1388.97980	         1.29047e+58
          1389.78610	         9.44513e+57
          1390.59240	         7.74663e+57
          1391.39870	         8.09916e+57
          1392.20500	         8.98233e+57
          1393.01130	         8.28634e+57
          1393.81760	         7.45926e+57
          1394.62390	         8.46715e+57
          1395.43020	         6.81488e+57
          1396.23650	         6.71574e+57
          1397.04280	         9.27139e+57
          1397.84910	         1.04119e+58
          1398.65540	         1.05470e+58
          1399.46170	         1.07944e+58
          1400.26800	         9.11585e+57
          1401.07430	         8.53461e+57
          1401.88060	         8.61296e+57
          1402.68690	         1.02887e+58
          1403.49320	         9.00540e+57
          1404.29950	         8.40870e+57
          1405.10580	         1.02304e+58
          1405.91210	         1.13719e+58
          1406.71840	         1.05873e+58
          1407.52470	         1.09860e+58
          1408.33100	         1.06986e+58
          1409.13730	         1.20390e+58
          1409.94360	         1.34556e+58
          1410.74990	         1.25542e+58
          1411.55620	         1.09555e+58
          1412.36250	         1.01726e+58
          1413.16880	         9.56911e+57
          1413.97510	         8.15463e+57
          1414.78140	         8.05881e+57
          1415.58770	         9.50856e+57
          1416.39400	         1.12523e+58
          1417.20030	         1.05374e+58
          1418.00660	         9.72945e+57
          1418.81290	         1.16286e+58
          1419.61920	         1.24526e+58
          1420.42550	         1.30406e+58
          1421.23180	         1.47001e+58
          1422.03810	         1.37546e+58
          1422.84440	         1.18873e+58
          1423.65070	         1.29592e+58
          1424.45700	         1.14796e+58
          1425.26330	         8.75206e+57
          1426.06960	         8.79404e+57
          1426.87590	         1.02254e+58
          1427.68220	         9.57204e+57
          1428.48850	         1.09988e+58
          1429.29480	         1.08912e+58
          1430.10110	         1.06161e+58
          1430.90740	         8.78338e+57
          1431.71370	         8.77936e+57
          1432.52000	         9.33499e+57
          1433.32630	         8.29641e+57
          1434.13260	         7.06874e+57
          1434.93890	         7.77934e+57
          1435.74520	         9.37253e+57
          1436.55150	         9.33618e+57
          1437.35780	         8.24626e+57
          1438.16410	         8.28004e+57
          1438.97040	         8.68457e+57
          1439.77670	         1.01289e+58
          1440.58300	         1.01905e+58
          1441.38930	         1.07149e+58
          1442.19560	         1.06637e+58
          1443.00190	         1.01043e+58
          1443.80820	         1.15454e+58
          1444.61450	         1.08654e+58
          1445.42080	         9.02069e+57
          1446.22710	         1.08458e+58
          1447.03340	         1.11221e+58
          1447.83970	         1.18470e+58
          1448.64600	         1.15650e+58
          1449.45230	         1.04371e+58
          1450.25860	         9.62098e+57
          1451.06490	         8.83215e+57
          1451.87120	         7.43154e+57
          1452.67750	         6.81433e+57
          1453.48380	         9.03034e+57
          1454.29010	         8.11941e+57
          1455.09640	         7.99669e+57
          1455.90270	         9.20222e+57
          1456.70900	         9.49036e+57
          1457.51530	         9.65443e+57
          1458.32160	         1.18415e+58
          1459.12790	         1.29486e+58
          1459.93420	         1.06261e+58
          1460.74050	         8.16024e+57
          1461.54680	         8.62343e+57
          1462.35310	         8.47499e+57
          1463.15940	         9.69583e+57
          1463.96570	         1.13043e+58
          1464.77200	         1.04923e+58
          1465.57830	         1.06156e+58
          1466.38460	         9.99376e+57
          1467.19090	         9.12142e+57
          1467.99720	         8.70045e+57
          1468.80350	         9.57017e+57
          1469.60980	         1.13044e+58
          1470.41610	         1.21838e+58
          1471.22240	         9.92740e+57
          1472.02870	         9.94646e+57
          1472.83500	         1.07577e+58
          1473.64130	         1.13022e+58
          1474.44760	         1.07323e+58
          1475.25390	         9.65257e+57
          1476.06020	         8.79083e+57
          1476.86650	         8.56305e+57
          1477.67280	         9.09439e+57
          1478.47910	         8.02810e+57
          1479.28540	         7.84990e+57
          1480.09170	         8.75815e+57
          1480.89800	         8.67062e+57
          1481.70430	         9.11385e+57
          1482.51060	         7.56985e+57
          1483.31690	         7.35481e+57
          1484.12320	         8.14631e+57
          1484.92950	         8.45390e+57
          1485.73580	         8.23959e+57
          1486.54210	         8.87512e+57
          1487.34840	         9.12819e+57
          1488.15470	         8.65860e+57
          1488.96100	         9.11999e+57
          1489.76730	         1.05228e+58
