#sample_407_stacked_spectrum_rest_UV-bands_median_H-alpha_noDC.txt
#median Lum: 1.71204e+42
#Rest-frame wavelength (A) | Luminosity (erg/s/A)
#
          1110.00000	         0.00000e+00
          1110.80630	         5.71319e+59
          1111.61260	         2.27134e+59
          1112.41890	        -7.99372e+58
          1113.22520	        -1.61615e+59
          1114.03150	        -5.42491e+58
          1114.83780	         2.71788e+59
          1115.64410	         2.37706e+59
          1116.45040	         3.70198e+59
          1117.25670	         1.94622e+58
          1118.06300	         2.15645e+59
          1118.86930	         1.91401e+57
          1119.67560	         7.08723e+58
          1120.48190	        -2.78948e+57
          1121.28820	        -4.37843e+56
          1122.09450	         8.61764e+58
          1122.90080	         9.41888e+58
          1123.70710	         5.31727e+58
          1124.51340	         3.46099e+58
          1125.31970	         2.69848e+58
          1126.12600	         2.10252e+58
          1126.93230	        -4.46519e+58
          1127.73860	        -1.04262e+59
          1128.54490	        -9.61133e+57
          1129.35120	        -6.66863e+57
          1130.15750	        -1.63802e+58
          1130.96380	        -2.50772e+58
          1131.77010	         3.01081e+58
          1132.57640	         5.68125e+58
          1133.38270	         4.54458e+58
          1134.18900	         8.64099e+57
          1134.99530	         1.97539e+58
          1135.80160	         2.19310e+58
          1136.60790	         3.42181e+58
          1137.41420	         1.93443e+58
          1138.22050	         2.31437e+58
          1139.02680	         1.97803e+58
          1139.83310	         1.54675e+58
          1140.63940	         5.75228e+57
          1141.44570	        -5.58219e+57
          1142.25200	        -8.84523e+57
          1143.05830	         3.33548e+58
          1143.86460	         2.76772e+58
          1144.67090	         2.94657e+58
          1145.47720	         1.09299e+58
          1146.28350	         9.13263e+57
          1147.08980	         1.23835e+58
          1147.89610	         1.70417e+58
          1148.70240	         3.24482e+58
          1149.50870	         2.78701e+58
          1150.31500	         1.05118e+58
          1151.12130	         2.30125e+58
          1151.92760	         1.42602e+58
          1152.73390	         1.22756e+58
          1153.54020	         5.12574e+57
          1154.34650	         1.54774e+58
          1155.15280	         2.46161e+58
          1155.95910	         8.91591e+57
          1156.76540	        -5.47852e+57
          1157.57170	        -1.16866e+58
          1158.37800	        -8.00094e+57
          1159.18430	        -1.88935e+57
          1159.99060	         1.14762e+58
          1160.79690	         8.59637e+57
          1161.60320	         1.45170e+58
          1162.40950	         1.70457e+58
          1163.21580	         9.50091e+57
          1164.02210	         4.10658e+57
          1164.82840	         4.01212e+57
          1165.63470	         2.04889e+58
          1166.44100	         3.06241e+58
          1167.24730	         2.27639e+58
          1168.05360	         2.11846e+57
          1168.85990	         7.06564e+57
          1169.66620	         5.96507e+57
          1170.47250	         1.43123e+58
          1171.27880	         9.54800e+57
          1172.08510	         6.13294e+57
          1172.89140	         6.62773e+57
          1173.69770	         5.44395e+57
          1174.50400	         1.03950e+58
          1175.31030	         1.82767e+58
          1176.11660	         1.58772e+58
          1176.92290	         1.40687e+58
          1177.72920	         1.01807e+58
          1178.53550	         5.50473e+57
          1179.34180	        -1.22330e+57
          1180.14810	         7.51511e+57
          1180.95440	         1.35280e+58
          1181.76070	         7.73923e+57
          1182.56700	         4.54542e+57
          1183.37330	         3.46682e+57
          1184.17960	         9.94175e+57
          1184.98590	         1.16483e+58
          1185.79220	         6.80185e+57
          1186.59850	         1.43622e+58
          1187.40480	         1.19582e+58
          1188.21110	         1.22446e+58
          1189.01740	         6.31092e+57
          1189.82370	         7.41602e+57
          1190.63000	         8.60837e+57
          1191.43630	         8.79219e+57
          1192.24260	         7.37951e+57
          1193.04890	         1.13447e+58
          1193.85520	         1.29227e+58
          1194.66150	         1.27869e+57
          1195.46780	         4.56583e+57
          1196.27410	         1.20661e+58
          1197.08040	         9.67073e+57
          1197.88670	         1.31767e+58
          1198.69300	         1.53612e+58
          1199.49930	         1.39214e+58
          1200.30560	         1.04128e+58
          1201.11190	         9.14727e+57
          1201.91820	         7.84427e+57
          1202.72450	         6.82288e+57
          1203.53080	         1.16329e+58
          1204.33710	         8.37463e+57
          1205.14340	         3.71689e+57
          1205.94970	         5.39025e+57
          1206.75600	         6.79870e+57
          1207.56230	         7.49241e+57
          1208.36860	         9.01934e+57
          1209.17490	         6.68331e+57
          1209.98120	         8.43198e+57
          1210.78750	         8.72125e+57
          1211.59380	         1.15489e+58
          1212.40010	         1.81828e+58
          1213.20640	         1.68854e+58
          1214.01270	         1.60370e+58
          1214.81900	         2.14993e+58
          1215.62530	         4.15412e+58
          1216.43160	         8.48064e+58
          1217.23790	         1.48299e+59
          1218.04420	         1.19177e+59
          1218.85050	         9.24874e+58
          1219.65680	         6.16798e+58
          1220.46310	         3.73945e+58
          1221.26940	         2.76357e+58
          1222.07570	         1.54015e+58
          1222.88200	         1.31266e+58
          1223.68830	         1.19765e+58
          1224.49460	         8.58551e+57
          1225.30090	         8.92491e+57
          1226.10720	         6.37139e+57
          1226.91350	         6.65651e+57
          1227.71980	         1.36267e+58
          1228.52610	         1.26229e+58
          1229.33240	         7.84382e+57
          1230.13870	         7.00837e+57
          1230.94500	         7.50290e+57
          1231.75130	         4.30413e+57
          1232.55760	         7.39563e+57
          1233.36390	         8.84997e+57
          1234.17020	         8.18377e+57
          1234.97650	         7.62951e+57
          1235.78280	         7.91094e+57
          1236.58910	         8.39140e+57
          1237.39540	         1.00065e+58
          1238.20170	         8.84451e+57
          1239.00800	         1.05910e+58
          1239.81430	         1.24416e+58
          1240.62060	         8.76663e+57
          1241.42690	         9.53057e+57
          1242.23320	         1.18729e+58
          1243.03950	         8.21185e+57
          1243.84580	         7.77895e+57
          1244.65210	         1.04655e+58
          1245.45840	         1.03710e+58
          1246.26470	         6.77800e+57
          1247.07100	         4.79828e+57
          1247.87730	         3.68233e+57
          1248.68360	         2.87911e+57
          1249.48990	         3.66162e+57
          1250.29620	         4.81630e+57
          1251.10250	         7.76305e+57
          1251.90880	         7.88583e+57
          1252.71510	         7.66227e+57
          1253.52140	         8.38828e+57
          1254.32770	         9.67663e+57
          1255.13400	         1.44592e+58
          1255.94030	         1.22364e+58
          1256.74660	         1.02601e+58
          1257.55290	         1.09960e+58
          1258.35920	         8.50371e+57
          1259.16550	         6.79287e+57
          1259.97180	         5.09853e+57
          1260.77810	         8.01427e+57
          1261.58440	         1.24528e+58
          1262.39070	         1.15659e+58
          1263.19700	         1.13849e+58
          1264.00330	         1.12441e+58
          1264.80960	         1.09013e+58
          1265.61590	         1.30940e+58
          1266.42220	         1.27358e+58
          1267.22850	         1.12052e+58
          1268.03480	         1.37219e+58
          1268.84110	         1.52193e+58
          1269.64740	         1.41652e+58
          1270.45370	         1.31907e+58
          1271.26000	         1.42741e+58
          1272.06630	         1.64664e+58
          1272.87260	         1.43594e+58
          1273.67890	         1.32199e+58
          1274.48520	         1.41891e+58
          1275.29150	         1.25325e+58
          1276.09780	         9.95438e+57
          1276.90410	         1.55756e+58
          1277.71040	         1.61535e+58
          1278.51670	         1.39384e+58
          1279.32300	         1.42014e+58
          1280.12930	         1.25579e+58
          1280.93560	         1.13999e+58
          1281.74190	         1.15576e+58
          1282.54820	         1.26814e+58
          1283.35450	         1.23242e+58
          1284.16080	         1.12923e+58
          1284.96710	         1.27227e+58
          1285.77340	         1.20383e+58
          1286.57970	         1.21747e+58
          1287.38600	         1.34278e+58
          1288.19230	         1.56682e+58
          1288.99860	         1.59668e+58
          1289.80490	         1.20142e+58
          1290.61120	         1.37837e+58
          1291.41750	         1.37517e+58
          1292.22380	         1.01700e+58
          1293.03010	         7.60495e+57
          1293.83640	         1.10722e+58
          1294.64270	         1.13267e+58
          1295.44900	         7.39025e+57
          1296.25530	         9.59874e+57
          1297.06160	         1.04371e+58
          1297.86790	         9.42260e+57
          1298.67420	         9.43346e+57
          1299.48050	         8.54725e+57
          1300.28680	         9.35451e+57
          1301.09310	         7.53432e+57
          1301.89940	         3.51981e+57
          1302.70570	         5.42208e+57
          1303.51200	         7.57304e+57
          1304.31830	         8.13531e+57
          1305.12460	         1.05777e+58
          1305.93090	         1.15306e+58
          1306.73720	         1.25950e+58
          1307.54350	         1.49702e+58
          1308.34980	         1.53669e+58
          1309.15610	         1.51226e+58
          1309.96240	         1.47511e+58
          1310.76870	         1.06920e+58
          1311.57500	         1.00137e+58
          1312.38130	         1.16559e+58
          1313.18760	         1.24248e+58
          1313.99390	         1.61199e+58
          1314.80020	         1.69411e+58
          1315.60650	         1.53114e+58
          1316.41280	         1.27081e+58
          1317.21910	         1.14316e+58
          1318.02540	         1.23390e+58
          1318.83170	         1.42773e+58
          1319.63800	         1.33821e+58
          1320.44430	         1.18464e+58
          1321.25060	         1.23403e+58
          1322.05690	         1.30320e+58
          1322.86320	         1.21693e+58
          1323.66950	         1.19880e+58
          1324.47580	         1.00267e+58
          1325.28210	         8.44318e+57
          1326.08840	         1.14191e+58
          1326.89470	         1.46082e+58
          1327.70100	         1.16366e+58
          1328.50730	         7.40487e+57
          1329.31360	         8.56499e+57
          1330.11990	         1.02500e+58
          1330.92620	         9.13033e+57
          1331.73250	         1.02006e+58
          1332.53880	         1.10320e+58
          1333.34510	         1.04469e+58
          1334.15140	         9.24620e+57
          1334.95770	         8.50799e+57
          1335.76400	         1.10745e+58
          1336.57030	         1.14937e+58
          1337.37660	         9.66708e+57
          1338.18290	         1.15658e+58
          1338.98920	         1.35266e+58
          1339.79550	         1.35116e+58
          1340.60180	         1.38717e+58
          1341.40810	         1.32275e+58
          1342.21440	         1.15347e+58
          1343.02070	         1.19146e+58
          1343.82700	         1.26504e+58
          1344.63330	         1.08530e+58
          1345.43960	         1.20196e+58
          1346.24590	         1.16164e+58
          1347.05220	         1.31449e+58
          1347.85850	         1.36869e+58
          1348.66480	         1.29454e+58
          1349.47110	         1.22041e+58
          1350.27740	         1.32238e+58
          1351.08370	         1.32021e+58
          1351.89000	         1.31923e+58
          1352.69630	         1.22787e+58
          1353.50260	         1.10264e+58
          1354.30890	         1.19378e+58
          1355.11520	         1.23112e+58
          1355.92150	         1.07838e+58
          1356.72780	         1.09088e+58
          1357.53410	         1.07487e+58
          1358.34040	         1.17921e+58
          1359.14670	         1.15723e+58
          1359.95300	         1.19890e+58
          1360.75930	         1.24104e+58
          1361.56560	         1.14797e+58
          1362.37190	         1.18805e+58
          1363.17820	         1.16311e+58
          1363.98450	         1.21927e+58
          1364.79080	         1.25669e+58
          1365.59710	         1.20010e+58
          1366.40340	         1.24399e+58
          1367.20970	         1.14587e+58
          1368.01600	         1.12964e+58
          1368.82230	         1.15131e+58
          1369.62860	         1.05330e+58
          1370.43490	         9.49056e+57
          1371.24120	         8.34707e+57
          1372.04750	         8.64332e+57
          1372.85380	         1.12405e+58
          1373.66010	         1.08675e+58
          1374.46640	         9.06006e+57
          1375.27270	         9.32522e+57
          1376.07900	         9.51598e+57
          1376.88530	         9.39617e+57
          1377.69160	         8.38365e+57
          1378.49790	         7.25492e+57
          1379.30420	         8.38065e+57
          1380.11050	         8.41798e+57
          1380.91680	         7.63421e+57
          1381.72310	         8.56102e+57
          1382.52940	         8.67421e+57
          1383.33570	         8.40193e+57
          1384.14200	         9.47371e+57
          1384.94830	         1.10522e+58
          1385.75460	         1.02567e+58
          1386.56090	         1.04045e+58
          1387.36720	         1.25488e+58
          1388.17350	         1.32037e+58
          1388.97980	         1.08683e+58
          1389.78610	         9.29644e+57
          1390.59240	         7.83022e+57
          1391.39870	         7.03703e+57
          1392.20500	         6.92652e+57
          1393.01130	         7.60460e+57
          1393.81760	         7.67518e+57
          1394.62390	         8.39154e+57
          1395.43020	         6.28627e+57
          1396.23650	         6.08061e+57
          1397.04280	         7.69339e+57
          1397.84910	         8.97365e+57
          1398.65540	         9.03841e+57
          1399.46170	         9.61198e+57
          1400.26800	         8.63935e+57
          1401.07430	         8.23366e+57
          1401.88060	         7.48315e+57
          1402.68690	         9.04708e+57
          1403.49320	         9.64971e+57
          1404.29950	         9.77261e+57
          1405.10580	         1.04129e+58
          1405.91210	         1.12016e+58
          1406.71840	         1.20420e+58
          1407.52470	         1.20822e+58
          1408.33100	         1.15511e+58
          1409.13730	         1.21019e+58
          1409.94360	         1.13492e+58
          1410.74990	         1.10364e+58
          1411.55620	         9.69786e+57
          1412.36250	         8.55427e+57
          1413.16880	         8.36903e+57
          1413.97510	         7.78207e+57
          1414.78140	         9.50050e+57
          1415.58770	         1.04765e+58
          1416.39400	         9.32315e+57
          1417.20030	         9.43367e+57
          1418.00660	         1.02505e+58
          1418.81290	         1.05780e+58
          1419.61920	         1.01940e+58
          1420.42550	         1.23394e+58
          1421.23180	         1.33784e+58
          1422.03810	         1.20475e+58
          1422.84440	         1.14718e+58
          1423.65070	         1.29796e+58
          1424.45700	         1.15587e+58
          1425.26330	         8.53227e+57
          1426.06960	         8.99446e+57
          1426.87590	         1.03351e+58
          1427.68220	         1.00059e+58
          1428.48850	         1.02395e+58
          1429.29480	         9.90071e+57
          1430.10110	         9.74536e+57
          1430.90740	         8.03422e+57
          1431.71370	         8.93209e+57
          1432.52000	         9.30601e+57
          1433.32630	         7.70769e+57
          1434.13260	         8.53094e+57
          1434.93890	         8.79995e+57
          1435.74520	         9.26163e+57
          1436.55150	         9.93644e+57
          1437.35780	         8.89562e+57
          1438.16410	         8.84256e+57
          1438.97040	         9.17534e+57
          1439.77670	         8.66542e+57
          1440.58300	         8.69288e+57
          1441.38930	         9.33883e+57
          1442.19560	         9.03293e+57
          1443.00190	         9.27445e+57
          1443.80820	         1.06886e+58
          1444.61450	         9.58442e+57
          1445.42080	         9.24204e+57
          1446.22710	         1.07692e+58
          1447.03340	         9.52777e+57
          1447.83970	         9.81992e+57
          1448.64600	         9.23068e+57
          1449.45230	         1.04612e+58
          1450.25860	         9.89441e+57
          1451.06490	         8.08424e+57
          1451.87120	         6.98398e+57
          1452.67750	         7.48993e+57
          1453.48380	         9.34053e+57
          1454.29010	         7.95043e+57
          1455.09640	         6.77684e+57
          1455.90270	         8.25084e+57
          1456.70900	         8.64240e+57
          1457.51530	         9.25982e+57
          1458.32160	         1.18321e+58
          1459.12790	         1.20765e+58
          1459.93420	         1.04651e+58
          1460.74050	         8.75642e+57
          1461.54680	         8.90275e+57
          1462.35310	         8.95314e+57
          1463.15940	         9.67833e+57
          1463.96570	         1.07257e+58
          1464.77200	         1.26917e+58
          1465.57830	         1.17594e+58
          1466.38460	         9.49753e+57
          1467.19090	         8.64139e+57
          1467.99720	         8.34732e+57
          1468.80350	         8.92364e+57
          1469.60980	         1.01664e+58
          1470.41610	         1.02124e+58
          1471.22240	         9.28010e+57
          1472.02870	         9.28554e+57
          1472.83500	         1.03521e+58
          1473.64130	         1.06052e+58
          1474.44760	         9.93845e+57
          1475.25390	         9.50536e+57
          1476.06020	         9.09442e+57
          1476.86650	         8.94556e+57
          1477.67280	         8.20015e+57
          1478.47910	         6.83275e+57
          1479.28540	         6.04163e+57
          1480.09170	         8.01164e+57
          1480.89800	         9.01871e+57
          1481.70430	         8.34948e+57
          1482.51060	         9.00309e+57
          1483.31690	         8.74503e+57
          1484.12320	         7.67168e+57
          1484.92950	         7.48941e+57
          1485.73580	         7.63811e+57
          1486.54210	         9.09361e+57
          1487.34840	         8.31268e+57
          1488.15470	         7.02533e+57
          1488.96100	         8.46146e+57
          1489.76730	         9.25464e+57
