#sample_178_stacked_spectrum_rest_UV-bands_median_H-alpha_noDC.txt
#median Lum: 1.69532e+42
#Rest-frame wavelength (A) | Luminosity (erg/s/A)
#
          1110.00000	         0.00000e+00
          1110.80630	         4.68631e+58
          1111.61260	         2.06492e+59
          1112.41890	         7.26165e+58
          1113.22520	         8.94640e+57
          1114.03150	         1.76336e+57
          1114.83780	         3.57641e+59
          1115.64410	         8.77755e+58
          1116.45040	         2.12009e+59
          1117.25670	         1.13688e+59
          1118.06300	         1.72745e+59
          1118.86930	         6.34580e+58
          1119.67560	         6.43136e+58
          1120.48190	        -9.54772e+58
          1121.28820	        -2.15711e+59
          1122.09450	        -9.35481e+58
          1122.90080	        -1.69068e+58
          1123.70710	         2.54976e+58
          1124.51340	         5.62241e+58
          1125.31970	        -1.62034e+58
          1126.12600	        -4.64241e+58
          1126.93230	        -4.86693e+58
          1127.73860	         2.24196e+58
          1128.54490	         4.38005e+58
          1129.35120	        -5.21546e+57
          1130.15750	        -1.48466e+58
          1130.96380	        -6.87341e+58
          1131.77010	         3.21899e+58
          1132.57640	         5.23648e+58
          1133.38270	         5.25523e+57
          1134.18900	         7.94414e+57
          1134.99530	         1.07163e+58
          1135.80160	         2.46564e+58
          1136.60790	         2.60650e+58
          1137.41420	        -6.09405e+57
          1138.22050	         5.34029e+58
          1139.02680	         2.48196e+58
          1139.83310	        -6.97806e+57
          1140.63940	         7.15577e+57
          1141.44570	        -1.26651e+58
          1142.25200	        -1.30035e+58
          1143.05830	         2.95970e+57
          1143.86460	         1.90113e+58
          1144.67090	         5.80174e+57
          1145.47720	         1.15877e+58
          1146.28350	         1.59733e+57
          1147.08980	         1.88722e+58
          1147.89610	         1.96248e+58
          1148.70240	         2.87193e+58
          1149.50870	         2.21489e+58
          1150.31500	         9.62320e+57
          1151.12130	         2.39340e+57
          1151.92760	         6.72663e+56
          1152.73390	         1.40283e+57
          1153.54020	         7.27226e+57
          1154.34650	         2.35673e+58
          1155.15280	         2.08054e+58
          1155.95910	         9.17055e+57
          1156.76540	         1.60334e+58
          1157.57170	         5.07828e+57
          1158.37800	        -2.06202e+57
          1159.18430	        -7.77058e+57
          1159.99060	         2.47883e+57
          1160.79690	         7.09236e+57
          1161.60320	         1.30959e+58
          1162.40950	         1.65460e+58
          1163.21580	         1.60049e+58
          1164.02210	         7.25032e+57
          1164.82840	         6.90345e+57
          1165.63470	         1.87566e+58
          1166.44100	         2.27825e+58
          1167.24730	         1.22426e+58
          1168.05360	         3.04338e+57
          1168.85990	         8.28860e+57
          1169.66620	         7.47470e+57
          1170.47250	         1.59570e+58
          1171.27880	         5.90545e+57
          1172.08510	         9.59471e+57
          1172.89140	         1.42390e+58
          1173.69770	         9.88731e+57
          1174.50400	         1.26000e+58
          1175.31030	         1.55201e+58
          1176.11660	         2.00038e+58
          1176.92290	         1.64943e+58
          1177.72920	         9.59942e+57
          1178.53550	         2.48796e+57
          1179.34180	         3.05476e+57
          1180.14810	         5.93376e+57
          1180.95440	         1.42690e+58
          1181.76070	         9.54061e+57
          1182.56700	         5.49760e+57
          1183.37330	         6.64053e+57
          1184.17960	         1.36693e+58
          1184.98590	         1.33001e+58
          1185.79220	         5.87441e+57
          1186.59850	         1.13150e+58
          1187.40480	         1.19268e+58
          1188.21110	         1.39701e+58
          1189.01740	         1.46016e+58
          1189.82370	         1.02236e+58
          1190.63000	         4.68321e+57
          1191.43630	         1.05022e+58
          1192.24260	         1.21100e+58
          1193.04890	         1.28146e+58
          1193.85520	         7.16915e+57
          1194.66150	         5.03391e+57
          1195.46780	         9.30877e+57
          1196.27410	         9.97744e+57
          1197.08040	         5.20630e+57
          1197.88670	         1.46828e+58
          1198.69300	         1.86790e+58
          1199.49930	         1.61309e+58
          1200.30560	         1.17084e+58
          1201.11190	         9.11963e+57
          1201.91820	         1.26369e+58
          1202.72450	         9.62385e+57
          1203.53080	         1.13036e+58
          1204.33710	         8.39054e+57
          1205.14340	         3.74189e+57
          1205.94970	         6.91361e+57
          1206.75600	         6.84439e+57
          1207.56230	         5.37513e+57
          1208.36860	         7.71627e+57
          1209.17490	         8.46457e+57
          1209.98120	         5.94914e+57
          1210.78750	         5.10879e+57
          1211.59380	         1.09944e+58
          1212.40010	         1.70329e+58
          1213.20640	         2.23571e+58
          1214.01270	         2.08693e+58
          1214.81900	         2.27742e+58
          1215.62530	         4.37189e+58
          1216.43160	         9.05050e+58
          1217.23790	         1.51861e+59
          1218.04420	         1.15453e+59
          1218.85050	         8.52271e+58
          1219.65680	         5.39995e+58
          1220.46310	         3.03810e+58
          1221.26940	         2.34067e+58
          1222.07570	         1.46103e+58
          1222.88200	         1.29282e+58
          1223.68830	         1.16069e+58
          1224.49460	         7.95812e+57
          1225.30090	         6.68717e+57
          1226.10720	         7.97040e+57
          1226.91350	         1.02354e+58
          1227.71980	         9.47560e+57
          1228.52610	         1.40592e+58
          1229.33240	         1.10267e+58
          1230.13870	         1.16922e+58
          1230.94500	         1.02686e+58
          1231.75130	         5.32619e+57
          1232.55760	         5.90769e+57
          1233.36390	         9.29104e+57
          1234.17020	         7.02943e+57
          1234.97650	         6.64001e+57
          1235.78280	         7.78568e+57
          1236.58910	         7.77997e+57
          1237.39540	         9.16773e+57
          1238.20170	         7.52216e+57
          1239.00800	         9.08087e+57
          1239.81430	         1.24452e+58
          1240.62060	         1.10286e+58
          1241.42690	         1.11063e+58
          1242.23320	         1.09585e+58
          1243.03950	         6.06734e+57
          1243.84580	         5.33365e+57
          1244.65210	         8.34675e+57
          1245.45840	         8.75089e+57
          1246.26470	         9.76169e+57
          1247.07100	         8.88378e+57
          1247.87730	         6.62463e+57
          1248.68360	         6.54217e+57
          1249.48990	         9.59405e+57
          1250.29620	         1.12301e+58
          1251.10250	         9.40567e+57
          1251.90880	         3.99331e+57
          1252.71510	         4.16808e+57
          1253.52140	         6.83604e+57
          1254.32770	         9.78640e+57
          1255.13400	         1.22332e+58
          1255.94030	         1.09031e+58
          1256.74660	         9.73949e+57
          1257.55290	         1.02160e+58
          1258.35920	         8.91379e+57
          1259.16550	         6.79452e+57
          1259.97180	         5.70952e+57
          1260.77810	         8.92597e+57
          1261.58440	         1.02498e+58
          1262.39070	         8.98914e+57
          1263.19700	         8.67872e+57
          1264.00330	         8.65682e+57
          1264.80960	         8.65381e+57
          1265.61590	         1.00702e+58
          1266.42220	         1.15863e+58
          1267.22850	         9.62089e+57
          1268.03480	         1.11685e+58
          1268.84110	         1.48779e+58
          1269.64740	         1.29688e+58
          1270.45370	         1.21911e+58
          1271.26000	         1.28667e+58
          1272.06630	         1.26482e+58
          1272.87260	         1.39027e+58
          1273.67890	         1.18151e+58
          1274.48520	         1.08209e+58
          1275.29150	         1.29042e+58
          1276.09780	         1.17801e+58
          1276.90410	         1.46122e+58
          1277.71040	         1.64011e+58
          1278.51670	         1.41031e+58
          1279.32300	         1.34611e+58
          1280.12930	         1.28317e+58
          1280.93560	         9.92599e+57
          1281.74190	         1.07951e+58
          1282.54820	         1.41936e+58
          1283.35450	         1.19285e+58
          1284.16080	         1.13914e+58
          1284.96710	         1.46447e+58
          1285.77340	         1.31188e+58
          1286.57970	         1.46330e+58
          1287.38600	         1.58097e+58
          1288.19230	         1.57340e+58
          1288.99860	         1.41078e+58
          1289.80490	         8.07206e+57
          1290.61120	         1.06413e+58
          1291.41750	         1.51160e+58
          1292.22380	         1.28286e+58
          1293.03010	         1.14874e+58
          1293.83640	         1.06561e+58
          1294.64270	         1.01634e+58
          1295.44900	         8.65134e+57
          1296.25530	         7.43723e+57
          1297.06160	         8.98779e+57
          1297.86790	         9.43462e+57
          1298.67420	         9.75704e+57
          1299.48050	         9.15018e+57
          1300.28680	         9.03593e+57
          1301.09310	         8.51427e+57
          1301.89940	         4.71763e+57
          1302.70570	         6.05752e+57
          1303.51200	         7.15841e+57
          1304.31830	         9.28568e+57
          1305.12460	         1.10812e+58
          1305.93090	         1.09778e+58
          1306.73720	         1.26816e+58
          1307.54350	         1.40154e+58
          1308.34980	         1.42101e+58
          1309.15610	         1.45530e+58
          1309.96240	         1.36243e+58
          1310.76870	         1.08979e+58
          1311.57500	         1.11306e+58
          1312.38130	         1.19554e+58
          1313.18760	         1.26612e+58
          1313.99390	         1.47995e+58
          1314.80020	         1.49957e+58
          1315.60650	         1.29472e+58
          1316.41280	         1.06414e+58
          1317.21910	         9.66544e+57
          1318.02540	         1.09823e+58
          1318.83170	         1.24650e+58
          1319.63800	         1.11302e+58
          1320.44430	         1.01039e+58
          1321.25060	         1.11527e+58
          1322.05690	         1.19483e+58
          1322.86320	         1.22334e+58
          1323.66950	         1.11260e+58
          1324.47580	         9.71169e+57
          1325.28210	         9.63092e+57
          1326.08840	         1.03380e+58
          1326.89470	         1.14720e+58
          1327.70100	         1.05308e+58
          1328.50730	         8.39297e+57
          1329.31360	         9.20537e+57
          1330.11990	         1.07858e+58
          1330.92620	         1.01133e+58
          1331.73250	         1.07149e+58
          1332.53880	         1.01590e+58
          1333.34510	         9.67099e+57
          1334.15140	         8.48907e+57
          1334.95770	         8.69775e+57
          1335.76400	         9.90048e+57
          1336.57030	         9.88984e+57
          1337.37660	         1.02369e+58
          1338.18290	         1.16985e+58
          1338.98920	         1.30137e+58
          1339.79550	         1.40382e+58
          1340.60180	         1.20804e+58
          1341.40810	         1.20914e+58
          1342.21440	         1.22141e+58
          1343.02070	         1.14206e+58
          1343.82700	         1.19646e+58
          1344.63330	         1.28841e+58
          1345.43960	         1.28039e+58
          1346.24590	         1.08241e+58
          1347.05220	         1.14103e+58
          1347.85850	         1.08920e+58
          1348.66480	         1.16660e+58
          1349.47110	         1.37988e+58
          1350.27740	         1.28705e+58
          1351.08370	         1.20647e+58
          1351.89000	         1.20406e+58
          1352.69630	         1.21669e+58
          1353.50260	         1.17742e+58
          1354.30890	         1.12517e+58
          1355.11520	         1.09900e+58
          1355.92150	         9.47464e+57
          1356.72780	         9.99849e+57
          1357.53410	         1.06082e+58
          1358.34040	         1.04294e+58
          1359.14670	         1.10218e+58
          1359.95300	         1.12519e+58
          1360.75930	         1.18468e+58
          1361.56560	         1.10296e+58
          1362.37190	         1.20780e+58
          1363.17820	         1.26015e+58
          1363.98450	         1.23410e+58
          1364.79080	         1.24828e+58
          1365.59710	         1.27303e+58
          1366.40340	         1.19104e+58
          1367.20970	         1.06259e+58
          1368.01600	         9.40060e+57
          1368.82230	         9.60011e+57
          1369.62860	         1.11020e+58
          1370.43490	         8.98519e+57
          1371.24120	         8.63275e+57
          1372.04750	         8.74664e+57
          1372.85380	         1.02264e+58
          1373.66010	         1.21107e+58
          1374.46640	         1.08442e+58
          1375.27270	         1.06021e+58
          1376.07900	         9.78516e+57
          1376.88530	         8.87274e+57
          1377.69160	         8.10478e+57
          1378.49790	         6.75227e+57
          1379.30420	         8.06541e+57
          1380.11050	         1.01086e+58
          1380.91680	         8.54156e+57
          1381.72310	         6.48470e+57
          1382.52940	         8.08166e+57
          1383.33570	         9.96012e+57
          1384.14200	         1.12156e+58
          1384.94830	         1.13984e+58
          1385.75460	         1.14465e+58
          1386.56090	         1.10027e+58
          1387.36720	         1.01609e+58
          1388.17350	         1.20094e+58
          1388.97980	         1.07760e+58
          1389.78610	         8.30100e+57
          1390.59240	         6.82555e+57
          1391.39870	         6.18764e+57
          1392.20500	         6.76193e+57
          1393.01130	         8.00503e+57
          1393.81760	         7.39375e+57
          1394.62390	         7.16972e+57
          1395.43020	         6.50201e+57
          1396.23650	         6.44643e+57
          1397.04280	         7.67448e+57
          1397.84910	         9.19039e+57
          1398.65540	         9.09517e+57
          1399.46170	         9.30677e+57
          1400.26800	         8.52345e+57
          1401.07430	         7.69304e+57
          1401.88060	         8.04971e+57
          1402.68690	         8.96989e+57
          1403.49320	         9.29275e+57
          1404.29950	         9.09302e+57
          1405.10580	         9.64644e+57
          1405.91210	         1.15358e+58
          1406.71840	         1.11271e+58
          1407.52470	         1.04958e+58
          1408.33100	         1.06727e+58
          1409.13730	         1.14148e+58
          1409.94360	         1.16134e+58
          1410.74990	         1.05799e+58
          1411.55620	         1.05933e+58
          1412.36250	         9.63849e+57
          1413.16880	         8.85370e+57
          1413.97510	         8.57661e+57
          1414.78140	         8.17481e+57
          1415.58770	         1.01691e+58
          1416.39400	         1.16313e+58
          1417.20030	         1.07487e+58
          1418.00660	         1.01930e+58
          1418.81290	         1.10974e+58
          1419.61920	         1.06066e+58
          1420.42550	         1.16551e+58
          1421.23180	         1.45827e+58
          1422.03810	         1.38981e+58
          1422.84440	         1.19452e+58
          1423.65070	         1.28643e+58
          1424.45700	         1.05129e+58
          1425.26330	         7.94966e+57
          1426.06960	         8.01729e+57
          1426.87590	         1.06708e+58
          1427.68220	         1.11858e+58
          1428.48850	         1.10107e+58
          1429.29480	         1.02298e+58
          1430.10110	         9.75845e+57
          1430.90740	         9.08546e+57
          1431.71370	         8.04093e+57
          1432.52000	         8.00800e+57
          1433.32630	         7.36328e+57
          1434.13260	         7.73085e+57
          1434.93890	         8.84991e+57
          1435.74520	         9.67636e+57
          1436.55150	         9.81844e+57
          1437.35780	         9.44631e+57
          1438.16410	         9.62460e+57
          1438.97040	         9.60745e+57
          1439.77670	         9.76550e+57
          1440.58300	         1.02981e+58
          1441.38930	         9.80924e+57
          1442.19560	         1.00139e+58
          1443.00190	         9.30459e+57
          1443.80820	         1.03984e+58
          1444.61450	         1.01220e+58
          1445.42080	         9.04808e+57
          1446.22710	         1.11986e+58
          1447.03340	         1.03653e+58
          1447.83970	         1.00154e+58
          1448.64600	         1.09595e+58
          1449.45230	         1.08123e+58
          1450.25860	         1.11597e+58
          1451.06490	         1.02903e+58
          1451.87120	         7.78589e+57
          1452.67750	         6.55216e+57
          1453.48380	         7.93492e+57
          1454.29010	         7.55453e+57
          1455.09640	         7.34581e+57
          1455.90270	         8.76900e+57
          1456.70900	         8.54673e+57
          1457.51530	         9.68944e+57
          1458.32160	         1.29724e+58
          1459.12790	         1.21684e+58
          1459.93420	         1.00448e+58
          1460.74050	         8.14294e+57
          1461.54680	         7.41813e+57
          1462.35310	         7.89641e+57
          1463.15940	         8.85543e+57
          1463.96570	         1.13328e+58
          1464.77200	         1.28041e+58
          1465.57830	         1.05456e+58
          1466.38460	         8.97438e+57
          1467.19090	         7.72430e+57
          1467.99720	         7.86320e+57
          1468.80350	         9.19584e+57
          1469.60980	         1.04319e+58
          1470.41610	         1.00546e+58
          1471.22240	         8.91833e+57
          1472.02870	         9.83393e+57
          1472.83500	         1.10237e+58
          1473.64130	         1.10588e+58
          1474.44760	         1.06775e+58
          1475.25390	         1.00804e+58
          1476.06020	         9.47335e+57
          1476.86650	         7.68463e+57
          1477.67280	         6.54220e+57
          1478.47910	         7.23582e+57
          1479.28540	         7.41941e+57
          1480.09170	         8.31352e+57
          1480.89800	         9.21552e+57
          1481.70430	         8.78923e+57
          1482.51060	         8.56279e+57
          1483.31690	         8.46838e+57
          1484.12320	         8.33364e+57
          1484.92950	         8.63118e+57
          1485.73580	         7.65273e+57
          1486.54210	         8.29198e+57
          1487.34840	         8.57953e+57
          1488.15470	         8.15546e+57
          1488.96100	         8.29348e+57
          1489.76730	         9.78298e+57
