#sample_278_stacked_spectrum_rest_UV-bands_median_H-alpha_noDC.txt
#median Lum: 1.69554e+42
#Rest-frame wavelength (A) | Luminosity (erg/s/A)
#
          1110.00000	         0.00000e+00
          1110.80630	         1.62756e+59
          1111.61260	         7.15914e+58
          1112.41890	         5.77329e+58
          1113.22520	         1.16874e+59
          1114.03150	         9.91815e+58
          1114.83780	         3.25432e+58
          1115.64410	         1.38810e+59
          1116.45040	         3.34186e+59
          1117.25670	         5.91961e+58
          1118.06300	         1.44406e+59
          1118.86930	         1.03625e+59
          1119.67560	         1.03695e+59
          1120.48190	         6.41133e+57
          1121.28820	        -1.13422e+59
          1122.09450	        -4.41131e+58
          1122.90080	        -1.46727e+58
          1123.70710	         1.38498e+58
          1124.51340	         8.17048e+58
          1125.31970	        -5.53332e+58
          1126.12600	        -2.45221e+58
          1126.93230	        -2.42799e+58
          1127.73860	        -3.89053e+58
          1128.54490	        -2.34048e+57
          1129.35120	         1.55365e+58
          1130.15750	        -5.99543e+57
          1130.96380	         2.48190e+58
          1131.77010	         3.98108e+58
          1132.57640	         2.63785e+58
          1133.38270	         3.97572e+58
          1134.18900	         8.36885e+57
          1134.99530	         1.38744e+58
          1135.80160	         4.31843e+57
          1136.60790	         1.74226e+58
          1137.41420	         2.43820e+57
          1138.22050	         1.71323e+58
          1139.02680	         1.94731e+58
          1139.83310	         2.13905e+58
          1140.63940	         1.79073e+58
          1141.44570	        -1.08210e+58
          1142.25200	        -8.55617e+57
          1143.05830	         8.93278e+57
          1143.86460	         1.50268e+58
          1144.67090	         3.82953e+58
          1145.47720	         1.22463e+58
          1146.28350	         9.43663e+57
          1147.08980	         1.59844e+58
          1147.89610	         1.77497e+58
          1148.70240	         2.33388e+58
          1149.50870	         2.52195e+58
          1150.31500	         9.84291e+57
          1151.12130	         1.42219e+57
          1151.92760	         2.60946e+55
          1152.73390	        -1.02417e+58
          1153.54020	         5.54875e+57
          1154.34650	         2.64202e+58
          1155.15280	         2.49066e+58
          1155.95910	         2.03497e+56
          1156.76540	         7.36263e+57
          1157.57170	         4.27756e+57
          1158.37800	        -2.61136e+57
          1159.18430	         2.05676e+57
          1159.99060	         1.02107e+58
          1160.79690	         5.34895e+57
          1161.60320	         1.52737e+58
          1162.40950	         1.78218e+58
          1163.21580	         1.85899e+58
          1164.02210	         1.46959e+58
          1164.82840	         1.67257e+57
          1165.63470	         1.73175e+58
          1166.44100	         3.12688e+58
          1167.24730	         2.04804e+58
          1168.05360	         7.53563e+57
          1168.85990	         8.00645e+57
          1169.66620	         1.10061e+58
          1170.47250	         1.25025e+58
          1171.27880	         6.47083e+57
          1172.08510	         1.31556e+58
          1172.89140	         1.34736e+58
          1173.69770	         1.01737e+58
          1174.50400	         1.46469e+58
          1175.31030	         1.66406e+58
          1176.11660	         1.87768e+58
          1176.92290	         1.35839e+58
          1177.72920	         1.21636e+58
          1178.53550	         5.11715e+57
          1179.34180	         1.36354e+57
          1180.14810	         9.54801e+57
          1180.95440	         1.26679e+58
          1181.76070	         6.85792e+57
          1182.56700	         5.95016e+57
          1183.37330	         7.03596e+57
          1184.17960	         1.13221e+58
          1184.98590	         1.20709e+58
          1185.79220	         8.97383e+57
          1186.59850	         1.37888e+58
          1187.40480	         5.82866e+57
          1188.21110	         1.28138e+58
          1189.01740	         8.99228e+57
          1189.82370	         9.89092e+57
          1190.63000	         1.33922e+58
          1191.43630	         1.68824e+58
          1192.24260	         1.48767e+58
          1193.04890	         1.52447e+58
          1193.85520	         1.05031e+58
          1194.66150	         9.39577e+57
          1195.46780	         1.31893e+58
          1196.27410	         1.34984e+58
          1197.08040	         6.50778e+57
          1197.88670	         1.25923e+58
          1198.69300	         1.59087e+58
          1199.49930	         1.74429e+58
          1200.30560	         1.17701e+58
          1201.11190	         9.62977e+57
          1201.91820	         1.06534e+58
          1202.72450	         6.69140e+57
          1203.53080	         1.07742e+58
          1204.33710	         6.47586e+57
          1205.14340	         3.52136e+57
          1205.94970	         3.37818e+57
          1206.75600	         3.94752e+57
          1207.56230	         7.60264e+57
          1208.36860	         8.05652e+57
          1209.17490	         5.47194e+57
          1209.98120	         6.10842e+57
          1210.78750	         1.10208e+58
          1211.59380	         1.47813e+58
          1212.40010	         1.71961e+58
          1213.20640	         1.92234e+58
          1214.01270	         1.89356e+58
          1214.81900	         2.50379e+58
          1215.62530	         4.64067e+58
          1216.43160	         9.11349e+58
          1217.23790	         1.47669e+59
          1218.04420	         1.10526e+59
          1218.85050	         8.22805e+58
          1219.65680	         5.49823e+58
          1220.46310	         2.91887e+58
          1221.26940	         2.08912e+58
          1222.07570	         1.64418e+58
          1222.88200	         1.26159e+58
          1223.68830	         1.05758e+58
          1224.49460	         8.61608e+57
          1225.30090	         8.46328e+57
          1226.10720	         6.04917e+57
          1226.91350	         7.15181e+57
          1227.71980	         8.90145e+57
          1228.52610	         1.00845e+58
          1229.33240	         8.82027e+57
          1230.13870	         1.07961e+58
          1230.94500	         7.97717e+57
          1231.75130	         7.46165e+57
          1232.55760	         8.70082e+57
          1233.36390	         7.18134e+57
          1234.17020	         9.75636e+57
          1234.97650	         8.45424e+57
          1235.78280	         7.27766e+57
          1236.58910	         8.94562e+57
          1237.39540	         1.11635e+58
          1238.20170	         9.35563e+57
          1239.00800	         1.04875e+58
          1239.81430	         1.41426e+58
          1240.62060	         1.09557e+58
          1241.42690	         8.53382e+57
          1242.23320	         9.26967e+57
          1243.03950	         7.07356e+57
          1243.84580	         7.66131e+57
          1244.65210	         1.06590e+58
          1245.45840	         1.15604e+58
          1246.26470	         8.87476e+57
          1247.07100	         5.99773e+57
          1247.87730	         7.29647e+57
          1248.68360	         6.00395e+57
          1249.48990	         1.05740e+58
          1250.29620	         1.48382e+58
          1251.10250	         1.02668e+58
          1251.90880	         3.98735e+57
          1252.71510	         2.84084e+57
          1253.52140	         5.63731e+57
          1254.32770	         1.06496e+58
          1255.13400	         1.48416e+58
          1255.94030	         1.11652e+58
          1256.74660	         7.93101e+57
          1257.55290	         9.99317e+57
          1258.35920	         9.62006e+57
          1259.16550	         5.34741e+57
          1259.97180	         5.39762e+57
          1260.77810	         9.46146e+57
          1261.58440	         1.15537e+58
          1262.39070	         7.58802e+57
          1263.19700	         6.47904e+57
          1264.00330	         7.59162e+57
          1264.80960	         1.00762e+58
          1265.61590	         1.09300e+58
          1266.42220	         1.12201e+58
          1267.22850	         1.25449e+58
          1268.03480	         1.44465e+58
          1268.84110	         1.33616e+58
          1269.64740	         1.16404e+58
          1270.45370	         1.34239e+58
          1271.26000	         1.32857e+58
          1272.06630	         1.20186e+58
          1272.87260	         1.27612e+58
          1273.67890	         1.23976e+58
          1274.48520	         1.23439e+58
          1275.29150	         1.27636e+58
          1276.09780	         1.27462e+58
          1276.90410	         1.33928e+58
          1277.71040	         1.22854e+58
          1278.51670	         1.24587e+58
          1279.32300	         1.49199e+58
          1280.12930	         1.35759e+58
          1280.93560	         1.21306e+58
          1281.74190	         1.26881e+58
          1282.54820	         1.34940e+58
          1283.35450	         1.15840e+58
          1284.16080	         1.11031e+58
          1284.96710	         1.37403e+58
          1285.77340	         1.01839e+58
          1286.57970	         8.13556e+57
          1287.38600	         1.33383e+58
          1288.19230	         1.60671e+58
          1288.99860	         1.54282e+58
          1289.80490	         1.19267e+58
          1290.61120	         1.44334e+58
          1291.41750	         1.46895e+58
          1292.22380	         1.01752e+58
          1293.03010	         9.57125e+57
          1293.83640	         1.10702e+58
          1294.64270	         1.07062e+58
          1295.44900	         7.90267e+57
          1296.25530	         9.09225e+57
          1297.06160	         9.39108e+57
          1297.86790	         8.83441e+57
          1298.67420	         9.14587e+57
          1299.48050	         9.29928e+57
          1300.28680	         9.31943e+57
          1301.09310	         7.11502e+57
          1301.89940	         3.95701e+57
          1302.70570	         5.12872e+57
          1303.51200	         7.33686e+57
          1304.31830	         1.07956e+58
          1305.12460	         1.10376e+58
          1305.93090	         1.09460e+58
          1306.73720	         1.31886e+58
          1307.54350	         1.40480e+58
          1308.34980	         1.50994e+58
          1309.15610	         1.62043e+58
          1309.96240	         1.46131e+58
          1310.76870	         1.34773e+58
          1311.57500	         1.41368e+58
          1312.38130	         1.16458e+58
          1313.18760	         1.10588e+58
          1313.99390	         1.47913e+58
          1314.80020	         1.60961e+58
          1315.60650	         1.60743e+58
          1316.41280	         1.33680e+58
          1317.21910	         1.12192e+58
          1318.02540	         1.01893e+58
          1318.83170	         1.11355e+58
          1319.63800	         1.19820e+58
          1320.44430	         1.20388e+58
          1321.25060	         1.33148e+58
          1322.05690	         1.27576e+58
          1322.86320	         8.90404e+57
          1323.66950	         9.41341e+57
          1324.47580	         9.91263e+57
          1325.28210	         9.14569e+57
          1326.08840	         8.98935e+57
          1326.89470	         9.70164e+57
          1327.70100	         1.07564e+58
          1328.50730	         8.86905e+57
          1329.31360	         9.70006e+57
          1330.11990	         9.83992e+57
          1330.92620	         8.89695e+57
          1331.73250	         9.67234e+57
          1332.53880	         8.00399e+57
          1333.34510	         7.88315e+57
          1334.15140	         8.56780e+57
          1334.95770	         7.70188e+57
          1335.76400	         9.44685e+57
          1336.57030	         1.08178e+58
          1337.37660	         9.81196e+57
          1338.18290	         9.22002e+57
          1338.98920	         1.02736e+58
          1339.79550	         9.97075e+57
          1340.60180	         1.22722e+58
          1341.40810	         1.41237e+58
          1342.21440	         1.15873e+58
          1343.02070	         1.20163e+58
          1343.82700	         1.36951e+58
          1344.63330	         1.21168e+58
          1345.43960	         1.24553e+58
          1346.24590	         1.08815e+58
          1347.05220	         1.12208e+58
          1347.85850	         9.57048e+57
          1348.66480	         1.10633e+58
          1349.47110	         1.26558e+58
          1350.27740	         1.13819e+58
          1351.08370	         1.11780e+58
          1351.89000	         1.09772e+58
          1352.69630	         1.09716e+58
          1353.50260	         1.17500e+58
          1354.30890	         1.16572e+58
          1355.11520	         1.22035e+58
          1355.92150	         1.01238e+58
          1356.72780	         8.75026e+57
          1357.53410	         1.03266e+58
          1358.34040	         1.08373e+58
          1359.14670	         1.02957e+58
          1359.95300	         1.02019e+58
          1360.75930	         1.04479e+58
          1361.56560	         1.11220e+58
          1362.37190	         1.09223e+58
          1363.17820	         9.69753e+57
          1363.98450	         1.10352e+58
          1364.79080	         1.26085e+58
          1365.59710	         1.17774e+58
          1366.40340	         1.10277e+58
          1367.20970	         9.43485e+57
          1368.01600	         7.81634e+57
          1368.82230	         9.34332e+57
          1369.62860	         9.98375e+57
          1370.43490	         7.65014e+57
          1371.24120	         9.32931e+57
          1372.04750	         9.27761e+57
          1372.85380	         1.04771e+58
          1373.66010	         1.05090e+58
          1374.46640	         9.84961e+57
          1375.27270	         9.44240e+57
          1376.07900	         8.58346e+57
          1376.88530	         8.10643e+57
          1377.69160	         7.75831e+57
          1378.49790	         7.45364e+57
          1379.30420	         7.86267e+57
          1380.11050	         9.65694e+57
          1380.91680	         9.52552e+57
          1381.72310	         8.07913e+57
          1382.52940	         9.14184e+57
          1383.33570	         9.04472e+57
          1384.14200	         8.59021e+57
          1384.94830	         1.05958e+58
          1385.75460	         1.16912e+58
          1386.56090	         1.26866e+58
          1387.36720	         1.12481e+58
          1388.17350	         1.18013e+58
          1388.97980	         1.03824e+58
          1389.78610	         7.22789e+57
          1390.59240	         5.31584e+57
          1391.39870	         5.62518e+57
          1392.20500	         7.92150e+57
          1393.01130	         7.60143e+57
          1393.81760	         6.62326e+57
          1394.62390	         6.68974e+57
          1395.43020	         5.84010e+57
          1396.23650	         6.38651e+57
          1397.04280	         8.52351e+57
          1397.84910	         9.34314e+57
          1398.65540	         9.91070e+57
          1399.46170	         8.85622e+57
          1400.26800	         6.99864e+57
          1401.07430	         6.54092e+57
          1401.88060	         8.13497e+57
          1402.68690	         9.89670e+57
          1403.49320	         9.17025e+57
          1404.29950	         7.80566e+57
          1405.10580	         9.98235e+57
          1405.91210	         1.09575e+58
          1406.71840	         1.08061e+58
          1407.52470	         1.08699e+58
          1408.33100	         9.83260e+57
          1409.13730	         1.08610e+58
          1409.94360	         1.18925e+58
          1410.74990	         1.17607e+58
          1411.55620	         1.04387e+58
          1412.36250	         9.43738e+57
          1413.16880	         8.49382e+57
          1413.97510	         7.24112e+57
          1414.78140	         7.95926e+57
          1415.58770	         1.06799e+58
          1416.39400	         9.91355e+57
          1417.20030	         8.71395e+57
          1418.00660	         8.07091e+57
          1418.81290	         9.65741e+57
          1419.61920	         1.10070e+58
          1420.42550	         1.23760e+58
          1421.23180	         1.45088e+58
          1422.03810	         1.27916e+58
          1422.84440	         1.10411e+58
          1423.65070	         1.17800e+58
          1424.45700	         1.07010e+58
          1425.26330	         9.18012e+57
          1426.06960	         1.02268e+58
          1426.87590	         1.16535e+58
          1427.68220	         1.06868e+58
          1428.48850	         1.01099e+58
          1429.29480	         1.00533e+58
          1430.10110	         8.85087e+57
          1430.90740	         8.68487e+57
          1431.71370	         8.71242e+57
          1432.52000	         8.09219e+57
          1433.32630	         8.37411e+57
          1434.13260	         8.50759e+57
          1434.93890	         8.38302e+57
          1435.74520	         8.77182e+57
          1436.55150	         8.31999e+57
          1437.35780	         7.75421e+57
          1438.16410	         7.93055e+57
          1438.97040	         8.79945e+57
          1439.77670	         9.42202e+57
          1440.58300	         8.95884e+57
          1441.38930	         8.47141e+57
          1442.19560	         8.95434e+57
          1443.00190	         9.49646e+57
          1443.80820	         1.02897e+58
          1444.61450	         8.95995e+57
          1445.42080	         7.37086e+57
          1446.22710	         9.27592e+57
          1447.03340	         9.47948e+57
          1447.83970	         9.98040e+57
          1448.64600	         1.02430e+58
          1449.45230	         1.01749e+58
          1450.25860	         9.89972e+57
          1451.06490	         8.37854e+57
          1451.87120	         8.19702e+57
          1452.67750	         8.09228e+57
          1453.48380	         9.15181e+57
          1454.29010	         7.42668e+57
          1455.09640	         6.14140e+57
          1455.90270	         8.58847e+57
          1456.70900	         9.93708e+57
          1457.51530	         9.88712e+57
          1458.32160	         1.04634e+58
          1459.12790	         1.04183e+58
          1459.93420	         8.87427e+57
          1460.74050	         6.77006e+57
          1461.54680	         7.20928e+57
          1462.35310	         7.03603e+57
          1463.15940	         8.60361e+57
          1463.96570	         9.79811e+57
          1464.77200	         1.16599e+58
          1465.57830	         1.05207e+58
          1466.38460	         7.67763e+57
          1467.19090	         7.38360e+57
          1467.99720	         9.01524e+57
          1468.80350	         9.99857e+57
          1469.60980	         9.39163e+57
          1470.41610	         1.02581e+58
          1471.22240	         9.30687e+57
          1472.02870	         9.17780e+57
          1472.83500	         9.68076e+57
          1473.64130	         9.32248e+57
          1474.44760	         9.58758e+57
          1475.25390	         9.47168e+57
          1476.06020	         8.10702e+57
          1476.86650	         7.74232e+57
          1477.67280	         8.16718e+57
          1478.47910	         6.99864e+57
          1479.28540	         6.63439e+57
          1480.09170	         8.59897e+57
          1480.89800	         8.83082e+57
          1481.70430	         8.35020e+57
          1482.51060	         8.84468e+57
          1483.31690	         8.40156e+57
          1484.12320	         8.11825e+57
          1484.92950	         7.80653e+57
          1485.73580	         7.71339e+57
          1486.54210	         7.99503e+57
          1487.34840	         9.21725e+57
          1488.15470	         8.48192e+57
          1488.96100	         8.25480e+57
          1489.76730	         8.39835e+57
