#sample_172_stacked_spectrum_rest_UV-bands_median_H-alpha_noDC.txt
#median Lum: 1.68910e+42
#Rest-frame wavelength (A) | Luminosity (erg/s/A)
#
          1110.00000	         0.00000e+00
          1110.80630	        -5.11718e+59
          1111.61260	         2.69094e+58
          1112.41890	         7.48434e+58
          1113.22520	        -1.61805e+59
          1114.03150	        -5.34720e+58
          1114.83780	         1.07122e+59
          1115.64410	         4.04234e+58
          1116.45040	        -8.63704e+58
          1117.25670	         1.05992e+59
          1118.06300	         1.81102e+59
          1118.86930	        -1.08893e+58
          1119.67560	         1.01646e+59
          1120.48190	        -3.01192e+58
          1121.28820	        -8.93984e+58
          1122.09450	         7.60553e+58
          1122.90080	         9.52209e+58
          1123.70710	         5.85480e+58
          1124.51340	         8.88642e+58
          1125.31970	         2.14757e+58
          1126.12600	        -2.91188e+58
          1126.93230	        -4.66978e+58
          1127.73860	        -7.52117e+58
          1128.54490	         5.38538e+57
          1129.35120	         1.92265e+58
          1130.15750	         2.33211e+58
          1130.96380	        -1.50446e+58
          1131.77010	         5.31658e+58
          1132.57640	         7.45251e+58
          1133.38270	         2.63996e+58
          1134.18900	        -3.13980e+57
          1134.99530	         2.74562e+58
          1135.80160	         2.54821e+58
          1136.60790	         2.54764e+58
          1137.41420	        -4.92703e+57
          1138.22050	         3.74435e+58
          1139.02680	         1.39601e+58
          1139.83310	         2.97665e+58
          1140.63940	         4.01414e+58
          1141.44570	        -1.96152e+58
          1142.25200	        -6.04919e+57
          1143.05830	         1.43397e+58
          1143.86460	         3.11950e+58
          1144.67090	         1.57132e+58
          1145.47720	         8.74501e+57
          1146.28350	         6.04659e+57
          1147.08980	         1.21984e+58
          1147.89610	         2.03167e+58
          1148.70240	         2.44468e+58
          1149.50870	         2.26297e+58
          1150.31500	         1.11540e+58
          1151.12130	        -1.20277e+57
          1151.92760	         6.41345e+57
          1152.73390	         1.00112e+58
          1153.54020	         8.85734e+57
          1154.34650	         1.83242e+58
          1155.15280	         1.65299e+58
          1155.95910	         6.03976e+57
          1156.76540	         1.03136e+58
          1157.57170	         4.01631e+57
          1158.37800	        -1.38739e+58
          1159.18430	        -1.01339e+58
          1159.99060	        -9.50863e+56
          1160.79690	         8.72878e+55
          1161.60320	         2.07942e+58
          1162.40950	         1.41885e+58
          1163.21580	         2.24900e+58
          1164.02210	         1.06990e+58
          1164.82840	         1.01597e+58
          1165.63470	         1.56102e+58
          1166.44100	         3.19540e+58
          1167.24730	         2.03833e+58
          1168.05360	         4.58031e+57
          1168.85990	         7.55082e+57
          1169.66620	         6.24530e+57
          1170.47250	         1.44197e+58
          1171.27880	         1.77814e+58
          1172.08510	         1.15709e+58
          1172.89140	         2.00062e+57
          1173.69770	         6.18074e+57
          1174.50400	         9.71315e+57
          1175.31030	         2.10504e+58
          1176.11660	         1.47148e+58
          1176.92290	         1.44676e+58
          1177.72920	         1.66361e+58
          1178.53550	         1.08582e+58
          1179.34180	        -1.46654e+57
          1180.14810	         2.00883e+57
          1180.95440	         5.00464e+57
          1181.76070	         3.72438e+57
          1182.56700	         8.81911e+57
          1183.37330	         7.76582e+57
          1184.17960	         8.85389e+57
          1184.98590	         9.70495e+57
          1185.79220	         7.50906e+57
          1186.59850	         1.00168e+58
          1187.40480	         9.66980e+57
          1188.21110	         1.45694e+58
          1189.01740	         1.07183e+58
          1189.82370	         1.04461e+58
          1190.63000	         1.05674e+58
          1191.43630	         9.68094e+57
          1192.24260	         2.29386e+57
          1193.04890	         1.05153e+58
          1193.85520	         9.32619e+57
          1194.66150	         5.03569e+57
          1195.46780	         1.53075e+58
          1196.27410	         1.53805e+58
          1197.08040	         9.78724e+57
          1197.88670	         1.32348e+58
          1198.69300	         1.24687e+58
          1199.49930	         1.47725e+58
          1200.30560	         1.13540e+58
          1201.11190	         1.15129e+58
          1201.91820	         9.05197e+57
          1202.72450	         8.98378e+57
          1203.53080	         1.36413e+58
          1204.33710	         5.53879e+57
          1205.14340	         9.69415e+57
          1205.94970	         8.70327e+57
          1206.75600	         7.40116e+57
          1207.56230	         6.36628e+57
          1208.36860	         7.77459e+57
          1209.17490	         2.43339e+57
          1209.98120	         7.10684e+57
          1210.78750	         8.37506e+57
          1211.59380	         1.38809e+58
          1212.40010	         1.89388e+58
          1213.20640	         1.75772e+58
          1214.01270	         2.00321e+58
          1214.81900	         2.60994e+58
          1215.62530	         4.52895e+58
          1216.43160	         8.92352e+58
          1217.23790	         1.50086e+59
          1218.04420	         1.11588e+59
          1218.85050	         8.61547e+58
          1219.65680	         5.87994e+58
          1220.46310	         3.34299e+58
          1221.26940	         2.56804e+58
          1222.07570	         1.43984e+58
          1222.88200	         8.05421e+57
          1223.68830	         6.27630e+57
          1224.49460	         9.76482e+57
          1225.30090	         1.08356e+58
          1226.10720	         6.15963e+57
          1226.91350	         6.61925e+57
          1227.71980	         8.02969e+57
          1228.52610	         9.56782e+57
          1229.33240	         1.29665e+58
          1230.13870	         9.70546e+57
          1230.94500	         9.81293e+57
          1231.75130	         9.43439e+57
          1232.55760	         9.79003e+57
          1233.36390	         9.74183e+57
          1234.17020	         1.19174e+58
          1234.97650	         8.86796e+57
          1235.78280	         8.91461e+57
          1236.58910	         9.08111e+57
          1237.39540	         9.31883e+57
          1238.20170	         9.85236e+57
          1239.00800	         1.38782e+58
          1239.81430	         1.42645e+58
          1240.62060	         1.12988e+58
          1241.42690	         1.14156e+58
          1242.23320	         1.14666e+58
          1243.03950	         8.85903e+57
          1243.84580	         7.65771e+57
          1244.65210	         8.74750e+57
          1245.45840	         8.94169e+57
          1246.26470	         5.99621e+57
          1247.07100	         6.09121e+57
          1247.87730	         7.27734e+57
          1248.68360	         5.32872e+57
          1249.48990	         8.91823e+57
          1250.29620	         8.66733e+57
          1251.10250	         8.30728e+57
          1251.90880	         8.32812e+57
          1252.71510	         6.50880e+57
          1253.52140	         4.35630e+57
          1254.32770	         8.97788e+57
          1255.13400	         1.43667e+58
          1255.94030	         1.08038e+58
          1256.74660	         9.28428e+57
          1257.55290	         1.03814e+58
          1258.35920	         9.91102e+57
          1259.16550	         6.89576e+57
          1259.97180	         6.57922e+57
          1260.77810	         7.80462e+57
          1261.58440	         9.84335e+57
          1262.39070	         7.46370e+57
          1263.19700	         7.88491e+57
          1264.00330	         8.27669e+57
          1264.80960	         1.02387e+58
          1265.61590	         1.38792e+58
          1266.42220	         1.31655e+58
          1267.22850	         1.14161e+58
          1268.03480	         1.32531e+58
          1268.84110	         1.35978e+58
          1269.64740	         1.29200e+58
          1270.45370	         1.40452e+58
          1271.26000	         1.30506e+58
          1272.06630	         9.79537e+57
          1272.87260	         1.10640e+58
          1273.67890	         1.39947e+58
          1274.48520	         1.35554e+58
          1275.29150	         1.40044e+58
          1276.09780	         1.18635e+58
          1276.90410	         1.30151e+58
          1277.71040	         1.23602e+58
          1278.51670	         1.05583e+58
          1279.32300	         1.22105e+58
          1280.12930	         1.43850e+58
          1280.93560	         1.23611e+58
          1281.74190	         1.12922e+58
          1282.54820	         1.30419e+58
          1283.35450	         1.16857e+58
          1284.16080	         1.12825e+58
          1284.96710	         1.33188e+58
          1285.77340	         1.11433e+58
          1286.57970	         1.24451e+58
          1287.38600	         1.61167e+58
          1288.19230	         1.88685e+58
          1288.99860	         1.72765e+58
          1289.80490	         1.05989e+58
          1290.61120	         1.25983e+58
          1291.41750	         1.59936e+58
          1292.22380	         1.29395e+58
          1293.03010	         9.80867e+57
          1293.83640	         1.11217e+58
          1294.64270	         8.53874e+57
          1295.44900	         5.66686e+57
          1296.25530	         6.82870e+57
          1297.06160	         1.04834e+58
          1297.86790	         1.21373e+58
          1298.67420	         1.02345e+58
          1299.48050	         9.64330e+57
          1300.28680	         1.03488e+58
          1301.09310	         7.06819e+57
          1301.89940	         2.37488e+57
          1302.70570	         4.57524e+57
          1303.51200	         6.63670e+57
          1304.31830	         1.02873e+58
          1305.12460	         1.24786e+58
          1305.93090	         1.28168e+58
          1306.73720	         1.32152e+58
          1307.54350	         1.35549e+58
          1308.34980	         1.46404e+58
          1309.15610	         1.64219e+58
          1309.96240	         1.51181e+58
          1310.76870	         1.08687e+58
          1311.57500	         9.52733e+57
          1312.38130	         1.14562e+58
          1313.18760	         1.23770e+58
          1313.99390	         1.55972e+58
          1314.80020	         1.60083e+58
          1315.60650	         1.31306e+58
          1316.41280	         1.34463e+58
          1317.21910	         1.26835e+58
          1318.02540	         1.27959e+58
          1318.83170	         1.33039e+58
          1319.63800	         1.14491e+58
          1320.44430	         1.00121e+58
          1321.25060	         1.42108e+58
          1322.05690	         1.37458e+58
          1322.86320	         1.29010e+58
          1323.66950	         1.08384e+58
          1324.47580	         8.19233e+57
          1325.28210	         9.64453e+57
          1326.08840	         1.08999e+58
          1326.89470	         1.11419e+58
          1327.70100	         1.05973e+58
          1328.50730	         7.14850e+57
          1329.31360	         8.90946e+57
          1330.11990	         1.08977e+58
          1330.92620	         9.26395e+57
          1331.73250	         1.10851e+58
          1332.53880	         1.09131e+58
          1333.34510	         8.38614e+57
          1334.15140	         8.08719e+57
          1334.95770	         8.59160e+57
          1335.76400	         9.62884e+57
          1336.57030	         9.94997e+57
          1337.37660	         9.92385e+57
          1338.18290	         1.32804e+58
          1338.98920	         1.20931e+58
          1339.79550	         8.71761e+57
          1340.60180	         1.05204e+58
          1341.40810	         1.19660e+58
          1342.21440	         1.12114e+58
          1343.02070	         1.19276e+58
          1343.82700	         1.33969e+58
          1344.63330	         1.28680e+58
          1345.43960	         1.30944e+58
          1346.24590	         1.18342e+58
          1347.05220	         1.09586e+58
          1347.85850	         1.03794e+58
          1348.66480	         1.26368e+58
          1349.47110	         1.27012e+58
          1350.27740	         1.08148e+58
          1351.08370	         1.19178e+58
          1351.89000	         1.19910e+58
          1352.69630	         1.18533e+58
          1353.50260	         1.15864e+58
          1354.30890	         1.10728e+58
          1355.11520	         1.09495e+58
          1355.92150	         9.32558e+57
          1356.72780	         9.37606e+57
          1357.53410	         1.08239e+58
          1358.34040	         1.09330e+58
          1359.14670	         9.41819e+57
          1359.95300	         9.65967e+57
          1360.75930	         1.12345e+58
          1361.56560	         9.95002e+57
          1362.37190	         1.11886e+58
          1363.17820	         1.13842e+58
          1363.98450	         1.15145e+58
          1364.79080	         1.29191e+58
          1365.59710	         1.17395e+58
          1366.40340	         9.76787e+57
          1367.20970	         9.14648e+57
          1368.01600	         9.08404e+57
          1368.82230	         8.98759e+57
          1369.62860	         1.10677e+58
          1370.43490	         9.82696e+57
          1371.24120	         8.93202e+57
          1372.04750	         8.00625e+57
          1372.85380	         9.37206e+57
          1373.66010	         9.87226e+57
          1374.46640	         9.97872e+57
          1375.27270	         1.14080e+58
          1376.07900	         9.76567e+57
          1376.88530	         9.59546e+57
          1377.69160	         8.50548e+57
          1378.49790	         6.78579e+57
          1379.30420	         7.76620e+57
          1380.11050	         8.42053e+57
          1380.91680	         7.58222e+57
          1381.72310	         7.61636e+57
          1382.52940	         8.47339e+57
          1383.33570	         9.28273e+57
          1384.14200	         9.97698e+57
          1384.94830	         1.07423e+58
          1385.75460	         1.14580e+58
          1386.56090	         1.11180e+58
          1387.36720	         9.89712e+57
          1388.17350	         1.18283e+58
          1388.97980	         9.55958e+57
          1389.78610	         7.82323e+57
          1390.59240	         7.24627e+57
          1391.39870	         7.31297e+57
          1392.20500	         1.00735e+58
          1393.01130	         8.47153e+57
          1393.81760	         7.23519e+57
          1394.62390	         6.94440e+57
          1395.43020	         6.11187e+57
          1396.23650	         6.64896e+57
          1397.04280	         6.86173e+57
          1397.84910	         8.02513e+57
          1398.65540	         8.86331e+57
          1399.46170	         9.51211e+57
          1400.26800	         8.27808e+57
          1401.07430	         7.64629e+57
          1401.88060	         7.44443e+57
          1402.68690	         8.67531e+57
          1403.49320	         9.00348e+57
          1404.29950	         8.73194e+57
          1405.10580	         9.43216e+57
          1405.91210	         1.05600e+58
          1406.71840	         1.05058e+58
          1407.52470	         1.00998e+58
          1408.33100	         1.05708e+58
          1409.13730	         1.16171e+58
          1409.94360	         1.17502e+58
          1410.74990	         1.09544e+58
          1411.55620	         1.08733e+58
          1412.36250	         1.03510e+58
          1413.16880	         9.66258e+57
          1413.97510	         8.30158e+57
          1414.78140	         8.44999e+57
          1415.58770	         1.02669e+58
          1416.39400	         1.08817e+58
          1417.20030	         1.07858e+58
          1418.00660	         9.84412e+57
          1418.81290	         1.00353e+58
          1419.61920	         1.03136e+58
          1420.42550	         1.11187e+58
          1421.23180	         1.26608e+58
          1422.03810	         1.31179e+58
          1422.84440	         1.25263e+58
          1423.65070	         1.25393e+58
          1424.45700	         1.03763e+58
          1425.26330	         7.43869e+57
          1426.06960	         8.72534e+57
          1426.87590	         1.07721e+58
          1427.68220	         1.05328e+58
          1428.48850	         1.05498e+58
          1429.29480	         1.03987e+58
          1430.10110	         9.66167e+57
          1430.90740	         8.36698e+57
          1431.71370	         7.71867e+57
          1432.52000	         8.13398e+57
          1433.32630	         7.54930e+57
          1434.13260	         8.04656e+57
          1434.93890	         7.49737e+57
          1435.74520	         8.64216e+57
          1436.55150	         9.45446e+57
          1437.35780	         8.83896e+57
          1438.16410	         8.80976e+57
          1438.97040	         7.70632e+57
          1439.77670	         8.91243e+57
          1440.58300	         9.30972e+57
          1441.38930	         9.28800e+57
          1442.19560	         8.80918e+57
          1443.00190	         9.82748e+57
          1443.80820	         1.11574e+58
          1444.61450	         1.00901e+58
          1445.42080	         9.56289e+57
          1446.22710	         1.08844e+58
          1447.03340	         1.08140e+58
          1447.83970	         1.02335e+58
          1448.64600	         9.66545e+57
          1449.45230	         9.65250e+57
          1450.25860	         1.13082e+58
          1451.06490	         8.84864e+57
          1451.87120	         7.90749e+57
          1452.67750	         8.71398e+57
          1453.48380	         9.40803e+57
          1454.29010	         8.70359e+57
          1455.09640	         8.19638e+57
          1455.90270	         9.18059e+57
          1456.70900	         7.92565e+57
          1457.51530	         8.77020e+57
          1458.32160	         1.20971e+58
          1459.12790	         1.16483e+58
          1459.93420	         1.02715e+58
          1460.74050	         9.26911e+57
          1461.54680	         7.94289e+57
          1462.35310	         7.00236e+57
          1463.15940	         8.69397e+57
          1463.96570	         1.07346e+58
          1464.77200	         1.23736e+58
          1465.57830	         1.16843e+58
          1466.38460	         9.53733e+57
          1467.19090	         9.43760e+57
          1467.99720	         9.86077e+57
          1468.80350	         9.32796e+57
          1469.60980	         1.02833e+58
          1470.41610	         1.09904e+58
          1471.22240	         9.28979e+57
          1472.02870	         9.24428e+57
          1472.83500	         9.85904e+57
          1473.64130	         9.98301e+57
          1474.44760	         9.39502e+57
          1475.25390	         8.68623e+57
          1476.06020	         8.73865e+57
          1476.86650	         8.31732e+57
          1477.67280	         7.04241e+57
          1478.47910	         6.47084e+57
          1479.28540	         7.68697e+57
          1480.09170	         8.98008e+57
          1480.89800	         7.66359e+57
          1481.70430	         8.24623e+57
          1482.51060	         8.39256e+57
          1483.31690	         7.99523e+57
          1484.12320	         7.82137e+57
          1484.92950	         6.70922e+57
          1485.73580	         7.71828e+57
          1486.54210	         8.96696e+57
          1487.34840	         8.27787e+57
          1488.15470	         8.09810e+57
          1488.96100	         8.20513e+57
          1489.76730	         8.57999e+57
