#sample_57_stacked_spectrum_rest_UV-bands_median_H-alpha_noDC.txt
#median Lum: 1.65332e+42
#Rest-frame wavelength (A) | Luminosity (erg/s/A)
#
          1110.00000	         0.00000e+00
          1110.80630	         4.44189e+59
          1111.61260	         3.69681e+59
          1112.41890	         1.22396e+59
          1113.22520	        -1.83103e+59
          1114.03150	        -2.80642e+59
          1114.83780	        -3.82911e+58
          1115.64410	         1.67323e+59
          1116.45040	         2.08401e+59
          1117.25670	         4.78758e+58
          1118.06300	         8.77222e+58
          1118.86930	        -1.41678e+58
          1119.67560	         1.89899e+59
          1120.48190	         8.89901e+58
          1121.28820	        -1.04573e+59
          1122.09450	         1.82579e+58
          1122.90080	         5.41034e+58
          1123.70710	         8.91263e+58
          1124.51340	         1.50074e+59
          1125.31970	        -1.90643e+58
          1126.12600	         4.71776e+58
          1126.93230	        -1.47785e+58
          1127.73860	        -6.54052e+58
          1128.54490	        -2.62622e+58
          1129.35120	        -3.42662e+58
          1130.15750	        -5.18971e+56
          1130.96380	        -2.77168e+58
          1131.77010	         6.14321e+58
          1132.57640	         1.49958e+58
          1133.38270	         3.17539e+58
          1134.18900	         2.67087e+57
          1134.99530	         1.02185e+57
          1135.80160	         2.54042e+58
          1136.60790	         3.14536e+58
          1137.41420	         1.92650e+58
          1138.22050	         4.20841e+58
          1139.02680	         1.05658e+58
          1139.83310	         1.96011e+58
          1140.63940	         1.16931e+58
          1141.44570	        -9.04984e+57
          1142.25200	         1.17514e+58
          1143.05830	         3.42765e+58
          1143.86460	         3.24329e+58
          1144.67090	         1.65283e+58
          1145.47720	         1.53440e+58
          1146.28350	         1.84577e+58
          1147.08980	         9.85265e+57
          1147.89610	         7.63701e+57
          1148.70240	         1.41329e+58
          1149.50870	         1.34048e+58
          1150.31500	         1.12935e+58
          1151.12130	         4.01361e+57
          1151.92760	        -1.14963e+57
          1152.73390	         1.01962e+58
          1153.54020	         8.20442e+57
          1154.34650	         2.97693e+58
          1155.15280	         1.50297e+58
          1155.95910	         9.71410e+57
          1156.76540	         1.93891e+58
          1157.57170	         2.70056e+56
          1158.37800	        -5.57698e+57
          1159.18430	        -4.70985e+57
          1159.99060	         5.29485e+57
          1160.79690	         3.86118e+57
          1161.60320	         1.03330e+58
          1162.40950	         1.57968e+58
          1163.21580	         1.85071e+58
          1164.02210	         1.32969e+58
          1164.82840	         6.15250e+57
          1165.63470	         2.48753e+58
          1166.44100	         3.77123e+58
          1167.24730	         2.11675e+58
          1168.05360	         1.46318e+58
          1168.85990	         8.14403e+57
          1169.66620	         9.60991e+57
          1170.47250	         1.22507e+58
          1171.27880	         6.92412e+57
          1172.08510	         1.73874e+58
          1172.89140	         2.16774e+58
          1173.69770	         9.69559e+57
          1174.50400	         9.85587e+57
          1175.31030	         1.43539e+58
          1176.11660	         1.90660e+58
          1176.92290	         1.78151e+58
          1177.72920	         1.44912e+58
          1178.53550	         1.33226e+58
          1179.34180	         5.93735e+57
          1180.14810	         9.22977e+57
          1180.95440	         9.43210e+57
          1181.76070	         4.53269e+57
          1182.56700	         9.13853e+57
          1183.37330	         7.07244e+57
          1184.17960	         1.19080e+58
          1184.98590	         1.56419e+58
          1185.79220	         9.59130e+57
          1186.59850	         1.24348e+58
          1187.40480	         1.19323e+58
          1188.21110	         1.11804e+58
          1189.01740	         1.15840e+58
          1189.82370	         8.26165e+57
          1190.63000	         1.05414e+58
          1191.43630	         1.62713e+58
          1192.24260	         7.14259e+57
          1193.04890	         1.20084e+58
          1193.85520	         1.28380e+58
          1194.66150	         4.29462e+57
          1195.46780	         6.68617e+57
          1196.27410	         1.38123e+58
          1197.08040	         1.18157e+58
          1197.88670	         1.17780e+58
          1198.69300	         1.26614e+58
          1199.49930	         1.32044e+58
          1200.30560	         1.37699e+58
          1201.11190	         1.56946e+58
          1201.91820	         1.12192e+58
          1202.72450	         6.10153e+57
          1203.53080	         1.32820e+58
          1204.33710	         9.89201e+57
          1205.14340	         6.83248e+57
          1205.94970	         4.29244e+57
          1206.75600	         7.67399e+57
          1207.56230	         6.35824e+57
          1208.36860	         1.10224e+58
          1209.17490	         6.30506e+57
          1209.98120	         7.51181e+57
          1210.78750	         1.09844e+58
          1211.59380	         1.24300e+58
          1212.40010	         1.77818e+58
          1213.20640	         1.76643e+58
          1214.01270	         2.03101e+58
          1214.81900	         2.37984e+58
          1215.62530	         3.89810e+58
          1216.43160	         8.56671e+58
          1217.23790	         1.50192e+59
          1218.04420	         1.10954e+59
          1218.85050	         8.24183e+58
          1219.65680	         5.46654e+58
          1220.46310	         3.13675e+58
          1221.26940	         2.25663e+58
          1222.07570	         1.46523e+58
          1222.88200	         8.89815e+57
          1223.68830	         1.05159e+58
          1224.49460	         9.03812e+57
          1225.30090	         6.05535e+57
          1226.10720	         7.76854e+57
          1226.91350	         1.03005e+58
          1227.71980	         1.11445e+58
          1228.52610	         1.09909e+58
          1229.33240	         4.84381e+57
          1230.13870	         6.86163e+57
          1230.94500	         9.35480e+57
          1231.75130	         5.58322e+57
          1232.55760	         8.31885e+57
          1233.36390	         8.07570e+57
          1234.17020	         6.85105e+57
          1234.97650	         9.55412e+57
          1235.78280	         9.92959e+57
          1236.58910	         1.03995e+58
          1237.39540	         1.06207e+58
          1238.20170	         8.91400e+57
          1239.00800	         1.17496e+58
          1239.81430	         1.53273e+58
          1240.62060	         1.21651e+58
          1241.42690	         9.71222e+57
          1242.23320	         1.15036e+58
          1243.03950	         7.30097e+57
          1243.84580	         9.57479e+57
          1244.65210	         1.07221e+58
          1245.45840	         8.99118e+57
          1246.26470	         1.04119e+58
          1247.07100	         9.01835e+57
          1247.87730	         6.72655e+57
          1248.68360	         5.51999e+57
          1249.48990	         3.58326e+57
          1250.29620	         6.68267e+57
          1251.10250	         7.91501e+57
          1251.90880	         8.24784e+57
          1252.71510	         5.01059e+57
          1253.52140	         3.15519e+57
          1254.32770	         9.06239e+57
          1255.13400	         1.36189e+58
          1255.94030	         1.11794e+58
          1256.74660	         9.41667e+57
          1257.55290	         1.18096e+58
          1258.35920	         1.07422e+58
          1259.16550	         7.95019e+57
          1259.97180	         5.28794e+57
          1260.77810	         7.70675e+57
          1261.58440	         9.40000e+57
          1262.39070	         7.40351e+57
          1263.19700	         7.72811e+57
          1264.00330	         8.05924e+57
          1264.80960	         9.69784e+57
          1265.61590	         1.16323e+58
          1266.42220	         1.14514e+58
          1267.22850	         9.58965e+57
          1268.03480	         1.11698e+58
          1268.84110	         1.29240e+58
          1269.64740	         1.20740e+58
          1270.45370	         1.34330e+58
          1271.26000	         1.27321e+58
          1272.06630	         1.34644e+58
          1272.87260	         1.08440e+58
          1273.67890	         1.09365e+58
          1274.48520	         1.14774e+58
          1275.29150	         1.20926e+58
          1276.09780	         1.24420e+58
          1276.90410	         1.22616e+58
          1277.71040	         1.22935e+58
          1278.51670	         1.11826e+58
          1279.32300	         1.14406e+58
          1280.12930	         1.14001e+58
          1280.93560	         1.14489e+58
          1281.74190	         1.22943e+58
          1282.54820	         1.18374e+58
          1283.35450	         1.19428e+58
          1284.16080	         9.91852e+57
          1284.96710	         1.23321e+58
          1285.77340	         1.02712e+58
          1286.57970	         6.99429e+57
          1287.38600	         1.22091e+58
          1288.19230	         1.65789e+58
          1288.99860	         1.55427e+58
          1289.80490	         1.17855e+58
          1290.61120	         1.27532e+58
          1291.41750	         1.17507e+58
          1292.22380	         1.08314e+58
          1293.03010	         1.11271e+58
          1293.83640	         1.14142e+58
          1294.64270	         7.64112e+57
          1295.44900	         5.14666e+57
          1296.25530	         7.66934e+57
          1297.06160	         9.17338e+57
          1297.86790	         9.96329e+57
          1298.67420	         8.92663e+57
          1299.48050	         7.59265e+57
          1300.28680	         8.48241e+57
          1301.09310	         7.47861e+57
          1301.89940	         4.30808e+57
          1302.70570	         5.84532e+57
          1303.51200	         8.04542e+57
          1304.31830	         1.06194e+58
          1305.12460	         1.13022e+58
          1305.93090	         1.16435e+58
          1306.73720	         1.28372e+58
          1307.54350	         1.47028e+58
          1308.34980	         1.39781e+58
          1309.15610	         1.43548e+58
          1309.96240	         1.47308e+58
          1310.76870	         1.19010e+58
          1311.57500	         1.18154e+58
          1312.38130	         1.17699e+58
          1313.18760	         1.19899e+58
          1313.99390	         1.40022e+58
          1314.80020	         1.53305e+58
          1315.60650	         1.54681e+58
          1316.41280	         1.17944e+58
          1317.21910	         1.06966e+58
          1318.02540	         1.23525e+58
          1318.83170	         1.48230e+58
          1319.63800	         1.24975e+58
          1320.44430	         1.01306e+58
          1321.25060	         1.15802e+58
          1322.05690	         1.24481e+58
          1322.86320	         1.28835e+58
          1323.66950	         1.16758e+58
          1324.47580	         9.32688e+57
          1325.28210	         1.06928e+58
          1326.08840	         1.13578e+58
          1326.89470	         9.38106e+57
          1327.70100	         7.42835e+57
          1328.50730	         7.83766e+57
          1329.31360	         1.06703e+58
          1330.11990	         1.01461e+58
          1330.92620	         7.38614e+57
          1331.73250	         9.76238e+57
          1332.53880	         1.00981e+58
          1333.34510	         8.34116e+57
          1334.15140	         7.58995e+57
          1334.95770	         7.51782e+57
          1335.76400	         9.66193e+57
          1336.57030	         9.93975e+57
          1337.37660	         9.94415e+57
          1338.18290	         1.06218e+58
          1338.98920	         1.09219e+58
          1339.79550	         1.03699e+58
          1340.60180	         1.11636e+58
          1341.40810	         1.48372e+58
          1342.21440	         1.24109e+58
          1343.02070	         1.26801e+58
          1343.82700	         1.44083e+58
          1344.63330	         1.32145e+58
          1345.43960	         1.43923e+58
          1346.24590	         1.17752e+58
          1347.05220	         1.13781e+58
          1347.85850	         1.14044e+58
          1348.66480	         1.08425e+58
          1349.47110	         1.28826e+58
          1350.27740	         1.21605e+58
          1351.08370	         1.05102e+58
          1351.89000	         1.01993e+58
          1352.69630	         1.16533e+58
          1353.50260	         1.28126e+58
          1354.30890	         1.21159e+58
          1355.11520	         1.19084e+58
          1355.92150	         1.07159e+58
          1356.72780	         9.27765e+57
          1357.53410	         1.07559e+58
          1358.34040	         1.19352e+58
          1359.14670	         1.06871e+58
          1359.95300	         1.00444e+58
          1360.75930	         1.04060e+58
          1361.56560	         1.03105e+58
          1362.37190	         1.03551e+58
          1363.17820	         1.18487e+58
          1363.98450	         1.31890e+58
          1364.79080	         1.31876e+58
          1365.59710	         1.31278e+58
          1366.40340	         1.22349e+58
          1367.20970	         1.09399e+58
          1368.01600	         9.58511e+57
          1368.82230	         9.10250e+57
          1369.62860	         1.09719e+58
          1370.43490	         9.94907e+57
          1371.24120	         7.91734e+57
          1372.04750	         7.10037e+57
          1372.85380	         8.76589e+57
          1373.66010	         1.01459e+58
          1374.46640	         1.06832e+58
          1375.27270	         1.12856e+58
          1376.07900	         9.19319e+57
          1376.88530	         9.31278e+57
          1377.69160	         8.78377e+57
          1378.49790	         8.05101e+57
          1379.30420	         8.81323e+57
          1380.11050	         9.65798e+57
          1380.91680	         8.41435e+57
          1381.72310	         7.80641e+57
          1382.52940	         7.06459e+57
          1383.33570	         6.59781e+57
          1384.14200	         8.25795e+57
          1384.94830	         9.88427e+57
          1385.75460	         1.05027e+58
          1386.56090	         1.19589e+58
          1387.36720	         1.19073e+58
          1388.17350	         1.26210e+58
          1388.97980	         9.91965e+57
          1389.78610	         9.44487e+57
          1390.59240	         9.08741e+57
          1391.39870	         8.27242e+57
          1392.20500	         7.58693e+57
          1393.01130	         7.43765e+57
          1393.81760	         7.89080e+57
          1394.62390	         6.77292e+57
          1395.43020	         5.99654e+57
          1396.23650	         6.10987e+57
          1397.04280	         7.24174e+57
          1397.84910	         8.50204e+57
          1398.65540	         8.51742e+57
          1399.46170	         9.69150e+57
          1400.26800	         8.75085e+57
          1401.07430	         7.80897e+57
          1401.88060	         8.58041e+57
          1402.68690	         9.17357e+57
          1403.49320	         9.04140e+57
          1404.29950	         9.24587e+57
          1405.10580	         9.44459e+57
          1405.91210	         9.96469e+57
          1406.71840	         1.03328e+58
          1407.52470	         1.00981e+58
          1408.33100	         9.12579e+57
          1409.13730	         1.00081e+58
          1409.94360	         1.09654e+58
          1410.74990	         1.10474e+58
          1411.55620	         1.02687e+58
          1412.36250	         7.82329e+57
          1413.16880	         7.33187e+57
          1413.97510	         7.49517e+57
          1414.78140	         7.26366e+57
          1415.58770	         1.03277e+58
          1416.39400	         1.27140e+58
          1417.20030	         1.10405e+58
          1418.00660	         9.59854e+57
          1418.81290	         1.09084e+58
          1419.61920	         1.16449e+58
          1420.42550	         1.30883e+58
          1421.23180	         1.35080e+58
          1422.03810	         1.31762e+58
          1422.84440	         1.22207e+58
          1423.65070	         1.23857e+58
          1424.45700	         1.04712e+58
          1425.26330	         8.02608e+57
          1426.06960	         8.36254e+57
          1426.87590	         9.89543e+57
          1427.68220	         9.84095e+57
          1428.48850	         1.12879e+58
          1429.29480	         1.16923e+58
          1430.10110	         1.16257e+58
          1430.90740	         8.67166e+57
          1431.71370	         7.44017e+57
          1432.52000	         8.18319e+57
          1433.32630	         7.66859e+57
          1434.13260	         7.52029e+57
          1434.93890	         8.40492e+57
          1435.74520	         8.63360e+57
          1436.55150	         8.61996e+57
          1437.35780	         8.57745e+57
          1438.16410	         9.34415e+57
          1438.97040	         9.48483e+57
          1439.77670	         8.65005e+57
          1440.58300	         9.34566e+57
          1441.38930	         9.93633e+57
          1442.19560	         1.01875e+58
          1443.00190	         9.97101e+57
          1443.80820	         1.13376e+58
          1444.61450	         9.91181e+57
          1445.42080	         7.81078e+57
          1446.22710	         9.89987e+57
          1447.03340	         1.03783e+58
          1447.83970	         1.05648e+58
          1448.64600	         1.15587e+58
          1449.45230	         1.02651e+58
          1450.25860	         9.58907e+57
          1451.06490	         9.50367e+57
          1451.87120	         8.23075e+57
          1452.67750	         6.85419e+57
          1453.48380	         7.77164e+57
          1454.29010	         7.80250e+57
          1455.09640	         8.03391e+57
          1455.90270	         9.31656e+57
          1456.70900	         9.07861e+57
          1457.51530	         9.19061e+57
          1458.32160	         1.09053e+58
          1459.12790	         1.10595e+58
          1459.93420	         9.66338e+57
          1460.74050	         7.93923e+57
          1461.54680	         8.69701e+57
          1462.35310	         8.22446e+57
          1463.15940	         9.03632e+57
          1463.96570	         9.71051e+57
          1464.77200	         1.03736e+58
          1465.57830	         1.03147e+58
          1466.38460	         9.83229e+57
          1467.19090	         8.53860e+57
          1467.99720	         8.76013e+57
          1468.80350	         8.85001e+57
          1469.60980	         9.72269e+57
          1470.41610	         1.13386e+58
          1471.22240	         9.81131e+57
          1472.02870	         1.00600e+58
          1472.83500	         9.49350e+57
          1473.64130	         9.50216e+57
          1474.44760	         9.40130e+57
          1475.25390	         8.46780e+57
          1476.06020	         8.00617e+57
          1476.86650	         8.71265e+57
          1477.67280	         8.44729e+57
          1478.47910	         7.01599e+57
          1479.28540	         6.80996e+57
          1480.09170	         8.16591e+57
          1480.89800	         8.97208e+57
          1481.70430	         1.02295e+58
          1482.51060	         8.80250e+57
          1483.31690	         6.91324e+57
          1484.12320	         6.79696e+57
          1484.92950	         6.96963e+57
          1485.73580	         8.16713e+57
          1486.54210	         8.72854e+57
          1487.34840	         8.96972e+57
          1488.15470	         8.21399e+57
          1488.96100	         8.19401e+57
          1489.76730	         8.44779e+57
