#sample_34_stacked_spectrum_rest_UV-bands_median_H-alpha_noDC.txt
#median Lum: 1.68119e+42
#Rest-frame wavelength (A) | Luminosity (erg/s/A)
#
          1110.00000	         0.00000e+00
          1110.80630	        -3.91475e+59
          1111.61260	         1.41208e+59
          1112.41890	         1.94505e+59
          1113.22520	        -8.02722e+58
          1114.03150	        -1.09402e+59
          1114.83780	         3.64162e+59
          1115.64410	         1.83106e+59
          1116.45040	        -1.45363e+57
          1117.25670	        -1.21062e+58
          1118.06300	         1.52161e+59
          1118.86930	         9.05211e+58
          1119.67560	         1.28648e+59
          1120.48190	         3.94105e+57
          1121.28820	        -1.06808e+59
          1122.09450	        -6.48431e+58
          1122.90080	        -8.00577e+58
          1123.70710	         8.82601e+58
          1124.51340	         1.20539e+59
          1125.31970	         1.02622e+58
          1126.12600	        -1.44995e+58
          1126.93230	        -3.47613e+58
          1127.73860	        -3.88201e+58
          1128.54490	         4.94595e+58
          1129.35120	        -5.08358e+57
          1130.15750	        -1.60998e+57
          1130.96380	        -1.64254e+57
          1131.77010	         6.07208e+58
          1132.57640	         4.32433e+58
          1133.38270	         1.29553e+58
          1134.18900	         2.86697e+58
          1134.99530	         1.09597e+58
          1135.80160	         3.63182e+58
          1136.60790	         3.26791e+58
          1137.41420	        -1.45778e+58
          1138.22050	         3.20634e+58
          1139.02680	         3.12316e+58
          1139.83310	         2.29295e+58
          1140.63940	         1.96264e+58
          1141.44570	        -1.61124e+58
          1142.25200	        -1.70444e+58
          1143.05830	         1.36388e+58
          1143.86460	         4.01249e+58
          1144.67090	         1.76191e+58
          1145.47720	         1.37753e+58
          1146.28350	         1.61396e+58
          1147.08980	         1.71130e+58
          1147.89610	         2.83042e+58
          1148.70240	         1.99044e+58
          1149.50870	         2.43439e+58
          1150.31500	         1.45937e+58
          1151.12130	         5.46803e+57
          1151.92760	         5.72459e+56
          1152.73390	         4.65187e+57
          1153.54020	         9.67843e+57
          1154.34650	         2.27404e+58
          1155.15280	         1.74075e+58
          1155.95910	         1.11279e+58
          1156.76540	         6.25588e+57
          1157.57170	         3.84642e+57
          1158.37800	         3.63134e+57
          1159.18430	         2.89244e+57
          1159.99060	         1.41832e+57
          1160.79690	         6.15189e+57
          1161.60320	         9.12213e+57
          1162.40950	         1.72863e+58
          1163.21580	         1.70349e+58
          1164.02210	         2.06564e+58
          1164.82840	         1.19883e+58
          1165.63470	         2.08314e+58
          1166.44100	         2.04579e+58
          1167.24730	         9.12843e+57
          1168.05360	         6.10378e+57
          1168.85990	         9.06672e+57
          1169.66620	         1.51305e+58
          1170.47250	         1.64195e+58
          1171.27880	         1.28960e+58
          1172.08510	         1.44788e+58
          1172.89140	         4.38098e+57
          1173.69770	         8.55346e+57
          1174.50400	         1.12633e+58
          1175.31030	         1.07959e+58
          1176.11660	         1.55898e+58
          1176.92290	         1.26791e+58
          1177.72920	         7.98468e+57
          1178.53550	         8.11703e+57
          1179.34180	         5.52867e+57
          1180.14810	         8.14022e+57
          1180.95440	         1.41175e+58
          1181.76070	         8.80085e+57
          1182.56700	         7.17493e+57
          1183.37330	         3.97501e+57
          1184.17960	         8.82627e+57
          1184.98590	         1.05313e+58
          1185.79220	         7.52499e+57
          1186.59850	         1.37516e+58
          1187.40480	         1.75820e+58
          1188.21110	         1.01096e+58
          1189.01740	         6.59262e+57
          1189.82370	         1.43398e+58
          1190.63000	         1.58987e+58
          1191.43630	         1.60501e+58
          1192.24260	         1.19294e+58
          1193.04890	         1.05886e+58
          1193.85520	         1.07388e+58
          1194.66150	         2.52448e+57
          1195.46780	         7.48653e+57
          1196.27410	         1.14093e+58
          1197.08040	         1.03752e+58
          1197.88670	         1.58127e+58
          1198.69300	         1.19293e+58
          1199.49930	         1.12166e+58
          1200.30560	         1.04316e+58
          1201.11190	         9.11000e+57
          1201.91820	         1.09041e+58
          1202.72450	         8.88933e+57
          1203.53080	         1.08577e+58
          1204.33710	         8.66158e+57
          1205.14340	         6.46801e+57
          1205.94970	         3.62376e+57
          1206.75600	         2.79425e+57
          1207.56230	         6.61341e+57
          1208.36860	         8.82715e+57
          1209.17490	         5.88027e+57
          1209.98120	         9.09960e+57
          1210.78750	         9.90187e+57
          1211.59380	         9.54992e+57
          1212.40010	         1.76267e+58
          1213.20640	         2.55566e+58
          1214.01270	         2.40092e+58
          1214.81900	         2.78365e+58
          1215.62530	         4.37314e+58
          1216.43160	         8.86371e+58
          1217.23790	         1.49800e+59
          1218.04420	         1.15166e+59
          1218.85050	         8.81740e+58
          1219.65680	         5.86035e+58
          1220.46310	         3.04655e+58
          1221.26940	         2.04107e+58
          1222.07570	         1.50477e+58
          1222.88200	         1.26327e+58
          1223.68830	         1.13698e+58
          1224.49460	         5.86997e+57
          1225.30090	         5.74440e+57
          1226.10720	         5.22937e+57
          1226.91350	         7.61476e+57
          1227.71980	         8.48295e+57
          1228.52610	         8.14732e+57
          1229.33240	         8.64424e+57
          1230.13870	         8.13242e+57
          1230.94500	         7.92483e+57
          1231.75130	         3.07272e+57
          1232.55760	         4.67340e+57
          1233.36390	         8.76148e+57
          1234.17020	         9.16916e+57
          1234.97650	         7.55935e+57
          1235.78280	         8.80404e+57
          1236.58910	         1.10286e+58
          1237.39540	         1.17996e+58
          1238.20170	         1.04548e+58
          1239.00800	         1.01960e+58
          1239.81430	         1.18753e+58
          1240.62060	         9.27542e+57
          1241.42690	         1.19281e+58
          1242.23320	         1.43837e+58
          1243.03950	         7.97377e+57
          1243.84580	         7.46370e+57
          1244.65210	         8.04218e+57
          1245.45840	         8.26615e+57
          1246.26470	         9.95444e+57
          1247.07100	         9.90579e+57
          1247.87730	         5.75134e+57
          1248.68360	         3.56255e+57
          1249.48990	         6.17764e+57
          1250.29620	         8.34752e+57
          1251.10250	         7.73275e+57
          1251.90880	         7.89063e+57
          1252.71510	         6.88020e+57
          1253.52140	         6.61891e+57
          1254.32770	         1.10409e+58
          1255.13400	         1.40544e+58
          1255.94030	         1.25332e+58
          1256.74660	         1.11109e+58
          1257.55290	         1.00054e+58
          1258.35920	         8.49631e+57
          1259.16550	         6.25686e+57
          1259.97180	         4.83434e+57
          1260.77810	         9.33392e+57
          1261.58440	         1.41285e+58
          1262.39070	         1.17442e+58
          1263.19700	         1.04885e+58
          1264.00330	         8.84351e+57
          1264.80960	         9.99760e+57
          1265.61590	         1.16468e+58
          1266.42220	         1.16375e+58
          1267.22850	         1.12532e+58
          1268.03480	         1.43764e+58
          1268.84110	         1.49190e+58
          1269.64740	         1.40342e+58
          1270.45370	         1.31895e+58
          1271.26000	         1.10755e+58
          1272.06630	         1.01342e+58
          1272.87260	         1.06876e+58
          1273.67890	         1.02871e+58
          1274.48520	         9.71683e+57
          1275.29150	         1.05328e+58
          1276.09780	         1.11674e+58
          1276.90410	         1.41101e+58
          1277.71040	         1.47129e+58
          1278.51670	         1.28943e+58
          1279.32300	         1.26634e+58
          1280.12930	         1.38781e+58
          1280.93560	         1.26595e+58
          1281.74190	         1.46329e+58
          1282.54820	         1.30797e+58
          1283.35450	         9.32575e+57
          1284.16080	         1.10205e+58
          1284.96710	         1.44498e+58
          1285.77340	         1.39670e+58
          1286.57970	         1.21599e+58
          1287.38600	         1.64065e+58
          1288.19230	         1.86835e+58
          1288.99860	         1.53068e+58
          1289.80490	         1.09028e+58
          1290.61120	         1.21690e+58
          1291.41750	         1.56838e+58
          1292.22380	         1.18058e+58
          1293.03010	         8.28365e+57
          1293.83640	         1.13370e+58
          1294.64270	         1.12187e+58
          1295.44900	         7.06663e+57
          1296.25530	         6.32334e+57
          1297.06160	         7.89644e+57
          1297.86790	         9.80582e+57
          1298.67420	         9.89177e+57
          1299.48050	         9.34313e+57
          1300.28680	         8.54238e+57
          1301.09310	         5.89115e+57
          1301.89940	         2.09606e+57
          1302.70570	         5.60431e+57
          1303.51200	         7.95249e+57
          1304.31830	         1.01526e+58
          1305.12460	         9.49377e+57
          1305.93090	         1.01719e+58
          1306.73720	         1.43194e+58
          1307.54350	         1.47359e+58
          1308.34980	         1.34786e+58
          1309.15610	         1.44975e+58
          1309.96240	         1.68641e+58
          1310.76870	         1.47759e+58
          1311.57500	         1.03985e+58
          1312.38130	         1.10086e+58
          1313.18760	         1.55406e+58
          1313.99390	         1.82680e+58
          1314.80020	         1.79224e+58
          1315.60650	         1.59911e+58
          1316.41280	         1.21892e+58
          1317.21910	         1.16168e+58
          1318.02540	         1.11242e+58
          1318.83170	         1.20184e+58
          1319.63800	         1.18408e+58
          1320.44430	         1.21561e+58
          1321.25060	         1.24277e+58
          1322.05690	         1.16633e+58
          1322.86320	         1.13616e+58
          1323.66950	         1.04761e+58
          1324.47580	         8.88042e+57
          1325.28210	         9.41440e+57
          1326.08840	         1.18127e+58
          1326.89470	         1.25496e+58
          1327.70100	         9.91117e+57
          1328.50730	         9.38889e+57
          1329.31360	         1.05019e+58
          1330.11990	         1.04747e+58
          1330.92620	         1.00718e+58
          1331.73250	         1.09162e+58
          1332.53880	         1.15412e+58
          1333.34510	         1.03070e+58
          1334.15140	         8.87394e+57
          1334.95770	         8.48315e+57
          1335.76400	         1.06798e+58
          1336.57030	         1.11974e+58
          1337.37660	         9.68605e+57
          1338.18290	         1.03430e+58
          1338.98920	         1.27066e+58
          1339.79550	         1.28471e+58
          1340.60180	         1.05290e+58
          1341.40810	         1.10150e+58
          1342.21440	         1.28850e+58
          1343.02070	         1.48245e+58
          1343.82700	         1.45040e+58
          1344.63330	         1.23550e+58
          1345.43960	         1.28788e+58
          1346.24590	         1.16574e+58
          1347.05220	         1.14471e+58
          1347.85850	         1.00113e+58
          1348.66480	         1.18079e+58
          1349.47110	         1.19324e+58
          1350.27740	         1.07889e+58
          1351.08370	         1.15065e+58
          1351.89000	         1.23938e+58
          1352.69630	         1.23504e+58
          1353.50260	         1.13990e+58
          1354.30890	         1.15568e+58
          1355.11520	         1.14308e+58
          1355.92150	         1.04842e+58
          1356.72780	         9.70457e+57
          1357.53410	         1.02281e+58
          1358.34040	         1.02574e+58
          1359.14670	         1.00185e+58
          1359.95300	         1.02745e+58
          1360.75930	         1.03457e+58
          1361.56560	         1.04723e+58
          1362.37190	         1.13414e+58
          1363.17820	         1.10356e+58
          1363.98450	         1.24331e+58
          1364.79080	         1.30569e+58
          1365.59710	         1.31841e+58
          1366.40340	         1.27298e+58
          1367.20970	         1.10323e+58
          1368.01600	         1.08621e+58
          1368.82230	         9.62643e+57
          1369.62860	         9.65925e+57
          1370.43490	         7.71607e+57
          1371.24120	         7.78426e+57
          1372.04750	         9.48237e+57
          1372.85380	         1.22285e+58
          1373.66010	         1.06018e+58
          1374.46640	         1.00701e+58
          1375.27270	         1.06390e+58
          1376.07900	         9.05321e+57
          1376.88530	         7.35339e+57
          1377.69160	         7.91294e+57
          1378.49790	         7.94428e+57
          1379.30420	         8.05116e+57
          1380.11050	         1.08675e+58
          1380.91680	         1.05321e+58
          1381.72310	         8.04506e+57
          1382.52940	         8.38272e+57
          1383.33570	         8.54518e+57
          1384.14200	         9.07124e+57
          1384.94830	         9.31894e+57
          1385.75460	         1.07671e+58
          1386.56090	         1.25362e+58
          1387.36720	         1.07884e+58
          1388.17350	         1.12495e+58
          1388.97980	         1.13116e+58
          1389.78610	         9.56770e+57
          1390.59240	         6.12319e+57
          1391.39870	         4.68978e+57
          1392.20500	         7.69322e+57
          1393.01130	         8.13113e+57
          1393.81760	         7.20375e+57
          1394.62390	         7.66952e+57
          1395.43020	         7.98118e+57
          1396.23650	         7.00729e+57
          1397.04280	         6.73565e+57
          1397.84910	         8.72669e+57
          1398.65540	         9.16384e+57
          1399.46170	         9.18191e+57
          1400.26800	         8.15832e+57
          1401.07430	         8.08991e+57
          1401.88060	         8.73348e+57
          1402.68690	         8.42945e+57
          1403.49320	         9.36430e+57
          1404.29950	         9.10074e+57
          1405.10580	         9.32424e+57
          1405.91210	         1.09613e+58
          1406.71840	         1.18081e+58
          1407.52470	         1.10858e+58
          1408.33100	         1.11561e+58
          1409.13730	         1.16253e+58
          1409.94360	         1.07564e+58
          1410.74990	         1.03820e+58
          1411.55620	         9.65070e+57
          1412.36250	         1.01465e+58
          1413.16880	         1.02193e+58
          1413.97510	         8.46498e+57
          1414.78140	         7.87721e+57
          1415.58770	         9.40758e+57
          1416.39400	         9.56217e+57
          1417.20030	         1.16617e+58
          1418.00660	         1.08290e+58
          1418.81290	         9.98380e+57
          1419.61920	         9.75818e+57
          1420.42550	         1.10884e+58
          1421.23180	         1.32224e+58
          1422.03810	         1.33658e+58
          1422.84440	         1.15322e+58
          1423.65070	         1.30064e+58
          1424.45700	         1.08200e+58
          1425.26330	         8.70294e+57
          1426.06960	         8.75208e+57
          1426.87590	         9.58134e+57
          1427.68220	         9.83084e+57
          1428.48850	         1.08102e+58
          1429.29480	         1.14172e+58
          1430.10110	         9.77857e+57
          1430.90740	         8.01645e+57
          1431.71370	         7.91930e+57
          1432.52000	         8.13873e+57
          1433.32630	         7.53717e+57
          1434.13260	         7.57147e+57
          1434.93890	         7.66494e+57
          1435.74520	         8.06155e+57
          1436.55150	         9.26468e+57
          1437.35780	         8.95581e+57
          1438.16410	         8.56380e+57
          1438.97040	         8.80441e+57
          1439.77670	         9.03696e+57
          1440.58300	         9.47138e+57
          1441.38930	         1.03183e+58
          1442.19560	         9.43997e+57
          1443.00190	         9.11842e+57
          1443.80820	         1.10242e+58
          1444.61450	         9.52586e+57
          1445.42080	         8.48597e+57
          1446.22710	         1.03501e+58
          1447.03340	         1.01202e+58
          1447.83970	         1.10069e+58
          1448.64600	         1.18460e+58
          1449.45230	         1.09805e+58
          1450.25860	         9.71094e+57
          1451.06490	         8.61587e+57
          1451.87120	         7.39703e+57
          1452.67750	         7.49306e+57
          1453.48380	         8.53111e+57
          1454.29010	         7.67992e+57
          1455.09640	         7.92887e+57
          1455.90270	         8.82323e+57
          1456.70900	         9.66588e+57
          1457.51530	         9.96338e+57
          1458.32160	         1.09637e+58
          1459.12790	         1.06452e+58
          1459.93420	         1.03710e+58
          1460.74050	         9.24180e+57
          1461.54680	         8.22620e+57
          1462.35310	         6.42808e+57
          1463.15940	         9.68708e+57
          1463.96570	         1.28355e+58
          1464.77200	         1.28075e+58
          1465.57830	         1.04154e+58
          1466.38460	         8.78622e+57
          1467.19090	         8.32794e+57
          1467.99720	         8.45068e+57
          1468.80350	         9.74754e+57
          1469.60980	         1.05779e+58
          1470.41610	         1.05765e+58
          1471.22240	         9.16657e+57
          1472.02870	         9.52856e+57
          1472.83500	         9.43951e+57
          1473.64130	         9.97401e+57
          1474.44760	         1.00092e+58
          1475.25390	         9.12461e+57
          1476.06020	         9.88232e+57
          1476.86650	         9.22839e+57
          1477.67280	         8.29478e+57
          1478.47910	         6.47738e+57
          1479.28540	         7.23771e+57
          1480.09170	         8.97840e+57
          1480.89800	         8.70011e+57
          1481.70430	         8.58048e+57
          1482.51060	         8.40785e+57
          1483.31690	         8.46545e+57
          1484.12320	         8.89776e+57
          1484.92950	         7.78565e+57
          1485.73580	         7.90730e+57
          1486.54210	         8.57327e+57
          1487.34840	         9.07082e+57
          1488.15470	         8.50336e+57
          1488.96100	         8.62966e+57
          1489.76730	         8.83841e+57
