#sample_10_stacked_spectrum_rest_UV-bands_median_H-alpha_noDC.txt
#median Lum: 1.71210e+42
#Rest-frame wavelength (A) | Luminosity (erg/s/A)
#
          1110.00000	         0.00000e+00
          1110.80630	         3.89776e+59
          1111.61260	         1.03679e+59
          1112.41890	         1.22892e+59
          1113.22520	        -4.08309e+58
          1114.03150	         7.35946e+58
          1114.83780	         3.23778e+59
          1115.64410	         1.57710e+59
          1116.45040	        -1.64932e+59
          1117.25670	        -9.68407e+57
          1118.06300	         1.97196e+59
          1118.86930	         6.71309e+58
          1119.67560	         1.80237e+59
          1120.48190	         2.23545e+58
          1121.28820	        -1.30015e+59
          1122.09450	        -1.07615e+59
          1122.90080	        -2.44533e+58
          1123.70710	         6.88745e+58
          1124.51340	         9.06223e+58
          1125.31970	        -3.61551e+57
          1126.12600	         7.81702e+58
          1126.93230	        -3.07601e+58
          1127.73860	        -5.47285e+58
          1128.54490	        -2.02817e+58
          1129.35120	        -8.22799e+57
          1130.15750	        -1.44287e+58
          1130.96380	        -1.56544e+58
          1131.77010	         7.02253e+58
          1132.57640	         4.74104e+58
          1133.38270	         3.11712e+57
          1134.18900	         8.94134e+57
          1134.99530	         4.36688e+58
          1135.80160	         4.99521e+58
          1136.60790	         1.87984e+58
          1137.41420	        -4.69161e+57
          1138.22050	         3.26862e+58
          1139.02680	         4.31890e+58
          1139.83310	         2.35619e+58
          1140.63940	         1.86734e+58
          1141.44570	         8.39594e+56
          1142.25200	         1.27732e+58
          1143.05830	         2.99355e+58
          1143.86460	         2.76852e+58
          1144.67090	         1.54673e+58
          1145.47720	         1.46247e+58
          1146.28350	         2.31460e+58
          1147.08980	         2.57160e+58
          1147.89610	         2.50473e+58
          1148.70240	         3.15651e+58
          1149.50870	         1.56392e+58
          1150.31500	         4.22733e+56
          1151.12130	         8.56735e+57
          1151.92760	         2.45009e+57
          1152.73390	        -3.39678e+56
          1153.54020	         9.18731e+56
          1154.34650	         2.93927e+58
          1155.15280	         2.28436e+58
          1155.95910	         8.37512e+57
          1156.76540	         1.16324e+58
          1157.57170	         5.23759e+57
          1158.37800	         2.90590e+56
          1159.18430	        -6.11807e+57
          1159.99060	         1.00182e+57
          1160.79690	         6.36318e+57
          1161.60320	         6.09386e+57
          1162.40950	         6.94650e+57
          1163.21580	         1.74974e+58
          1164.02210	         8.42512e+57
          1164.82840	         8.68164e+57
          1165.63470	         2.05572e+58
          1166.44100	         1.20587e+58
          1167.24730	         5.93147e+57
          1168.05360	         4.56042e+57
          1168.85990	         6.99250e+57
          1169.66620	         1.25375e+58
          1170.47250	         6.23764e+57
          1171.27880	         4.89707e+56
          1172.08510	         4.60746e+56
          1172.89140	         2.26388e+57
          1173.69770	         6.84647e+57
          1174.50400	         9.65696e+57
          1175.31030	         9.75886e+57
          1176.11660	         1.33607e+58
          1176.92290	         1.43513e+58
          1177.72920	         1.37116e+58
          1178.53550	         4.94479e+57
          1179.34180	        -1.08419e+57
          1180.14810	         9.85896e+57
          1180.95440	         1.18589e+58
          1181.76070	         7.06411e+57
          1182.56700	         8.35064e+57
          1183.37330	         5.08998e+57
          1184.17960	         1.20205e+58
          1184.98590	         1.19253e+58
          1185.79220	         9.50513e+57
          1186.59850	         1.52983e+58
          1187.40480	         1.17353e+58
          1188.21110	         1.83035e+58
          1189.01740	         3.87169e+57
          1189.82370	         6.49845e+57
          1190.63000	         1.25523e+58
          1191.43630	         1.60939e+58
          1192.24260	         1.05663e+58
          1193.04890	         1.24954e+58
          1193.85520	         1.02915e+58
          1194.66150	         5.30255e+57
          1195.46780	         1.56319e+58
          1196.27410	         1.97965e+58
          1197.08040	         1.37422e+58
          1197.88670	         1.20209e+58
          1198.69300	         1.37147e+58
          1199.49930	         1.83685e+58
          1200.30560	         1.19349e+58
          1201.11190	         8.44544e+57
          1201.91820	         9.86010e+57
          1202.72450	         1.08073e+58
          1203.53080	         1.67532e+58
          1204.33710	         6.02698e+57
          1205.14340	         8.41331e+57
          1205.94970	         5.36243e+57
          1206.75600	         5.51830e+57
          1207.56230	         6.17579e+57
          1208.36860	         5.96433e+57
          1209.17490	         6.69798e+57
          1209.98120	         6.52021e+57
          1210.78750	         6.08343e+57
          1211.59380	         1.50904e+58
          1212.40010	         1.93948e+58
          1213.20640	         2.24436e+58
          1214.01270	         2.18562e+58
          1214.81900	         2.51508e+58
          1215.62530	         4.36571e+58
          1216.43160	         8.87570e+58
          1217.23790	         1.54057e+59
          1218.04420	         1.15021e+59
          1218.85050	         8.78141e+58
          1219.65680	         6.01278e+58
          1220.46310	         3.55683e+58
          1221.26940	         2.60312e+58
          1222.07570	         1.50606e+58
          1222.88200	         1.23647e+58
          1223.68830	         8.21651e+57
          1224.49460	         5.82009e+57
          1225.30090	         6.32813e+57
          1226.10720	         5.09808e+57
          1226.91350	         5.89875e+57
          1227.71980	         9.86397e+57
          1228.52610	         1.12199e+58
          1229.33240	         7.88730e+57
          1230.13870	         7.37924e+57
          1230.94500	         8.01712e+57
          1231.75130	         5.39634e+57
          1232.55760	         4.00590e+57
          1233.36390	         5.74078e+57
          1234.17020	         7.53270e+57
          1234.97650	         7.04675e+57
          1235.78280	         7.53757e+57
          1236.58910	         8.19719e+57
          1237.39540	         1.13499e+58
          1238.20170	         1.31229e+58
          1239.00800	         1.35106e+58
          1239.81430	         1.40500e+58
          1240.62060	         1.24030e+58
          1241.42690	         1.17391e+58
          1242.23320	         1.18909e+58
          1243.03950	         6.89207e+57
          1243.84580	         5.95925e+57
          1244.65210	         1.05874e+58
          1245.45840	         1.03849e+58
          1246.26470	         1.00985e+58
          1247.07100	         9.34876e+57
          1247.87730	         6.84473e+57
          1248.68360	         5.16477e+57
          1249.48990	         5.92113e+57
          1250.29620	         5.01177e+57
          1251.10250	         7.41204e+57
          1251.90880	         7.19425e+57
          1252.71510	         5.63360e+57
          1253.52140	         4.67921e+57
          1254.32770	         6.92221e+57
          1255.13400	         1.03243e+58
          1255.94030	         1.19385e+58
          1256.74660	         1.03016e+58
          1257.55290	         1.08000e+58
          1258.35920	         9.56351e+57
          1259.16550	         4.97070e+57
          1259.97180	         4.04259e+57
          1260.77810	         9.20588e+57
          1261.58440	         1.13079e+58
          1262.39070	         1.01211e+58
          1263.19700	         9.49269e+57
          1264.00330	         8.21694e+57
          1264.80960	         8.49067e+57
          1265.61590	         1.04737e+58
          1266.42220	         1.20355e+58
          1267.22850	         1.17125e+58
          1268.03480	         1.46055e+58
          1268.84110	         1.52276e+58
          1269.64740	         1.24691e+58
          1270.45370	         1.29458e+58
          1271.26000	         1.36260e+58
          1272.06630	         1.34111e+58
          1272.87260	         1.42098e+58
          1273.67890	         1.40993e+58
          1274.48520	         1.31302e+58
          1275.29150	         1.16747e+58
          1276.09780	         1.15491e+58
          1276.90410	         1.40088e+58
          1277.71040	         1.38575e+58
          1278.51670	         1.36895e+58
          1279.32300	         1.49272e+58
          1280.12930	         1.36487e+58
          1280.93560	         1.13260e+58
          1281.74190	         1.03199e+58
          1282.54820	         1.20522e+58
          1283.35450	         1.08122e+58
          1284.16080	         1.27526e+58
          1284.96710	         1.45608e+58
          1285.77340	         1.12555e+58
          1286.57970	         1.10698e+58
          1287.38600	         1.41247e+58
          1288.19230	         1.82655e+58
          1288.99860	         1.44885e+58
          1289.80490	         9.43550e+57
          1290.61120	         1.36871e+58
          1291.41750	         1.58198e+58
          1292.22380	         1.22984e+58
          1293.03010	         8.82605e+57
          1293.83640	         1.13626e+58
          1294.64270	         1.11233e+58
          1295.44900	         7.32411e+57
          1296.25530	         6.43850e+57
          1297.06160	         7.89650e+57
          1297.86790	         9.41874e+57
          1298.67420	         7.81568e+57
          1299.48050	         8.83630e+57
          1300.28680	         9.90257e+57
          1301.09310	         7.59559e+57
          1301.89940	         4.90183e+57
          1302.70570	         7.26101e+57
          1303.51200	         8.75772e+57
          1304.31830	         1.02605e+58
          1305.12460	         1.10332e+58
          1305.93090	         1.12716e+58
          1306.73720	         1.25744e+58
          1307.54350	         1.33411e+58
          1308.34980	         1.33793e+58
          1309.15610	         1.55843e+58
          1309.96240	         1.73730e+58
          1310.76870	         1.35027e+58
          1311.57500	         1.16789e+58
          1312.38130	         1.09851e+58
          1313.18760	         1.22199e+58
          1313.99390	         1.60870e+58
          1314.80020	         1.56004e+58
          1315.60650	         1.37180e+58
          1316.41280	         1.19341e+58
          1317.21910	         1.27264e+58
          1318.02540	         1.12589e+58
          1318.83170	         1.14706e+58
          1319.63800	         1.15130e+58
          1320.44430	         1.04212e+58
          1321.25060	         1.15520e+58
          1322.05690	         1.17358e+58
          1322.86320	         1.17616e+58
          1323.66950	         1.06589e+58
          1324.47580	         9.07226e+57
          1325.28210	         9.08522e+57
          1326.08840	         1.04612e+58
          1326.89470	         1.14671e+58
          1327.70100	         1.03420e+58
          1328.50730	         8.62617e+57
          1329.31360	         9.39221e+57
          1330.11990	         1.03748e+58
          1330.92620	         1.04347e+58
          1331.73250	         1.18332e+58
          1332.53880	         1.05643e+58
          1333.34510	         1.02123e+58
          1334.15140	         1.01211e+58
          1334.95770	         9.04206e+57
          1335.76400	         1.01371e+58
          1336.57030	         1.02352e+58
          1337.37660	         1.05607e+58
          1338.18290	         1.03596e+58
          1338.98920	         1.09602e+58
          1339.79550	         1.09176e+58
          1340.60180	         1.16522e+58
          1341.40810	         1.17157e+58
          1342.21440	         1.01446e+58
          1343.02070	         1.16799e+58
          1343.82700	         1.27016e+58
          1344.63330	         1.34379e+58
          1345.43960	         1.38947e+58
          1346.24590	         9.38299e+57
          1347.05220	         1.16569e+58
          1347.85850	         1.12035e+58
          1348.66480	         1.21713e+58
          1349.47110	         1.26788e+58
          1350.27740	         1.11861e+58
          1351.08370	         1.13256e+58
          1351.89000	         1.12999e+58
          1352.69630	         1.22451e+58
          1353.50260	         1.25205e+58
          1354.30890	         1.18227e+58
          1355.11520	         1.09378e+58
          1355.92150	         1.03751e+58
          1356.72780	         1.13818e+58
          1357.53410	         1.16126e+58
          1358.34040	         1.00854e+58
          1359.14670	         9.40584e+57
          1359.95300	         1.08815e+58
          1360.75930	         1.07394e+58
          1361.56560	         1.14458e+58
          1362.37190	         1.19855e+58
          1363.17820	         1.06455e+58
          1363.98450	         1.06375e+58
          1364.79080	         1.35047e+58
          1365.59710	         1.34265e+58
          1366.40340	         1.15494e+58
          1367.20970	         1.04927e+58
          1368.01600	         1.03288e+58
          1368.82230	         1.02177e+58
          1369.62860	         1.16840e+58
          1370.43490	         1.09195e+58
          1371.24120	         1.04312e+58
          1372.04750	         9.90869e+57
          1372.85380	         1.03724e+58
          1373.66010	         1.02089e+58
          1374.46640	         1.13757e+58
          1375.27270	         1.11271e+58
          1376.07900	         1.04104e+58
          1376.88530	         9.75290e+57
          1377.69160	         9.03414e+57
          1378.49790	         6.80873e+57
          1379.30420	         6.81882e+57
          1380.11050	         8.66401e+57
          1380.91680	         7.30514e+57
          1381.72310	         7.90634e+57
          1382.52940	         8.22179e+57
          1383.33570	         8.59710e+57
          1384.14200	         1.01020e+58
          1384.94830	         1.03877e+58
          1385.75460	         1.09280e+58
          1386.56090	         1.18647e+58
          1387.36720	         1.15761e+58
          1388.17350	         1.34123e+58
          1388.97980	         1.15098e+58
          1389.78610	         7.82675e+57
          1390.59240	         7.19536e+57
          1391.39870	         6.90619e+57
          1392.20500	         8.28940e+57
          1393.01130	         5.98211e+57
          1393.81760	         5.38897e+57
          1394.62390	         6.75013e+57
          1395.43020	         6.77850e+57
          1396.23650	         7.29976e+57
          1397.04280	         8.89039e+57
          1397.84910	         9.71297e+57
          1398.65540	         9.97684e+57
          1399.46170	         9.71533e+57
          1400.26800	         6.86765e+57
          1401.07430	         6.96215e+57
          1401.88060	         8.98377e+57
          1402.68690	         9.28554e+57
          1403.49320	         9.58539e+57
          1404.29950	         9.08058e+57
          1405.10580	         1.04196e+58
          1405.91210	         1.07095e+58
          1406.71840	         9.44931e+57
          1407.52470	         9.31439e+57
          1408.33100	         9.33403e+57
          1409.13730	         1.08099e+58
          1409.94360	         1.12278e+58
          1410.74990	         1.13173e+58
          1411.55620	         1.02429e+58
          1412.36250	         9.78494e+57
          1413.16880	         8.80270e+57
          1413.97510	         6.12313e+57
          1414.78140	         8.05610e+57
          1415.58770	         1.14628e+58
          1416.39400	         1.22276e+58
          1417.20030	         1.16257e+58
          1418.00660	         9.34729e+57
          1418.81290	         1.01527e+58
          1419.61920	         1.02077e+58
          1420.42550	         1.13096e+58
          1421.23180	         1.33563e+58
          1422.03810	         1.47047e+58
          1422.84440	         1.24859e+58
          1423.65070	         1.18993e+58
          1424.45700	         1.24216e+58
          1425.26330	         9.01584e+57
          1426.06960	         8.21060e+57
          1426.87590	         1.03907e+58
          1427.68220	         9.61045e+57
          1428.48850	         1.08699e+58
          1429.29480	         1.25340e+58
          1430.10110	         1.07949e+58
          1430.90740	         8.48522e+57
          1431.71370	         8.52962e+57
          1432.52000	         9.01165e+57
          1433.32630	         8.43609e+57
          1434.13260	         8.55616e+57
          1434.93890	         9.19928e+57
          1435.74520	         1.00384e+58
          1436.55150	         1.00836e+58
          1437.35780	         9.33656e+57
          1438.16410	         8.53132e+57
          1438.97040	         8.67489e+57
          1439.77670	         8.96778e+57
          1440.58300	         8.80055e+57
          1441.38930	         8.41624e+57
          1442.19560	         8.88778e+57
          1443.00190	         9.45816e+57
          1443.80820	         1.13847e+58
          1444.61450	         1.02524e+58
          1445.42080	         7.73797e+57
          1446.22710	         1.01509e+58
          1447.03340	         1.07356e+58
          1447.83970	         1.04837e+58
          1448.64600	         1.05035e+58
          1449.45230	         9.22859e+57
          1450.25860	         1.06506e+58
          1451.06490	         1.09254e+58
          1451.87120	         8.28110e+57
          1452.67750	         7.77708e+57
          1453.48380	         8.99081e+57
          1454.29010	         8.00275e+57
          1455.09640	         7.10662e+57
          1455.90270	         7.56880e+57
          1456.70900	         7.80972e+57
          1457.51530	         9.70413e+57
          1458.32160	         1.16614e+58
          1459.12790	         1.16424e+58
          1459.93420	         1.13640e+58
          1460.74050	         8.93668e+57
          1461.54680	         8.20933e+57
          1462.35310	         8.40544e+57
          1463.15940	         9.71385e+57
          1463.96570	         1.07422e+58
          1464.77200	         1.13328e+58
          1465.57830	         1.17734e+58
          1466.38460	         9.48856e+57
          1467.19090	         8.82208e+57
          1467.99720	         9.61026e+57
          1468.80350	         9.61859e+57
          1469.60980	         9.60972e+57
          1470.41610	         1.05383e+58
          1471.22240	         9.88316e+57
          1472.02870	         1.06267e+58
          1472.83500	         9.51051e+57
          1473.64130	         9.24598e+57
          1474.44760	         1.01872e+58
          1475.25390	         9.07352e+57
          1476.06020	         9.12612e+57
          1476.86650	         8.78306e+57
          1477.67280	         8.06451e+57
          1478.47910	         6.91097e+57
          1479.28540	         7.25385e+57
          1480.09170	         9.13571e+57
          1480.89800	         9.53185e+57
          1481.70430	         9.02521e+57
          1482.51060	         7.54270e+57
          1483.31690	         6.79925e+57
          1484.12320	         7.41886e+57
          1484.92950	         8.77886e+57
          1485.73580	         1.00585e+58
          1486.54210	         9.18332e+57
          1487.34840	         8.66411e+57
          1488.15470	         8.75718e+57
          1488.96100	         8.63305e+57
          1489.76730	         9.01311e+57
