#sample_281_stacked_spectrum_rest_UV-bands_median_H-alpha_noDC.txt
#median Lum: 1.68231e+42
#Rest-frame wavelength (A) | Luminosity (erg/s/A)
#
          1110.00000	         0.00000e+00
          1110.80630	         2.35772e+59
          1111.61260	         3.41695e+59
          1112.41890	         1.94104e+59
          1113.22520	         2.64376e+59
          1114.03150	         6.83180e+58
          1114.83780	         1.94172e+59
          1115.64410	         8.45877e+58
          1116.45040	         4.10851e+58
          1117.25670	         1.08301e+59
          1118.06300	         8.49699e+58
          1118.86930	        -1.52782e+59
          1119.67560	        -8.06503e+57
          1120.48190	        -6.66110e+58
          1121.28820	        -9.36683e+58
          1122.09450	        -7.63622e+58
          1122.90080	        -1.03651e+58
          1123.70710	         5.67417e+58
          1124.51340	         7.25148e+58
          1125.31970	         3.16607e+57
          1126.12600	         3.83784e+58
          1126.93230	        -2.99656e+58
          1127.73860	        -7.54915e+58
          1128.54490	        -1.39868e+58
          1129.35120	         7.68925e+57
          1130.15750	        -1.61857e+58
          1130.96380	         7.55384e+57
          1131.77010	         8.79714e+58
          1132.57640	         3.94342e+58
          1133.38270	         2.42301e+58
          1134.18900	         3.87300e+58
          1134.99530	         2.00682e+58
          1135.80160	         1.67132e+58
          1136.60790	         2.21862e+58
          1137.41420	         4.87275e+57
          1138.22050	         1.69819e+58
          1139.02680	         2.50383e+58
          1139.83310	         3.95590e+58
          1140.63940	         3.37543e+58
          1141.44570	        -1.30845e+57
          1142.25200	        -2.48811e+58
          1143.05830	         8.91426e+57
          1143.86460	         2.08390e+58
          1144.67090	         2.05334e+58
          1145.47720	         2.53949e+58
          1146.28350	         4.56934e+57
          1147.08980	         2.96602e+58
          1147.89610	         2.26681e+58
          1148.70240	         2.83898e+58
          1149.50870	         1.77577e+58
          1150.31500	         1.66153e+58
          1151.12130	         1.31213e+58
          1151.92760	         9.42054e+57
          1152.73390	         1.05471e+58
          1153.54020	         1.45490e+57
          1154.34650	         2.14964e+58
          1155.15280	         1.75814e+58
          1155.95910	         1.16388e+58
          1156.76540	         7.90023e+57
          1157.57170	         2.13667e+57
          1158.37800	        -6.60592e+57
          1159.18430	        -1.52026e+57
          1159.99060	         7.25246e+57
          1160.79690	        -1.72628e+57
          1161.60320	         9.27491e+57
          1162.40950	         1.62559e+58
          1163.21580	         1.05779e+58
          1164.02210	         1.31722e+58
          1164.82840	         9.57272e+57
          1165.63470	         1.11272e+58
          1166.44100	         1.93968e+58
          1167.24730	         1.71988e+58
          1168.05360	         1.01921e+58
          1168.85990	         8.97175e+57
          1169.66620	         5.06721e+57
          1170.47250	         1.36799e+58
          1171.27880	         8.70338e+57
          1172.08510	         1.00785e+58
          1172.89140	         3.66098e+57
          1173.69770	         9.68443e+57
          1174.50400	         1.01084e+58
          1175.31030	         1.23311e+58
          1176.11660	         1.34112e+58
          1176.92290	         1.31699e+58
          1177.72920	         1.29907e+58
          1178.53550	         5.29135e+57
          1179.34180	         1.10506e+57
          1180.14810	         4.90381e+57
          1180.95440	         8.67308e+57
          1181.76070	         1.31548e+58
          1182.56700	         1.29738e+58
          1183.37330	         5.09263e+57
          1184.17960	         9.49116e+57
          1184.98590	         1.18948e+58
          1185.79220	         8.08281e+57
          1186.59850	         1.09014e+58
          1187.40480	         1.34228e+58
          1188.21110	         1.72405e+58
          1189.01740	         9.33701e+57
          1189.82370	         1.07724e+58
          1190.63000	         1.42180e+58
          1191.43630	         1.51062e+58
          1192.24260	         9.03655e+57
          1193.04890	         1.12209e+58
          1193.85520	         9.72279e+57
          1194.66150	         7.87037e+57
          1195.46780	         1.70603e+58
          1196.27410	         1.58913e+58
          1197.08040	         1.10304e+58
          1197.88670	         1.33996e+58
          1198.69300	         1.38721e+58
          1199.49930	         1.51190e+58
          1200.30560	         9.54694e+57
          1201.11190	         9.80113e+57
          1201.91820	         1.02488e+58
          1202.72450	         7.93853e+57
          1203.53080	         1.42464e+58
          1204.33710	         8.83737e+57
          1205.14340	         4.37013e+57
          1205.94970	         7.78401e+57
          1206.75600	         7.82649e+57
          1207.56230	         2.09610e+57
          1208.36860	         3.67725e+57
          1209.17490	         4.60180e+57
          1209.98120	         6.67682e+57
          1210.78750	         8.12840e+57
          1211.59380	         1.02231e+58
          1212.40010	         1.75923e+58
          1213.20640	         1.71631e+58
          1214.01270	         2.14505e+58
          1214.81900	         2.82108e+58
          1215.62530	         4.63048e+58
          1216.43160	         9.29838e+58
          1217.23790	         1.52278e+59
          1218.04420	         1.14110e+59
          1218.85050	         8.52436e+58
          1219.65680	         5.72566e+58
          1220.46310	         3.04533e+58
          1221.26940	         2.32741e+58
          1222.07570	         1.77971e+58
          1222.88200	         1.43154e+58
          1223.68830	         1.34515e+58
          1224.49460	         8.64313e+57
          1225.30090	         8.90684e+57
          1226.10720	         7.87253e+57
          1226.91350	         7.05689e+57
          1227.71980	         9.86895e+57
          1228.52610	         1.22748e+58
          1229.33240	         8.75616e+57
          1230.13870	         4.36041e+57
          1230.94500	         5.77702e+57
          1231.75130	         4.49732e+57
          1232.55760	         7.54049e+57
          1233.36390	         9.20152e+57
          1234.17020	         9.23625e+57
          1234.97650	         9.00522e+57
          1235.78280	         8.38663e+57
          1236.58910	         9.24661e+57
          1237.39540	         1.21233e+58
          1238.20170	         9.93281e+57
          1239.00800	         1.09411e+58
          1239.81430	         1.34815e+58
          1240.62060	         1.03037e+58
          1241.42690	         7.67889e+57
          1242.23320	         1.04274e+58
          1243.03950	         9.39210e+57
          1243.84580	         8.84304e+57
          1244.65210	         9.66868e+57
          1245.45840	         8.82822e+57
          1246.26470	         7.89494e+57
          1247.07100	         6.22563e+57
          1247.87730	         7.35616e+57
          1248.68360	         3.89089e+57
          1249.48990	         4.55775e+57
          1250.29620	         8.89125e+57
          1251.10250	         8.10473e+57
          1251.90880	         3.71533e+57
          1252.71510	         6.07360e+57
          1253.52140	         7.64652e+57
          1254.32770	         8.92076e+57
          1255.13400	         1.41180e+58
          1255.94030	         1.33849e+58
          1256.74660	         1.05302e+58
          1257.55290	         1.16696e+58
          1258.35920	         8.94932e+57
          1259.16550	         5.63382e+57
          1259.97180	         5.48423e+57
          1260.77810	         8.16654e+57
          1261.58440	         1.13181e+58
          1262.39070	         8.12489e+57
          1263.19700	         8.58657e+57
          1264.00330	         8.58419e+57
          1264.80960	         9.48304e+57
          1265.61590	         1.23098e+58
          1266.42220	         1.20377e+58
          1267.22850	         1.14435e+58
          1268.03480	         1.34107e+58
          1268.84110	         1.33535e+58
          1269.64740	         1.30653e+58
          1270.45370	         1.36938e+58
          1271.26000	         1.36244e+58
          1272.06630	         1.43674e+58
          1272.87260	         1.30843e+58
          1273.67890	         1.20633e+58
          1274.48520	         1.10656e+58
          1275.29150	         1.18814e+58
          1276.09780	         1.31217e+58
          1276.90410	         1.63756e+58
          1277.71040	         1.30437e+58
          1278.51670	         1.21488e+58
          1279.32300	         1.39976e+58
          1280.12930	         1.30109e+58
          1280.93560	         1.22577e+58
          1281.74190	         1.15062e+58
          1282.54820	         1.21281e+58
          1283.35450	         1.14261e+58
          1284.16080	         1.03362e+58
          1284.96710	         1.20726e+58
          1285.77340	         1.19796e+58
          1286.57970	         1.09927e+58
          1287.38600	         1.23990e+58
          1288.19230	         1.49975e+58
          1288.99860	         1.44470e+58
          1289.80490	         1.04867e+58
          1290.61120	         1.24274e+58
          1291.41750	         1.46042e+58
          1292.22380	         1.37540e+58
          1293.03010	         1.16325e+58
          1293.83640	         1.24267e+58
          1294.64270	         8.95129e+57
          1295.44900	         6.07076e+57
          1296.25530	         6.90200e+57
          1297.06160	         8.33519e+57
          1297.86790	         8.71141e+57
          1298.67420	         8.35804e+57
          1299.48050	         9.47992e+57
          1300.28680	         1.16681e+58
          1301.09310	         8.66738e+57
          1301.89940	         4.04879e+57
          1302.70570	         6.12019e+57
          1303.51200	         8.28627e+57
          1304.31830	         1.03086e+58
          1305.12460	         1.13352e+58
          1305.93090	         1.14148e+58
          1306.73720	         1.29641e+58
          1307.54350	         1.36688e+58
          1308.34980	         1.37392e+58
          1309.15610	         1.63454e+58
          1309.96240	         1.71033e+58
          1310.76870	         1.57531e+58
          1311.57500	         1.26865e+58
          1312.38130	         1.10950e+58
          1313.18760	         1.19320e+58
          1313.99390	         1.55723e+58
          1314.80020	         1.77206e+58
          1315.60650	         1.66726e+58
          1316.41280	         1.31667e+58
          1317.21910	         1.16878e+58
          1318.02540	         1.20920e+58
          1318.83170	         1.29291e+58
          1319.63800	         1.26246e+58
          1320.44430	         1.18915e+58
          1321.25060	         1.26132e+58
          1322.05690	         1.28092e+58
          1322.86320	         1.23309e+58
          1323.66950	         1.01119e+58
          1324.47580	         9.54540e+57
          1325.28210	         9.64542e+57
          1326.08840	         1.11981e+58
          1326.89470	         1.19216e+58
          1327.70100	         1.06308e+58
          1328.50730	         1.02984e+58
          1329.31360	         1.11693e+58
          1330.11990	         1.04881e+58
          1330.92620	         9.07595e+57
          1331.73250	         1.03275e+58
          1332.53880	         9.65998e+57
          1333.34510	         8.40857e+57
          1334.15140	         8.38782e+57
          1334.95770	         9.16308e+57
          1335.76400	         9.77084e+57
          1336.57030	         1.12532e+58
          1337.37660	         1.07838e+58
          1338.18290	         1.14050e+58
          1338.98920	         1.11627e+58
          1339.79550	         1.21736e+58
          1340.60180	         1.28456e+58
          1341.40810	         1.49149e+58
          1342.21440	         1.25521e+58
          1343.02070	         1.15975e+58
          1343.82700	         1.08562e+58
          1344.63330	         1.07588e+58
          1345.43960	         1.31205e+58
          1346.24590	         1.14280e+58
          1347.05220	         1.15677e+58
          1347.85850	         1.02262e+58
          1348.66480	         1.13611e+58
          1349.47110	         1.31522e+58
          1350.27740	         1.33396e+58
          1351.08370	         1.13391e+58
          1351.89000	         1.18914e+58
          1352.69630	         1.22474e+58
          1353.50260	         1.14571e+58
          1354.30890	         1.15179e+58
          1355.11520	         1.20908e+58
          1355.92150	         1.19273e+58
          1356.72780	         1.00316e+58
          1357.53410	         1.07549e+58
          1358.34040	         1.27092e+58
          1359.14670	         1.20738e+58
          1359.95300	         1.16878e+58
          1360.75930	         1.14296e+58
          1361.56560	         1.08960e+58
          1362.37190	         1.17939e+58
          1363.17820	         1.25106e+58
          1363.98450	         1.36732e+58
          1364.79080	         1.35482e+58
          1365.59710	         1.29865e+58
          1366.40340	         1.08224e+58
          1367.20970	         9.18391e+57
          1368.01600	         1.09278e+58
          1368.82230	         1.01767e+58
          1369.62860	         1.10402e+58
          1370.43490	         9.16112e+57
          1371.24120	         8.28458e+57
          1372.04750	         8.81037e+57
          1372.85380	         1.11668e+58
          1373.66010	         1.14963e+58
          1374.46640	         1.01939e+58
          1375.27270	         1.09975e+58
          1376.07900	         1.00968e+58
          1376.88530	         9.46867e+57
          1377.69160	         9.15456e+57
          1378.49790	         7.76316e+57
          1379.30420	         8.18471e+57
          1380.11050	         8.76917e+57
          1380.91680	         7.73254e+57
          1381.72310	         7.22441e+57
          1382.52940	         8.03334e+57
          1383.33570	         9.17932e+57
          1384.14200	         1.08741e+58
          1384.94830	         1.13302e+58
          1385.75460	         1.08815e+58
          1386.56090	         1.12935e+58
          1387.36720	         1.25671e+58
          1388.17350	         1.34326e+58
          1388.97980	         1.12704e+58
          1389.78610	         8.93184e+57
          1390.59240	         7.00731e+57
          1391.39870	         6.86765e+57
          1392.20500	         7.76180e+57
          1393.01130	         7.97146e+57
          1393.81760	         7.75857e+57
          1394.62390	         8.22296e+57
          1395.43020	         7.86718e+57
          1396.23650	         6.21103e+57
          1397.04280	         6.63900e+57
          1397.84910	         8.91408e+57
          1398.65540	         8.84226e+57
          1399.46170	         8.41336e+57
          1400.26800	         8.30427e+57
          1401.07430	         8.31961e+57
          1401.88060	         8.98408e+57
          1402.68690	         9.88481e+57
          1403.49320	         9.97971e+57
          1404.29950	         9.72743e+57
          1405.10580	         9.92581e+57
          1405.91210	         1.14589e+58
          1406.71840	         1.07311e+58
          1407.52470	         1.01702e+58
          1408.33100	         1.05383e+58
          1409.13730	         1.14978e+58
          1409.94360	         1.13923e+58
          1410.74990	         1.07986e+58
          1411.55620	         1.09324e+58
          1412.36250	         1.03679e+58
          1413.16880	         9.41092e+57
          1413.97510	         7.66541e+57
          1414.78140	         7.86153e+57
          1415.58770	         1.03864e+58
          1416.39400	         1.13548e+58
          1417.20030	         1.08991e+58
          1418.00660	         1.05679e+58
          1418.81290	         1.30993e+58
          1419.61920	         1.27108e+58
          1420.42550	         1.27388e+58
          1421.23180	         1.33474e+58
          1422.03810	         1.11518e+58
          1422.84440	         1.04381e+58
          1423.65070	         1.20217e+58
          1424.45700	         1.11531e+58
          1425.26330	         8.50334e+57
          1426.06960	         7.78077e+57
          1426.87590	         1.04792e+58
          1427.68220	         1.01678e+58
          1428.48850	         9.73584e+57
          1429.29480	         1.07858e+58
          1430.10110	         1.11955e+58
          1430.90740	         9.28063e+57
          1431.71370	         8.40992e+57
          1432.52000	         8.64206e+57
          1433.32630	         6.97081e+57
          1434.13260	         6.95020e+57
          1434.93890	         7.96801e+57
          1435.74520	         9.04022e+57
          1436.55150	         9.74015e+57
          1437.35780	         9.14342e+57
          1438.16410	         9.49500e+57
          1438.97040	         9.33620e+57
          1439.77670	         8.27415e+57
          1440.58300	         7.97406e+57
          1441.38930	         9.59737e+57
          1442.19560	         1.05707e+58
          1443.00190	         8.87690e+57
          1443.80820	         1.04036e+58
          1444.61450	         9.59909e+57
          1445.42080	         8.28280e+57
          1446.22710	         1.14154e+58
          1447.03340	         1.05055e+58
          1447.83970	         1.05769e+58
          1448.64600	         1.10274e+58
          1449.45230	         9.98347e+57
          1450.25860	         9.98202e+57
          1451.06490	         9.03399e+57
          1451.87120	         8.18586e+57
          1452.67750	         7.33330e+57
          1453.48380	         7.68353e+57
          1454.29010	         7.83611e+57
          1455.09640	         7.48544e+57
          1455.90270	         8.67786e+57
          1456.70900	         8.46713e+57
          1457.51530	         9.34265e+57
          1458.32160	         1.14006e+58
          1459.12790	         1.21503e+58
          1459.93420	         1.02329e+58
          1460.74050	         8.43667e+57
          1461.54680	         9.08724e+57
          1462.35310	         8.66328e+57
          1463.15940	         1.01452e+58
          1463.96570	         1.07874e+58
          1464.77200	         1.17232e+58
          1465.57830	         1.07329e+58
          1466.38460	         8.93892e+57
          1467.19090	         8.52296e+57
          1467.99720	         9.23966e+57
          1468.80350	         9.10345e+57
          1469.60980	         9.35642e+57
          1470.41610	         1.09783e+58
          1471.22240	         9.78632e+57
          1472.02870	         9.47489e+57
          1472.83500	         9.81133e+57
          1473.64130	         1.00526e+58
          1474.44760	         9.40627e+57
          1475.25390	         8.70295e+57
          1476.06020	         8.97691e+57
          1476.86650	         8.69493e+57
          1477.67280	         8.77795e+57
          1478.47910	         7.33565e+57
          1479.28540	         7.10603e+57
          1480.09170	         8.81207e+57
          1480.89800	         8.63077e+57
          1481.70430	         8.63083e+57
          1482.51060	         8.36648e+57
          1483.31690	         8.13411e+57
          1484.12320	         7.86559e+57
          1484.92950	         7.16573e+57
          1485.73580	         8.15628e+57
          1486.54210	         9.07311e+57
          1487.34840	         8.29026e+57
          1488.15470	         8.26438e+57
          1488.96100	         8.57994e+57
          1489.76730	         9.18660e+57
