#sample_44_stacked_spectrum_rest_UV-bands_median_H-alpha_noDC.txt
#median Lum: 1.69093e+42
#Rest-frame wavelength (A) | Luminosity (erg/s/A)
#
          1110.00000	         0.00000e+00
          1110.80630	         2.07107e+59
          1111.61260	         2.13546e+59
          1112.41890	         2.69810e+58
          1113.22520	         7.77788e+57
          1114.03150	         1.60365e+59
          1114.83780	         2.66301e+59
          1115.64410	         3.13081e+59
          1116.45040	        -2.92014e+57
          1117.25670	         1.52591e+59
          1118.06300	        -3.17320e+58
          1118.86930	        -5.31406e+58
          1119.67560	         1.50833e+58
          1120.48190	        -2.27154e+58
          1121.28820	        -1.26647e+59
          1122.09450	        -9.18439e+57
          1122.90080	        -1.33058e+57
          1123.70710	         8.15074e+58
          1124.51340	         8.78309e+58
          1125.31970	         3.43116e+58
          1126.12600	         4.64030e+58
          1126.93230	        -2.82563e+58
          1127.73860	        -1.15393e+59
          1128.54490	        -3.20000e+58
          1129.35120	        -1.58690e+58
          1130.15750	        -4.51624e+58
          1130.96380	        -2.67307e+58
          1131.77010	         2.11128e+58
          1132.57640	         2.57542e+58
          1133.38270	         3.19063e+58
          1134.18900	         1.96687e+58
          1134.99530	        -5.44200e+57
          1135.80160	         2.52867e+58
          1136.60790	         1.74532e+58
          1137.41420	        -2.74766e+58
          1138.22050	         3.15278e+58
          1139.02680	         2.71128e+58
          1139.83310	         1.37531e+58
          1140.63940	         5.87873e+57
          1141.44570	        -2.89195e+58
          1142.25200	        -3.82078e+57
          1143.05830	         2.14179e+58
          1143.86460	         2.77356e+58
          1144.67090	         3.53335e+58
          1145.47720	         5.52012e+57
          1146.28350	        -9.49544e+57
          1147.08980	         5.13092e+57
          1147.89610	         1.63276e+58
          1148.70240	         1.98961e+58
          1149.50870	         2.42209e+58
          1150.31500	         1.75433e+58
          1151.12130	         9.62381e+57
          1151.92760	         1.65518e+57
          1152.73390	         5.57063e+57
          1153.54020	         6.41995e+57
          1154.34650	         2.45504e+58
          1155.15280	         2.45542e+58
          1155.95910	        -1.17633e+57
          1156.76540	         1.10841e+57
          1157.57170	         5.93019e+57
          1158.37800	        -6.99014e+57
          1159.18430	        -3.78687e+57
          1159.99060	         6.81647e+57
          1160.79690	         1.26329e+57
          1161.60320	         9.21422e+57
          1162.40950	         1.06185e+58
          1163.21580	         1.22790e+58
          1164.02210	         1.36879e+57
          1164.82840	         1.17287e+58
          1165.63470	         1.80792e+58
          1166.44100	         3.02711e+58
          1167.24730	         2.22129e+58
          1168.05360	         9.39518e+57
          1168.85990	         9.90960e+57
          1169.66620	         1.16351e+58
          1170.47250	         2.01842e+58
          1171.27880	         7.64207e+57
          1172.08510	         6.00610e+57
          1172.89140	         4.03422e+57
          1173.69770	         1.51747e+56
          1174.50400	         2.60756e+57
          1175.31030	         1.15282e+58
          1176.11660	         1.44641e+58
          1176.92290	         1.53116e+58
          1177.72920	         1.00187e+58
          1178.53550	         8.52161e+57
          1179.34180	         3.94526e+57
          1180.14810	         3.97155e+57
          1180.95440	         7.28681e+57
          1181.76070	         8.19478e+57
          1182.56700	         7.32247e+57
          1183.37330	         5.17907e+57
          1184.17960	         1.44191e+58
          1184.98590	         1.28566e+58
          1185.79220	         9.59037e+57
          1186.59850	         1.10827e+58
          1187.40480	         1.34219e+58
          1188.21110	         9.80325e+57
          1189.01740	         1.32726e+58
          1189.82370	         1.75640e+58
          1190.63000	         1.42059e+58
          1191.43630	         1.39561e+58
          1192.24260	         7.32974e+57
          1193.04890	         1.02474e+58
          1193.85520	         9.22480e+57
          1194.66150	         3.57785e+57
          1195.46780	         1.26289e+58
          1196.27410	         1.44237e+58
          1197.08040	         8.94339e+57
          1197.88670	         9.99916e+57
          1198.69300	         1.23549e+58
          1199.49930	         1.38326e+58
          1200.30560	         1.17327e+58
          1201.11190	         1.20825e+58
          1201.91820	         1.19214e+58
          1202.72450	         1.22629e+58
          1203.53080	         1.35076e+58
          1204.33710	         1.05872e+58
          1205.14340	         7.36992e+57
          1205.94970	         6.78694e+57
          1206.75600	         6.42023e+57
          1207.56230	         6.77659e+57
          1208.36860	         6.74963e+57
          1209.17490	         5.71432e+57
          1209.98120	         8.17697e+57
          1210.78750	         1.21049e+58
          1211.59380	         1.30586e+58
          1212.40010	         1.71457e+58
          1213.20640	         1.93641e+58
          1214.01270	         2.05309e+58
          1214.81900	         2.58022e+58
          1215.62530	         4.25671e+58
          1216.43160	         8.74565e+58
          1217.23790	         1.51730e+59
          1218.04420	         1.14786e+59
          1218.85050	         8.69233e+58
          1219.65680	         5.85365e+58
          1220.46310	         3.70887e+58
          1221.26940	         2.14235e+58
          1222.07570	         1.52681e+58
          1222.88200	         1.29162e+58
          1223.68830	         6.97671e+57
          1224.49460	         8.73343e+57
          1225.30090	         8.90727e+57
          1226.10720	         6.89534e+57
          1226.91350	         7.11239e+57
          1227.71980	         5.81743e+57
          1228.52610	         1.02053e+58
          1229.33240	         9.03549e+57
          1230.13870	         6.54957e+57
          1230.94500	         7.62923e+57
          1231.75130	         8.67824e+57
          1232.55760	         1.25273e+58
          1233.36390	         8.64467e+57
          1234.17020	         1.02231e+58
          1234.97650	         1.02261e+58
          1235.78280	         1.06019e+58
          1236.58910	         9.91087e+57
          1237.39540	         9.60420e+57
          1238.20170	         8.62629e+57
          1239.00800	         1.24524e+58
          1239.81430	         1.50771e+58
          1240.62060	         1.21436e+58
          1241.42690	         1.16870e+58
          1242.23320	         1.12898e+58
          1243.03950	         8.07522e+57
          1243.84580	         8.44508e+57
          1244.65210	         1.06449e+58
          1245.45840	         1.00765e+58
          1246.26470	         8.69455e+57
          1247.07100	         5.81583e+57
          1247.87730	         7.95885e+57
          1248.68360	         3.47113e+57
          1249.48990	         7.50441e+57
          1250.29620	         8.82475e+57
          1251.10250	         7.13361e+57
          1251.90880	         5.60190e+57
          1252.71510	         6.29270e+57
          1253.52140	         6.86218e+57
          1254.32770	         8.56759e+57
          1255.13400	         1.21850e+58
          1255.94030	         1.15902e+58
          1256.74660	         9.90299e+57
          1257.55290	         9.54814e+57
          1258.35920	         9.68873e+57
          1259.16550	         8.07006e+57
          1259.97180	         5.19032e+57
          1260.77810	         6.53469e+57
          1261.58440	         1.24417e+58
          1262.39070	         8.65901e+57
          1263.19700	         7.37937e+57
          1264.00330	         9.01197e+57
          1264.80960	         1.06912e+58
          1265.61590	         1.33278e+58
          1266.42220	         1.28040e+58
          1267.22850	         1.18054e+58
          1268.03480	         1.32222e+58
          1268.84110	         1.47077e+58
          1269.64740	         1.39813e+58
          1270.45370	         1.31735e+58
          1271.26000	         1.39809e+58
          1272.06630	         1.59280e+58
          1272.87260	         1.44304e+58
          1273.67890	         1.22724e+58
          1274.48520	         1.09297e+58
          1275.29150	         1.04347e+58
          1276.09780	         1.25810e+58
          1276.90410	         1.50406e+58
          1277.71040	         1.01959e+58
          1278.51670	         1.09584e+58
          1279.32300	         1.33730e+58
          1280.12930	         1.30039e+58
          1280.93560	         1.27335e+58
          1281.74190	         1.42101e+58
          1282.54820	         1.35425e+58
          1283.35450	         9.58572e+57
          1284.16080	         9.20751e+57
          1284.96710	         1.39054e+58
          1285.77340	         1.31899e+58
          1286.57970	         1.20606e+58
          1287.38600	         1.57583e+58
          1288.19230	         1.66554e+58
          1288.99860	         1.43698e+58
          1289.80490	         1.41919e+58
          1290.61120	         1.52879e+58
          1291.41750	         1.41020e+58
          1292.22380	         1.13449e+58
          1293.03010	         9.86533e+57
          1293.83640	         1.06213e+58
          1294.64270	         9.04300e+57
          1295.44900	         5.17829e+57
          1296.25530	         6.59782e+57
          1297.06160	         8.90592e+57
          1297.86790	         7.52451e+57
          1298.67420	         7.94315e+57
          1299.48050	         8.77802e+57
          1300.28680	         9.68826e+57
          1301.09310	         9.20472e+57
          1301.89940	         4.11760e+57
          1302.70570	         5.64424e+57
          1303.51200	         7.84830e+57
          1304.31830	         9.18122e+57
          1305.12460	         1.07955e+58
          1305.93090	         1.15105e+58
          1306.73720	         1.28472e+58
          1307.54350	         1.35313e+58
          1308.34980	         1.54156e+58
          1309.15610	         1.53617e+58
          1309.96240	         1.59464e+58
          1310.76870	         1.37743e+58
          1311.57500	         1.21240e+58
          1312.38130	         1.21446e+58
          1313.18760	         1.28947e+58
          1313.99390	         1.57721e+58
          1314.80020	         1.72324e+58
          1315.60650	         1.74021e+58
          1316.41280	         1.28035e+58
          1317.21910	         1.05874e+58
          1318.02540	         1.31082e+58
          1318.83170	         1.31776e+58
          1319.63800	         1.23244e+58
          1320.44430	         1.11079e+58
          1321.25060	         1.32268e+58
          1322.05690	         1.37304e+58
          1322.86320	         1.11757e+58
          1323.66950	         1.13101e+58
          1324.47580	         9.82528e+57
          1325.28210	         9.57056e+57
          1326.08840	         1.11093e+58
          1326.89470	         1.36188e+58
          1327.70100	         1.15287e+58
          1328.50730	         8.90934e+57
          1329.31360	         1.07948e+58
          1330.11990	         1.08053e+58
          1330.92620	         9.62546e+57
          1331.73250	         1.17565e+58
          1332.53880	         1.04661e+58
          1333.34510	         9.38433e+57
          1334.15140	         9.35528e+57
          1334.95770	         9.18811e+57
          1335.76400	         9.86981e+57
          1336.57030	         1.08867e+58
          1337.37660	         8.89168e+57
          1338.18290	         9.79595e+57
          1338.98920	         1.13640e+58
          1339.79550	         9.82749e+57
          1340.60180	         1.19211e+58
          1341.40810	         1.44912e+58
          1342.21440	         1.30028e+58
          1343.02070	         1.35908e+58
          1343.82700	         1.42577e+58
          1344.63330	         1.18192e+58
          1345.43960	         1.12241e+58
          1346.24590	         1.11686e+58
          1347.05220	         1.36157e+58
          1347.85850	         1.23613e+58
          1348.66480	         1.20691e+58
          1349.47110	         1.27985e+58
          1350.27740	         1.18041e+58
          1351.08370	         1.08885e+58
          1351.89000	         1.10896e+58
          1352.69630	         1.22612e+58
          1353.50260	         1.23385e+58
          1354.30890	         1.15808e+58
          1355.11520	         1.27690e+58
          1355.92150	         1.14871e+58
          1356.72780	         1.03597e+58
          1357.53410	         1.11142e+58
          1358.34040	         1.12006e+58
          1359.14670	         1.16006e+58
          1359.95300	         1.13986e+58
          1360.75930	         1.02484e+58
          1361.56560	         9.71860e+57
          1362.37190	         1.08852e+58
          1363.17820	         1.08731e+58
          1363.98450	         1.13548e+58
          1364.79080	         1.22601e+58
          1365.59710	         1.37252e+58
          1366.40340	         1.18778e+58
          1367.20970	         1.07158e+58
          1368.01600	         1.13770e+58
          1368.82230	         1.00134e+58
          1369.62860	         9.74514e+57
          1370.43490	         9.34790e+57
          1371.24120	         9.26392e+57
          1372.04750	         9.78766e+57
          1372.85380	         1.15851e+58
          1373.66010	         1.04872e+58
          1374.46640	         1.04263e+58
          1375.27270	         1.13193e+58
          1376.07900	         9.77071e+57
          1376.88530	         8.88410e+57
          1377.69160	         8.29358e+57
          1378.49790	         7.06877e+57
          1379.30420	         6.92977e+57
          1380.11050	         9.19464e+57
          1380.91680	         9.38755e+57
          1381.72310	         8.92238e+57
          1382.52940	         7.16704e+57
          1383.33570	         7.18551e+57
          1384.14200	         9.79727e+57
          1384.94830	         1.12113e+58
          1385.75460	         1.06712e+58
          1386.56090	         1.13753e+58
          1387.36720	         1.11550e+58
          1388.17350	         1.24883e+58
          1388.97980	         1.15109e+58
          1389.78610	         1.00534e+58
          1390.59240	         8.38623e+57
          1391.39870	         7.35582e+57
          1392.20500	         7.06470e+57
          1393.01130	         6.44844e+57
          1393.81760	         7.33504e+57
          1394.62390	         7.60463e+57
          1395.43020	         6.74534e+57
          1396.23650	         7.49651e+57
          1397.04280	         6.39215e+57
          1397.84910	         8.21705e+57
          1398.65540	         9.01010e+57
          1399.46170	         8.88195e+57
          1400.26800	         7.79582e+57
          1401.07430	         7.88334e+57
          1401.88060	         8.12372e+57
          1402.68690	         8.67135e+57
          1403.49320	         9.46873e+57
          1404.29950	         9.33023e+57
          1405.10580	         1.14656e+58
          1405.91210	         1.22468e+58
          1406.71840	         1.10529e+58
          1407.52470	         1.05185e+58
          1408.33100	         9.08232e+57
          1409.13730	         1.14829e+58
          1409.94360	         1.17705e+58
          1410.74990	         1.07409e+58
          1411.55620	         1.01553e+58
          1412.36250	         9.51615e+57
          1413.16880	         9.06451e+57
          1413.97510	         6.80111e+57
          1414.78140	         7.32607e+57
          1415.58770	         1.12028e+58
          1416.39400	         1.23278e+58
          1417.20030	         9.75236e+57
          1418.00660	         8.89167e+57
          1418.81290	         1.17095e+58
          1419.61920	         1.02484e+58
          1420.42550	         1.07131e+58
          1421.23180	         1.40400e+58
          1422.03810	         1.21335e+58
          1422.84440	         1.04114e+58
          1423.65070	         1.26799e+58
          1424.45700	         1.01991e+58
          1425.26330	         6.97133e+57
          1426.06960	         8.39556e+57
          1426.87590	         9.72785e+57
          1427.68220	         9.74734e+57
          1428.48850	         1.02212e+58
          1429.29480	         1.06155e+58
          1430.10110	         1.08445e+58
          1430.90740	         9.29025e+57
          1431.71370	         8.17159e+57
          1432.52000	         8.34163e+57
          1433.32630	         7.44494e+57
          1434.13260	         7.82642e+57
          1434.93890	         9.18137e+57
          1435.74520	         9.61930e+57
          1436.55150	         1.00428e+58
          1437.35780	         9.08400e+57
          1438.16410	         9.59650e+57
          1438.97040	         1.00279e+58
          1439.77670	         8.74643e+57
          1440.58300	         8.92591e+57
          1441.38930	         9.68627e+57
          1442.19560	         9.85018e+57
          1443.00190	         9.51120e+57
          1443.80820	         1.01544e+58
          1444.61450	         9.22627e+57
          1445.42080	         9.41242e+57
          1446.22710	         1.05868e+58
          1447.03340	         1.00977e+58
          1447.83970	         1.01081e+58
          1448.64600	         9.86893e+57
          1449.45230	         1.06183e+58
          1450.25860	         1.07712e+58
          1451.06490	         8.36345e+57
          1451.87120	         6.86362e+57
          1452.67750	         6.53364e+57
          1453.48380	         7.99962e+57
          1454.29010	         8.65801e+57
          1455.09640	         8.23628e+57
          1455.90270	         9.49676e+57
          1456.70900	         9.53662e+57
          1457.51530	         1.03914e+58
          1458.32160	         1.25251e+58
          1459.12790	         1.30538e+58
          1459.93420	         1.10363e+58
          1460.74050	         8.01883e+57
          1461.54680	         7.90544e+57
          1462.35310	         7.98598e+57
          1463.15940	         8.79756e+57
          1463.96570	         1.09560e+58
          1464.77200	         1.15090e+58
          1465.57830	         1.06581e+58
          1466.38460	         9.72784e+57
          1467.19090	         9.10783e+57
          1467.99720	         8.35501e+57
          1468.80350	         8.65961e+57
          1469.60980	         1.04465e+58
          1470.41610	         1.11732e+58
          1471.22240	         8.54788e+57
          1472.02870	         9.40645e+57
          1472.83500	         1.10247e+58
          1473.64130	         1.07369e+58
          1474.44760	         1.00470e+58
          1475.25390	         9.38045e+57
          1476.06020	         8.33410e+57
          1476.86650	         9.18009e+57
          1477.67280	         8.83763e+57
          1478.47910	         7.20480e+57
          1479.28540	         7.93186e+57
          1480.09170	         9.73107e+57
          1480.89800	         9.02104e+57
          1481.70430	         8.91857e+57
          1482.51060	         8.91557e+57
          1483.31690	         7.75771e+57
          1484.12320	         7.52320e+57
          1484.92950	         7.91212e+57
          1485.73580	         7.77165e+57
          1486.54210	         8.30940e+57
          1487.34840	         9.67097e+57
          1488.15470	         9.20735e+57
          1488.96100	         8.44713e+57
          1489.76730	         8.88636e+57
