#sample_338_stacked_spectrum_rest_UV-bands_median_H-alpha_noDC.txt
#median Lum: 1.68465e+42
#Rest-frame wavelength (A) | Luminosity (erg/s/A)
#
          1110.00000	         0.00000e+00
          1110.80630	        -1.70330e+58
          1111.61260	         9.41186e+57
          1112.41890	        -1.74820e+59
          1113.22520	         4.50571e+58
          1114.03150	        -8.44800e+58
          1114.83780	        -1.07048e+59
          1115.64410	         9.62446e+57
          1116.45040	         1.93150e+59
          1117.25670	         1.00580e+59
          1118.06300	         1.89201e+59
          1118.86930	         5.44880e+57
          1119.67560	         1.43633e+59
          1120.48190	         5.01282e+58
          1121.28820	        -7.47574e+58
          1122.09450	         6.28307e+56
          1122.90080	         3.38052e+58
          1123.70710	         5.77711e+58
          1124.51340	         9.92849e+58
          1125.31970	         2.64890e+58
          1126.12600	         7.72711e+57
          1126.93230	        -8.38143e+57
          1127.73860	        -6.28336e+58
          1128.54490	        -1.27050e+58
          1129.35120	        -2.03128e+58
          1130.15750	        -4.99589e+58
          1130.96380	        -4.58584e+58
          1131.77010	         5.73136e+58
          1132.57640	         6.07684e+58
          1133.38270	         3.43472e+58
          1134.18900	         3.48982e+58
          1134.99530	         6.30608e+57
          1135.80160	        -3.46029e+57
          1136.60790	         1.19056e+58
          1137.41420	        -3.91334e+57
          1138.22050	         3.44182e+58
          1139.02680	         4.09287e+58
          1139.83310	         2.72032e+58
          1140.63940	         1.30125e+58
          1141.44570	        -1.16502e+58
          1142.25200	        -4.05455e+57
          1143.05830	         9.62746e+57
          1143.86460	         5.80187e+57
          1144.67090	         1.62859e+58
          1145.47720	         2.48519e+58
          1146.28350	         1.83895e+58
          1147.08980	         1.06275e+58
          1147.89610	         2.21608e+58
          1148.70240	         2.83092e+58
          1149.50870	         2.27311e+58
          1150.31500	         1.15185e+58
          1151.12130	         1.61338e+58
          1151.92760	        -4.16830e+57
          1152.73390	        -2.53098e+56
          1153.54020	         5.48317e+57
          1154.34650	         2.54009e+58
          1155.15280	         2.40330e+58
          1155.95910	         8.05257e+57
          1156.76540	         1.08645e+58
          1157.57170	         4.87779e+57
          1158.37800	         6.68326e+57
          1159.18430	         1.00213e+57
          1159.99060	        -6.05799e+57
          1160.79690	         5.16966e+57
          1161.60320	         1.17128e+58
          1162.40950	         1.56641e+58
          1163.21580	         3.18204e+57
          1164.02210	         5.04378e+57
          1164.82840	         3.29138e+57
          1165.63470	         2.51396e+58
          1166.44100	         3.34692e+58
          1167.24730	         1.99758e+58
          1168.05360	         8.91991e+57
          1168.85990	         7.20428e+56
          1169.66620	         6.66128e+57
          1170.47250	         1.59681e+58
          1171.27880	         6.93593e+57
          1172.08510	         1.22512e+58
          1172.89140	         1.65935e+58
          1173.69770	        -2.55782e+57
          1174.50400	         1.01592e+58
          1175.31030	         1.74081e+58
          1176.11660	         1.66623e+58
          1176.92290	         1.52535e+58
          1177.72920	         1.40943e+58
          1178.53550	         8.21471e+57
          1179.34180	         5.38186e+57
          1180.14810	         1.21115e+58
          1180.95440	         1.33221e+58
          1181.76070	         9.59629e+57
          1182.56700	         1.01527e+58
          1183.37330	         7.10681e+57
          1184.17960	         1.05976e+58
          1184.98590	         9.32927e+57
          1185.79220	         6.29333e+57
          1186.59850	         8.15956e+57
          1187.40480	         3.95081e+57
          1188.21110	         1.43702e+58
          1189.01740	         1.17964e+58
          1189.82370	         9.66217e+57
          1190.63000	         1.51683e+58
          1191.43630	         1.67669e+58
          1192.24260	         8.53964e+57
          1193.04890	         6.73441e+57
          1193.85520	         6.89947e+57
          1194.66150	         6.20952e+57
          1195.46780	         9.36482e+57
          1196.27410	         1.25505e+58
          1197.08040	         1.29168e+58
          1197.88670	         1.58008e+58
          1198.69300	         1.26511e+58
          1199.49930	         1.87944e+58
          1200.30560	         1.86814e+58
          1201.11190	         1.34140e+58
          1201.91820	         1.31862e+58
          1202.72450	         7.49900e+57
          1203.53080	         8.80251e+57
          1204.33710	         9.75706e+57
          1205.14340	         8.17569e+57
          1205.94970	         1.04933e+58
          1206.75600	         6.46760e+57
          1207.56230	         4.96353e+57
          1208.36860	         1.31000e+58
          1209.17490	         5.96662e+57
          1209.98120	         5.13944e+57
          1210.78750	         7.99592e+57
          1211.59380	         1.05496e+58
          1212.40010	         1.82513e+58
          1213.20640	         2.08935e+58
          1214.01270	         2.06579e+58
          1214.81900	         2.30106e+58
          1215.62530	         4.32632e+58
          1216.43160	         9.39133e+58
          1217.23790	         1.55505e+59
          1218.04420	         1.15213e+59
          1218.85050	         8.48304e+58
          1219.65680	         5.25268e+58
          1220.46310	         3.14336e+58
          1221.26940	         2.32793e+58
          1222.07570	         1.42051e+58
          1222.88200	         1.16410e+58
          1223.68830	         8.26053e+57
          1224.49460	         6.94547e+57
          1225.30090	         7.23067e+57
          1226.10720	         6.18432e+57
          1226.91350	         8.40846e+57
          1227.71980	         1.09805e+58
          1228.52610	         1.06831e+58
          1229.33240	         8.83140e+57
          1230.13870	         1.07596e+58
          1230.94500	         1.10864e+58
          1231.75130	         4.70965e+57
          1232.55760	         5.63319e+57
          1233.36390	         9.17254e+57
          1234.17020	         9.47874e+57
          1234.97650	         7.90182e+57
          1235.78280	         8.19916e+57
          1236.58910	         7.57457e+57
          1237.39540	         8.12285e+57
          1238.20170	         9.88027e+57
          1239.00800	         1.31179e+58
          1239.81430	         1.57617e+58
          1240.62060	         1.30446e+58
          1241.42690	         1.20291e+58
          1242.23320	         1.21250e+58
          1243.03950	         8.16421e+57
          1243.84580	         1.05939e+58
          1244.65210	         1.24624e+58
          1245.45840	         1.08598e+58
          1246.26470	         8.25774e+57
          1247.07100	         6.44926e+57
          1247.87730	         7.55768e+57
          1248.68360	         7.45358e+57
          1249.48990	         8.02971e+57
          1250.29620	         1.16031e+58
          1251.10250	         9.56964e+57
          1251.90880	         6.44020e+57
          1252.71510	         8.45808e+57
          1253.52140	         8.02461e+57
          1254.32770	         1.02333e+58
          1255.13400	         1.46654e+58
          1255.94030	         1.15695e+58
          1256.74660	         9.57941e+57
          1257.55290	         8.53982e+57
          1258.35920	         6.27477e+57
          1259.16550	         6.35439e+57
          1259.97180	         8.13438e+57
          1260.77810	         1.06108e+58
          1261.58440	         1.36287e+58
          1262.39070	         1.09648e+58
          1263.19700	         7.96972e+57
          1264.00330	         8.40443e+57
          1264.80960	         9.61455e+57
          1265.61590	         1.20853e+58
          1266.42220	         1.06949e+58
          1267.22850	         9.53973e+57
          1268.03480	         1.38900e+58
          1268.84110	         1.40107e+58
          1269.64740	         1.22686e+58
          1270.45370	         1.21663e+58
          1271.26000	         1.08458e+58
          1272.06630	         1.22421e+58
          1272.87260	         1.20754e+58
          1273.67890	         1.19144e+58
          1274.48520	         1.18292e+58
          1275.29150	         1.15266e+58
          1276.09780	         1.03161e+58
          1276.90410	         1.40749e+58
          1277.71040	         1.39399e+58
          1278.51670	         1.24981e+58
          1279.32300	         1.24601e+58
          1280.12930	         1.16089e+58
          1280.93560	         1.26707e+58
          1281.74190	         1.24305e+58
          1282.54820	         1.18229e+58
          1283.35450	         9.94151e+57
          1284.16080	         1.03115e+58
          1284.96710	         1.28102e+58
          1285.77340	         1.10590e+58
          1286.57970	         1.00024e+58
          1287.38600	         1.51972e+58
          1288.19230	         1.79150e+58
          1288.99860	         1.54974e+58
          1289.80490	         9.83115e+57
          1290.61120	         1.12162e+58
          1291.41750	         1.30183e+58
          1292.22380	         1.17294e+58
          1293.03010	         1.14751e+58
          1293.83640	         1.15336e+58
          1294.64270	         1.03480e+58
          1295.44900	         7.55379e+57
          1296.25530	         7.67163e+57
          1297.06160	         1.04888e+58
          1297.86790	         1.02106e+58
          1298.67420	         8.50538e+57
          1299.48050	         8.88463e+57
          1300.28680	         1.09264e+58
          1301.09310	         9.14758e+57
          1301.89940	         3.99169e+57
          1302.70570	         5.55355e+57
          1303.51200	         7.04692e+57
          1304.31830	         8.97349e+57
          1305.12460	         1.06485e+58
          1305.93090	         9.86442e+57
          1306.73720	         1.19963e+58
          1307.54350	         1.40012e+58
          1308.34980	         1.47586e+58
          1309.15610	         1.55425e+58
          1309.96240	         1.42222e+58
          1310.76870	         1.15508e+58
          1311.57500	         1.12115e+58
          1312.38130	         8.85197e+57
          1313.18760	         1.12044e+58
          1313.99390	         1.52279e+58
          1314.80020	         1.55918e+58
          1315.60650	         1.53490e+58
          1316.41280	         1.27868e+58
          1317.21910	         1.07519e+58
          1318.02540	         1.03054e+58
          1318.83170	         1.23855e+58
          1319.63800	         1.19673e+58
          1320.44430	         9.62978e+57
          1321.25060	         1.24844e+58
          1322.05690	         1.35477e+58
          1322.86320	         1.14003e+58
          1323.66950	         1.00073e+58
          1324.47580	         8.89875e+57
          1325.28210	         8.91400e+57
          1326.08840	         1.11987e+58
          1326.89470	         1.36119e+58
          1327.70100	         1.04806e+58
          1328.50730	         9.22673e+57
          1329.31360	         9.67741e+57
          1330.11990	         9.29049e+57
          1330.92620	         8.14055e+57
          1331.73250	         1.01540e+58
          1332.53880	         1.07315e+58
          1333.34510	         1.05506e+58
          1334.15140	         1.02199e+58
          1334.95770	         1.01079e+58
          1335.76400	         1.13221e+58
          1336.57030	         1.14550e+58
          1337.37660	         1.04535e+58
          1338.18290	         1.01474e+58
          1338.98920	         1.23528e+58
          1339.79550	         1.12653e+58
          1340.60180	         1.05962e+58
          1341.40810	         1.21048e+58
          1342.21440	         1.16997e+58
          1343.02070	         1.31339e+58
          1343.82700	         1.47635e+58
          1344.63330	         1.22378e+58
          1345.43960	         1.18573e+58
          1346.24590	         1.10757e+58
          1347.05220	         1.06988e+58
          1347.85850	         1.12336e+58
          1348.66480	         1.04762e+58
          1349.47110	         1.08669e+58
          1350.27740	         1.10629e+58
          1351.08370	         1.12028e+58
          1351.89000	         1.15567e+58
          1352.69630	         1.07412e+58
          1353.50260	         1.10861e+58
          1354.30890	         1.23308e+58
          1355.11520	         1.27241e+58
          1355.92150	         1.06558e+58
          1356.72780	         1.02938e+58
          1357.53410	         1.17158e+58
          1358.34040	         1.14563e+58
          1359.14670	         1.07870e+58
          1359.95300	         1.08554e+58
          1360.75930	         1.12876e+58
          1361.56560	         1.10212e+58
          1362.37190	         1.10415e+58
          1363.17820	         1.10575e+58
          1363.98450	         1.21063e+58
          1364.79080	         1.21827e+58
          1365.59710	         1.24307e+58
          1366.40340	         1.18543e+58
          1367.20970	         9.97356e+57
          1368.01600	         9.51102e+57
          1368.82230	         1.04693e+58
          1369.62860	         1.11421e+58
          1370.43490	         9.51218e+57
          1371.24120	         9.05100e+57
          1372.04750	         8.77345e+57
          1372.85380	         1.00519e+58
          1373.66010	         1.09354e+58
          1374.46640	         1.19225e+58
          1375.27270	         1.12803e+58
          1376.07900	         9.65855e+57
          1376.88530	         9.71998e+57
          1377.69160	         1.04554e+58
          1378.49790	         7.68615e+57
          1379.30420	         5.95179e+57
          1380.11050	         8.21591e+57
          1380.91680	         8.84463e+57
          1381.72310	         7.51839e+57
          1382.52940	         8.07469e+57
          1383.33570	         1.06406e+58
          1384.14200	         1.03361e+58
          1384.94830	         9.39625e+57
          1385.75460	         9.99080e+57
          1386.56090	         1.04299e+58
          1387.36720	         9.72290e+57
          1388.17350	         1.21028e+58
          1388.97980	         1.12365e+58
          1389.78610	         9.09721e+57
          1390.59240	         8.62293e+57
          1391.39870	         7.57113e+57
          1392.20500	         8.77901e+57
          1393.01130	         7.34915e+57
          1393.81760	         6.33525e+57
          1394.62390	         7.11396e+57
          1395.43020	         6.82477e+57
          1396.23650	         6.97059e+57
          1397.04280	         6.84337e+57
          1397.84910	         8.33642e+57
          1398.65540	         8.42354e+57
          1399.46170	         9.71436e+57
          1400.26800	         8.18066e+57
          1401.07430	         5.99523e+57
          1401.88060	         7.74619e+57
          1402.68690	         8.41322e+57
          1403.49320	         7.32680e+57
          1404.29950	         8.78447e+57
          1405.10580	         1.03555e+58
          1405.91210	         1.11483e+58
          1406.71840	         1.24382e+58
          1407.52470	         1.18758e+58
          1408.33100	         1.07218e+58
          1409.13730	         1.08307e+58
          1409.94360	         1.23161e+58
          1410.74990	         1.20972e+58
          1411.55620	         1.05875e+58
          1412.36250	         9.51472e+57
          1413.16880	         1.00996e+58
          1413.97510	         9.17225e+57
          1414.78140	         8.40134e+57
          1415.58770	         9.67074e+57
          1416.39400	         9.79651e+57
          1417.20030	         9.41633e+57
          1418.00660	         8.72381e+57
          1418.81290	         8.97018e+57
          1419.61920	         8.65769e+57
          1420.42550	         1.04507e+58
          1421.23180	         1.31528e+58
          1422.03810	         1.19845e+58
          1422.84440	         1.14496e+58
          1423.65070	         1.28204e+58
          1424.45700	         1.05928e+58
          1425.26330	         8.89173e+57
          1426.06960	         8.94427e+57
          1426.87590	         1.07051e+58
          1427.68220	         1.08970e+58
          1428.48850	         1.13007e+58
          1429.29480	         1.10922e+58
          1430.10110	         1.10351e+58
          1430.90740	         8.55430e+57
          1431.71370	         8.96507e+57
          1432.52000	         9.14580e+57
          1433.32630	         8.63193e+57
          1434.13260	         7.36008e+57
          1434.93890	         7.11005e+57
          1435.74520	         9.03459e+57
          1436.55150	         9.29067e+57
          1437.35780	         9.28383e+57
          1438.16410	         9.24827e+57
          1438.97040	         8.57903e+57
          1439.77670	         8.35365e+57
          1440.58300	         8.84478e+57
          1441.38930	         9.02610e+57
          1442.19560	         9.58943e+57
          1443.00190	         1.00540e+58
          1443.80820	         1.04878e+58
          1444.61450	         9.77787e+57
          1445.42080	         8.78497e+57
          1446.22710	         1.08161e+58
          1447.03340	         1.00232e+58
          1447.83970	         9.18828e+57
          1448.64600	         1.03560e+58
          1449.45230	         9.76518e+57
          1450.25860	         9.74886e+57
          1451.06490	         9.52314e+57
          1451.87120	         7.88054e+57
          1452.67750	         7.06507e+57
          1453.48380	         7.64528e+57
          1454.29010	         8.02185e+57
          1455.09640	         7.46806e+57
          1455.90270	         7.63890e+57
          1456.70900	         8.18362e+57
          1457.51530	         9.42957e+57
          1458.32160	         1.06878e+58
          1459.12790	         1.12237e+58
          1459.93420	         1.04021e+58
          1460.74050	         9.28293e+57
          1461.54680	         9.41237e+57
          1462.35310	         8.35890e+57
          1463.15940	         8.75937e+57
          1463.96570	         1.01275e+58
          1464.77200	         1.16050e+58
          1465.57830	         1.15396e+58
          1466.38460	         9.35824e+57
          1467.19090	         8.63670e+57
          1467.99720	         8.81463e+57
          1468.80350	         9.88936e+57
          1469.60980	         1.04861e+58
          1470.41610	         1.02729e+58
          1471.22240	         8.97750e+57
          1472.02870	         9.07370e+57
          1472.83500	         9.58691e+57
          1473.64130	         9.23539e+57
          1474.44760	         9.44191e+57
          1475.25390	         9.86225e+57
          1476.06020	         8.55926e+57
          1476.86650	         8.09332e+57
          1477.67280	         8.13207e+57
          1478.47910	         8.31120e+57
          1479.28540	         7.92437e+57
          1480.09170	         7.36154e+57
          1480.89800	         7.03225e+57
          1481.70430	         8.12688e+57
          1482.51060	         8.21082e+57
          1483.31690	         7.98970e+57
          1484.12320	         8.01347e+57
          1484.92950	         7.12256e+57
          1485.73580	         7.79623e+57
          1486.54210	         8.52468e+57
          1487.34840	         6.95701e+57
          1488.15470	         6.88126e+57
          1488.96100	         8.53934e+57
          1489.76730	         9.71987e+57
