#sample_340_stacked_spectrum_rest_UV-bands_median_H-alpha_noDC.txt
#median Lum: 1.70349e+42
#Rest-frame wavelength (A) | Luminosity (erg/s/A)
#
          1110.00000	         0.00000e+00
          1110.80630	         6.79325e+58
          1111.61260	        -4.38441e+59
          1112.41890	        -1.37067e+59
          1113.22520	        -3.16309e+58
          1114.03150	        -2.95963e+59
          1114.83780	        -1.42620e+59
          1115.64410	         3.09328e+58
          1116.45040	        -5.83807e+58
          1117.25670	        -1.09168e+58
          1118.06300	        -1.24568e+59
          1118.86930	        -1.06263e+59
          1119.67560	         3.61654e+58
          1120.48190	         1.39802e+58
          1121.28820	        -6.38420e+58
          1122.09450	        -2.05966e+58
          1122.90080	        -2.63216e+58
          1123.70710	         3.50867e+58
          1124.51340	         7.87513e+58
          1125.31970	         2.71436e+58
          1126.12600	         6.03467e+58
          1126.93230	        -7.58856e+57
          1127.73860	        -3.23953e+58
          1128.54490	         3.74300e+58
          1129.35120	         4.02688e+58
          1130.15750	        -9.92999e+57
          1130.96380	         1.44689e+58
          1131.77010	         7.64962e+58
          1132.57640	         7.79254e+58
          1133.38270	         5.64896e+58
          1134.18900	         2.95779e+58
          1134.99530	        -2.45194e+57
          1135.80160	         3.51844e+58
          1136.60790	         1.98074e+58
          1137.41420	        -7.12205e+57
          1138.22050	         2.89410e+58
          1139.02680	         4.42049e+58
          1139.83310	         3.03071e+58
          1140.63940	         9.97569e+57
          1141.44570	         7.81152e+56
          1142.25200	         1.74826e+58
          1143.05830	         2.85487e+58
          1143.86460	         3.30836e+58
          1144.67090	         2.85785e+58
          1145.47720	         9.14161e+57
          1146.28350	         1.08366e+58
          1147.08980	         1.19855e+58
          1147.89610	         7.85738e+57
          1148.70240	         1.35776e+58
          1149.50870	         2.27475e+58
          1150.31500	         5.87500e+57
          1151.12130	         2.15568e+56
          1151.92760	        -1.99226e+57
          1152.73390	         4.39697e+57
          1153.54020	         3.87902e+57
          1154.34650	         2.30557e+58
          1155.15280	         3.08516e+58
          1155.95910	         9.28984e+57
          1156.76540	        -1.41155e+57
          1157.57170	        -1.28569e+56
          1158.37800	         4.51876e+57
          1159.18430	        -2.94545e+55
          1159.99060	         7.69212e+57
          1160.79690	         9.00802e+57
          1161.60320	         1.23540e+58
          1162.40950	         2.19775e+58
          1163.21580	         1.60455e+58
          1164.02210	         9.73354e+57
          1164.82840	         4.51064e+57
          1165.63470	         1.51832e+58
          1166.44100	         2.04816e+58
          1167.24730	         1.75155e+58
          1168.05360	         4.72761e+57
          1168.85990	         9.15516e+57
          1169.66620	         7.28156e+57
          1170.47250	         6.23160e+57
          1171.27880	         8.99561e+57
          1172.08510	         1.91104e+58
          1172.89140	         1.42448e+58
          1173.69770	         4.44014e+57
          1174.50400	         1.14178e+58
          1175.31030	         1.86709e+58
          1176.11660	         1.79670e+58
          1176.92290	         1.37812e+58
          1177.72920	         1.15461e+58
          1178.53550	         6.46831e+57
          1179.34180	         4.06668e+57
          1180.14810	         9.25535e+57
          1180.95440	         1.15766e+58
          1181.76070	         4.26939e+57
          1182.56700	         3.70420e+57
          1183.37330	         8.52533e+57
          1184.17960	         1.27255e+58
          1184.98590	         7.76461e+57
          1185.79220	         8.79374e+57
          1186.59850	         1.34299e+58
          1187.40480	         7.51523e+57
          1188.21110	         1.71543e+58
          1189.01740	         7.17625e+57
          1189.82370	         6.70600e+57
          1190.63000	         8.76689e+57
          1191.43630	         1.35043e+58
          1192.24260	         1.13740e+58
          1193.04890	         1.12279e+58
          1193.85520	         1.08955e+58
          1194.66150	         5.00125e+57
          1195.46780	         1.00883e+58
          1196.27410	         1.41498e+58
          1197.08040	         8.44003e+57
          1197.88670	         1.45352e+58
          1198.69300	         2.21837e+58
          1199.49930	         1.51289e+58
          1200.30560	         8.11417e+57
          1201.11190	         6.79764e+57
          1201.91820	         7.88724e+57
          1202.72450	         7.93693e+57
          1203.53080	         1.12530e+58
          1204.33710	         8.66528e+57
          1205.14340	         7.06332e+57
          1205.94970	         6.66644e+57
          1206.75600	         7.74494e+57
          1207.56230	         3.58985e+57
          1208.36860	         9.21279e+57
          1209.17490	         6.08217e+57
          1209.98120	         6.06378e+57
          1210.78750	         7.09393e+57
          1211.59380	         1.31249e+58
          1212.40010	         1.88253e+58
          1213.20640	         1.95496e+58
          1214.01270	         2.19182e+58
          1214.81900	         2.69196e+58
          1215.62530	         4.31871e+58
          1216.43160	         8.92460e+58
          1217.23790	         1.49142e+59
          1218.04420	         1.09201e+59
          1218.85050	         8.31999e+58
          1219.65680	         5.51494e+58
          1220.46310	         3.34008e+58
          1221.26940	         2.28454e+58
          1222.07570	         1.29931e+58
          1222.88200	         1.32984e+58
          1223.68830	         1.18306e+58
          1224.49460	         5.35490e+57
          1225.30090	         4.62432e+57
          1226.10720	         8.48461e+57
          1226.91350	         7.75378e+57
          1227.71980	         9.03430e+57
          1228.52610	         9.76248e+57
          1229.33240	         7.78856e+57
          1230.13870	         1.12179e+58
          1230.94500	         1.10272e+58
          1231.75130	         7.05661e+57
          1232.55760	         7.98009e+57
          1233.36390	         9.11084e+57
          1234.17020	         7.24048e+57
          1234.97650	         7.56553e+57
          1235.78280	         1.04698e+58
          1236.58910	         1.15344e+58
          1237.39540	         1.13025e+58
          1238.20170	         9.83245e+57
          1239.00800	         1.20075e+58
          1239.81430	         1.57059e+58
          1240.62060	         1.15621e+58
          1241.42690	         1.06044e+58
          1242.23320	         1.11648e+58
          1243.03950	         6.44483e+57
          1243.84580	         7.96014e+57
          1244.65210	         1.12945e+58
          1245.45840	         1.00383e+58
          1246.26470	         7.87608e+57
          1247.07100	         5.54248e+57
          1247.87730	         4.41519e+57
          1248.68360	         5.87885e+57
          1249.48990	         7.93789e+57
          1250.29620	         9.58871e+57
          1251.10250	         6.67546e+57
          1251.90880	         5.74682e+57
          1252.71510	         8.00830e+57
          1253.52140	         7.57640e+57
          1254.32770	         1.09113e+58
          1255.13400	         1.42017e+58
          1255.94030	         1.12824e+58
          1256.74660	         1.00709e+58
          1257.55290	         1.16410e+58
          1258.35920	         1.10825e+58
          1259.16550	         7.94353e+57
          1259.97180	         4.88364e+57
          1260.77810	         8.18277e+57
          1261.58440	         1.26284e+58
          1262.39070	         9.32010e+57
          1263.19700	         8.04967e+57
          1264.00330	         1.02381e+58
          1264.80960	         1.12749e+58
          1265.61590	         1.24908e+58
          1266.42220	         1.27981e+58
          1267.22850	         9.08729e+57
          1268.03480	         1.11434e+58
          1268.84110	         1.37315e+58
          1269.64740	         1.33025e+58
          1270.45370	         1.12465e+58
          1271.26000	         1.05158e+58
          1272.06630	         1.09087e+58
          1272.87260	         1.25971e+58
          1273.67890	         1.53064e+58
          1274.48520	         1.46298e+58
          1275.29150	         1.47701e+58
          1276.09780	         1.18724e+58
          1276.90410	         1.24942e+58
          1277.71040	         1.41587e+58
          1278.51670	         1.41413e+58
          1279.32300	         1.42656e+58
          1280.12930	         1.53856e+58
          1280.93560	         1.37887e+58
          1281.74190	         1.39991e+58
          1282.54820	         1.32003e+58
          1283.35450	         1.04886e+58
          1284.16080	         1.33274e+58
          1284.96710	         1.40775e+58
          1285.77340	         1.02767e+58
          1286.57970	         8.93077e+57
          1287.38600	         1.36751e+58
          1288.19230	         1.69048e+58
          1288.99860	         1.40484e+58
          1289.80490	         1.11359e+58
          1290.61120	         1.26453e+58
          1291.41750	         1.46438e+58
          1292.22380	         1.38066e+58
          1293.03010	         1.05317e+58
          1293.83640	         1.05377e+58
          1294.64270	         9.12408e+57
          1295.44900	         6.71021e+57
          1296.25530	         7.92313e+57
          1297.06160	         1.02764e+58
          1297.86790	         1.12946e+58
          1298.67420	         8.71026e+57
          1299.48050	         8.37445e+57
          1300.28680	         9.66698e+57
          1301.09310	         7.09718e+57
          1301.89940	         4.14340e+57
          1302.70570	         5.99652e+57
          1303.51200	         7.53229e+57
          1304.31830	         1.06755e+58
          1305.12460	         1.18130e+58
          1305.93090	         1.09147e+58
          1306.73720	         1.14312e+58
          1307.54350	         1.34036e+58
          1308.34980	         1.42576e+58
          1309.15610	         1.50315e+58
          1309.96240	         1.49105e+58
          1310.76870	         1.27892e+58
          1311.57500	         9.52964e+57
          1312.38130	         8.71262e+57
          1313.18760	         1.36632e+58
          1313.99390	         1.84138e+58
          1314.80020	         1.75552e+58
          1315.60650	         1.51335e+58
          1316.41280	         1.29038e+58
          1317.21910	         1.16426e+58
          1318.02540	         9.91900e+57
          1318.83170	         1.22527e+58
          1319.63800	         1.26642e+58
          1320.44430	         1.04597e+58
          1321.25060	         1.18458e+58
          1322.05690	         1.27610e+58
          1322.86320	         1.22134e+58
          1323.66950	         1.08260e+58
          1324.47580	         9.10624e+57
          1325.28210	         9.93226e+57
          1326.08840	         1.20741e+58
          1326.89470	         1.39242e+58
          1327.70100	         1.06955e+58
          1328.50730	         8.18319e+57
          1329.31360	         9.27835e+57
          1330.11990	         1.02590e+58
          1330.92620	         1.05209e+58
          1331.73250	         1.04434e+58
          1332.53880	         9.41298e+57
          1333.34510	         8.95425e+57
          1334.15140	         8.04768e+57
          1334.95770	         8.57390e+57
          1335.76400	         1.05690e+58
          1336.57030	         1.08689e+58
          1337.37660	         9.84561e+57
          1338.18290	         1.13281e+58
          1338.98920	         1.13056e+58
          1339.79550	         1.16650e+58
          1340.60180	         1.28882e+58
          1341.40810	         1.30946e+58
          1342.21440	         1.22955e+58
          1343.02070	         1.15789e+58
          1343.82700	         1.22141e+58
          1344.63330	         1.19669e+58
          1345.43960	         1.15528e+58
          1346.24590	         1.06377e+58
          1347.05220	         1.14486e+58
          1347.85850	         9.97897e+57
          1348.66480	         1.25880e+58
          1349.47110	         1.36438e+58
          1350.27740	         1.29380e+58
          1351.08370	         1.19239e+58
          1351.89000	         1.00512e+58
          1352.69630	         1.15218e+58
          1353.50260	         1.20690e+58
          1354.30890	         1.25584e+58
          1355.11520	         1.31810e+58
          1355.92150	         1.01622e+58
          1356.72780	         9.30527e+57
          1357.53410	         1.01509e+58
          1358.34040	         1.23090e+58
          1359.14670	         1.12552e+58
          1359.95300	         1.03990e+58
          1360.75930	         1.06642e+58
          1361.56560	         9.93329e+57
          1362.37190	         1.15111e+58
          1363.17820	         1.18240e+58
          1363.98450	         1.10217e+58
          1364.79080	         1.23151e+58
          1365.59710	         1.37176e+58
          1366.40340	         1.22504e+58
          1367.20970	         1.01893e+58
          1368.01600	         1.06571e+58
          1368.82230	         9.80469e+57
          1369.62860	         1.02008e+58
          1370.43490	         8.75633e+57
          1371.24120	         8.73026e+57
          1372.04750	         9.71459e+57
          1372.85380	         1.04171e+58
          1373.66010	         9.90556e+57
          1374.46640	         1.02441e+58
          1375.27270	         1.04081e+58
          1376.07900	         9.04708e+57
          1376.88530	         9.38875e+57
          1377.69160	         7.73709e+57
          1378.49790	         6.39722e+57
          1379.30420	         7.97568e+57
          1380.11050	         8.55827e+57
          1380.91680	         8.40176e+57
          1381.72310	         7.88988e+57
          1382.52940	         6.57016e+57
          1383.33570	         6.86964e+57
          1384.14200	         8.84772e+57
          1384.94830	         1.06046e+58
          1385.75460	         1.16257e+58
          1386.56090	         1.07840e+58
          1387.36720	         1.00832e+58
          1388.17350	         1.10539e+58
          1388.97980	         1.06921e+58
          1389.78610	         8.99178e+57
          1390.59240	         7.44621e+57
          1391.39870	         6.70751e+57
          1392.20500	         8.71948e+57
          1393.01130	         7.22417e+57
          1393.81760	         6.98164e+57
          1394.62390	         6.93231e+57
          1395.43020	         5.87717e+57
          1396.23650	         6.43329e+57
          1397.04280	         7.43017e+57
          1397.84910	         8.23270e+57
          1398.65540	         9.04845e+57
          1399.46170	         9.85583e+57
          1400.26800	         8.34711e+57
          1401.07430	         7.55896e+57
          1401.88060	         8.60710e+57
          1402.68690	         9.84838e+57
          1403.49320	         9.31703e+57
          1404.29950	         8.27769e+57
          1405.10580	         9.99819e+57
          1405.91210	         1.06839e+58
          1406.71840	         1.07063e+58
          1407.52470	         1.10183e+58
          1408.33100	         9.54672e+57
          1409.13730	         1.13862e+58
          1409.94360	         1.32335e+58
          1410.74990	         1.23597e+58
          1411.55620	         1.09540e+58
          1412.36250	         9.65342e+57
          1413.16880	         8.52012e+57
          1413.97510	         7.69071e+57
          1414.78140	         8.01781e+57
          1415.58770	         1.05226e+58
          1416.39400	         1.09209e+58
          1417.20030	         1.05569e+58
          1418.00660	         1.05326e+58
          1418.81290	         1.16070e+58
          1419.61920	         1.15694e+58
          1420.42550	         1.02708e+58
          1421.23180	         1.19062e+58
          1422.03810	         1.13639e+58
          1422.84440	         1.08619e+58
          1423.65070	         1.18942e+58
          1424.45700	         1.03492e+58
          1425.26330	         8.02142e+57
          1426.06960	         8.83289e+57
          1426.87590	         9.64156e+57
          1427.68220	         9.49914e+57
          1428.48850	         1.05363e+58
          1429.29480	         1.06309e+58
          1430.10110	         1.04689e+58
          1430.90740	         9.14080e+57
          1431.71370	         9.41016e+57
          1432.52000	         9.12183e+57
          1433.32630	         8.14579e+57
          1434.13260	         7.62178e+57
          1434.93890	         8.04518e+57
          1435.74520	         8.78417e+57
          1436.55150	         9.42803e+57
          1437.35780	         9.23123e+57
          1438.16410	         9.62578e+57
          1438.97040	         9.55631e+57
          1439.77670	         8.53631e+57
          1440.58300	         9.06774e+57
          1441.38930	         9.96443e+57
          1442.19560	         1.09452e+58
          1443.00190	         9.74426e+57
          1443.80820	         1.00065e+58
          1444.61450	         8.83639e+57
          1445.42080	         7.92772e+57
          1446.22710	         1.00221e+58
          1447.03340	         1.03717e+58
          1447.83970	         1.00164e+58
          1448.64600	         9.55700e+57
          1449.45230	         9.68857e+57
          1450.25860	         1.01547e+58
          1451.06490	         8.90545e+57
          1451.87120	         7.69051e+57
          1452.67750	         7.35187e+57
          1453.48380	         9.02067e+57
          1454.29010	         8.13364e+57
          1455.09640	         7.43175e+57
          1455.90270	         8.56984e+57
          1456.70900	         9.05033e+57
          1457.51530	         9.26714e+57
          1458.32160	         1.05336e+58
          1459.12790	         1.08004e+58
          1459.93420	         1.08075e+58
          1460.74050	         8.61175e+57
          1461.54680	         8.20111e+57
          1462.35310	         8.11394e+57
          1463.15940	         8.66776e+57
          1463.96570	         1.01231e+58
          1464.77200	         1.12390e+58
          1465.57830	         1.08467e+58
          1466.38460	         9.04821e+57
          1467.19090	         8.27574e+57
          1467.99720	         8.42893e+57
          1468.80350	         9.40116e+57
          1469.60980	         1.00957e+58
          1470.41610	         1.11144e+58
          1471.22240	         9.41690e+57
          1472.02870	         8.54213e+57
          1472.83500	         9.21614e+57
          1473.64130	         9.50746e+57
          1474.44760	         9.16016e+57
          1475.25390	         8.96214e+57
          1476.06020	         8.94249e+57
          1476.86650	         8.99466e+57
          1477.67280	         9.09279e+57
          1478.47910	         8.25460e+57
          1479.28540	         7.02055e+57
          1480.09170	         7.57687e+57
          1480.89800	         8.63222e+57
          1481.70430	         9.44944e+57
          1482.51060	         7.87032e+57
          1483.31690	         7.75483e+57
          1484.12320	         7.95525e+57
          1484.92950	         7.36803e+57
          1485.73580	         7.97128e+57
          1486.54210	         8.67815e+57
          1487.34840	         8.35133e+57
          1488.15470	         8.41229e+57
          1488.96100	         8.49282e+57
          1489.76730	         9.21273e+57
