#sample_414_stacked_spectrum_rest_UV-bands_median_H-alpha_noDC.txt
#median Lum: 1.73965e+42
#Rest-frame wavelength (A) | Luminosity (erg/s/A)
#
          1110.00000	         0.00000e+00
          1110.80630	         5.17750e+59
          1111.61260	         5.54573e+59
          1112.41890	         4.07221e+58
          1113.22520	        -1.34899e+59
          1114.03150	        -3.61121e+58
          1114.83780	         2.55953e+59
          1115.64410	         1.94563e+59
          1116.45040	         1.54788e+59
          1117.25670	        -5.22860e+58
          1118.06300	         2.47698e+58
          1118.86930	         1.45175e+59
          1119.67560	         2.24683e+59
          1120.48190	         4.83271e+57
          1121.28820	        -7.52225e+58
          1122.09450	         6.53799e+58
          1122.90080	         2.76693e+58
          1123.70710	         6.71122e+58
          1124.51340	         4.60915e+58
          1125.31970	         3.85490e+58
          1126.12600	         2.35161e+58
          1126.93230	        -4.96827e+58
          1127.73860	        -7.81764e+58
          1128.54490	        -2.85423e+57
          1129.35120	         3.69747e+57
          1130.15750	        -7.39112e+57
          1130.96380	        -8.29875e+57
          1131.77010	         2.59791e+58
          1132.57640	         3.75907e+58
          1133.38270	         3.81582e+58
          1134.18900	        -6.03694e+57
          1134.99530	        -6.98178e+57
          1135.80160	         2.74879e+58
          1136.60790	        -5.23100e+57
          1137.41420	        -1.11659e+58
          1138.22050	         4.41983e+58
          1139.02680	         4.31424e+58
          1139.83310	         2.66207e+58
          1140.63940	         1.92067e+58
          1141.44570	        -2.07595e+58
          1142.25200	        -1.37713e+58
          1143.05830	         1.28831e+58
          1143.86460	         1.76502e+58
          1144.67090	         2.19283e+58
          1145.47720	         1.21578e+58
          1146.28350	         8.81096e+57
          1147.08980	         9.76477e+57
          1147.89610	         1.20853e+58
          1148.70240	         1.62155e+58
          1149.50870	         2.58956e+58
          1150.31500	         2.24856e+58
          1151.12130	         2.13536e+58
          1151.92760	         4.29503e+57
          1152.73390	         5.33729e+57
          1153.54020	        -4.82873e+57
          1154.34650	         2.18038e+58
          1155.15280	         1.63396e+58
          1155.95910	         1.73122e+58
          1156.76540	         4.00961e+57
          1157.57170	         6.18352e+57
          1158.37800	        -2.75409e+57
          1159.18430	        -5.13896e+57
          1159.99060	         3.80365e+57
          1160.79690	         1.89052e+57
          1161.60320	         6.31331e+57
          1162.40950	         1.53622e+58
          1163.21580	         5.42740e+57
          1164.02210	         1.38708e+58
          1164.82840	         9.07921e+57
          1165.63470	         1.33721e+58
          1166.44100	         3.24296e+58
          1167.24730	         1.61872e+58
          1168.05360	         1.75376e+57
          1168.85990	         3.74726e+57
          1169.66620	         3.76893e+57
          1170.47250	         3.84211e+57
          1171.27880	         7.05718e+57
          1172.08510	         1.60254e+58
          1172.89140	         1.42733e+58
          1173.69770	         3.47728e+57
          1174.50400	         9.61159e+57
          1175.31030	         1.58166e+58
          1176.11660	         2.12571e+58
          1176.92290	         1.75940e+58
          1177.72920	         1.04554e+58
          1178.53550	         6.09708e+57
          1179.34180	         5.28408e+57
          1180.14810	         4.45097e+57
          1180.95440	         1.22048e+58
          1181.76070	         1.06148e+58
          1182.56700	         9.17369e+57
          1183.37330	         9.88186e+57
          1184.17960	         1.02308e+58
          1184.98590	         1.09223e+58
          1185.79220	         5.85921e+57
          1186.59850	         7.93292e+57
          1187.40480	         8.85118e+57
          1188.21110	         1.29158e+58
          1189.01740	         6.06437e+57
          1189.82370	         1.05030e+58
          1190.63000	         1.73219e+58
          1191.43630	         1.13183e+58
          1192.24260	         1.05758e+58
          1193.04890	         1.35279e+58
          1193.85520	         1.37075e+58
          1194.66150	         7.13638e+57
          1195.46780	         8.43703e+57
          1196.27410	         1.19927e+58
          1197.08040	         8.29168e+57
          1197.88670	         1.24403e+58
          1198.69300	         1.46210e+58
          1199.49930	         1.51343e+58
          1200.30560	         9.40794e+57
          1201.11190	         1.03014e+58
          1201.91820	         1.21471e+58
          1202.72450	         1.08274e+58
          1203.53080	         1.51071e+58
          1204.33710	         8.02060e+57
          1205.14340	         9.97404e+57
          1205.94970	         6.81195e+57
          1206.75600	         7.98387e+57
          1207.56230	         7.01716e+57
          1208.36860	         9.37234e+57
          1209.17490	         5.31998e+57
          1209.98120	         6.51138e+57
          1210.78750	         7.33425e+57
          1211.59380	         1.20170e+58
          1212.40010	         1.76185e+58
          1213.20640	         2.16666e+58
          1214.01270	         2.19570e+58
          1214.81900	         2.00488e+58
          1215.62530	         4.11947e+58
          1216.43160	         9.10477e+58
          1217.23790	         1.50267e+59
          1218.04420	         1.19898e+59
          1218.85050	         9.05771e+58
          1219.65680	         6.21573e+58
          1220.46310	         3.24835e+58
          1221.26940	         2.09019e+58
          1222.07570	         1.40877e+58
          1222.88200	         1.20210e+58
          1223.68830	         1.20496e+58
          1224.49460	         6.75313e+57
          1225.30090	         5.69573e+57
          1226.10720	         7.87454e+57
          1226.91350	         9.65670e+57
          1227.71980	         7.83530e+57
          1228.52610	         1.03705e+58
          1229.33240	         9.87236e+57
          1230.13870	         6.89083e+57
          1230.94500	         1.24564e+58
          1231.75130	         9.52301e+57
          1232.55760	         9.07913e+57
          1233.36390	         7.93829e+57
          1234.17020	         1.06776e+58
          1234.97650	         9.39621e+57
          1235.78280	         8.01379e+57
          1236.58910	         9.98096e+57
          1237.39540	         1.11867e+58
          1238.20170	         1.17737e+58
          1239.00800	         1.30036e+58
          1239.81430	         1.42759e+58
          1240.62060	         1.00142e+58
          1241.42690	         9.42343e+57
          1242.23320	         1.27057e+58
          1243.03950	         1.04050e+58
          1243.84580	         9.80275e+57
          1244.65210	         1.13306e+58
          1245.45840	         8.56231e+57
          1246.26470	         7.90146e+57
          1247.07100	         8.10251e+57
          1247.87730	         6.32024e+57
          1248.68360	         4.26713e+57
          1249.48990	         8.58436e+57
          1250.29620	         1.17173e+58
          1251.10250	         1.00416e+58
          1251.90880	         7.50883e+57
          1252.71510	         5.85474e+57
          1253.52140	         7.32267e+57
          1254.32770	         9.70294e+57
          1255.13400	         1.20805e+58
          1255.94030	         1.21635e+58
          1256.74660	         1.28362e+58
          1257.55290	         1.49513e+58
          1258.35920	         1.29018e+58
          1259.16550	         8.13040e+57
          1259.97180	         5.27706e+57
          1260.77810	         7.61408e+57
          1261.58440	         1.16700e+58
          1262.39070	         9.64301e+57
          1263.19700	         9.54665e+57
          1264.00330	         1.10532e+58
          1264.80960	         1.16246e+58
          1265.61590	         1.18554e+58
          1266.42220	         1.24065e+58
          1267.22850	         1.13053e+58
          1268.03480	         1.24754e+58
          1268.84110	         1.47908e+58
          1269.64740	         1.30511e+58
          1270.45370	         1.32277e+58
          1271.26000	         1.35834e+58
          1272.06630	         1.30166e+58
          1272.87260	         1.46171e+58
          1273.67890	         1.43775e+58
          1274.48520	         1.23957e+58
          1275.29150	         1.36488e+58
          1276.09780	         1.53118e+58
          1276.90410	         1.66001e+58
          1277.71040	         1.33416e+58
          1278.51670	         1.12860e+58
          1279.32300	         1.35507e+58
          1280.12930	         1.53704e+58
          1280.93560	         1.38729e+58
          1281.74190	         1.32642e+58
          1282.54820	         1.37353e+58
          1283.35450	         1.06944e+58
          1284.16080	         1.16548e+58
          1284.96710	         1.44987e+58
          1285.77340	         1.23341e+58
          1286.57970	         8.54823e+57
          1287.38600	         1.69738e+58
          1288.19230	         2.12698e+58
          1288.99860	         1.67030e+58
          1289.80490	         1.09859e+58
          1290.61120	         1.41465e+58
          1291.41750	         1.46192e+58
          1292.22380	         1.14471e+58
          1293.03010	         1.11757e+58
          1293.83640	         1.13181e+58
          1294.64270	         9.00237e+57
          1295.44900	         6.08635e+57
          1296.25530	         7.48380e+57
          1297.06160	         1.06201e+58
          1297.86790	         1.26380e+58
          1298.67420	         1.15522e+58
          1299.48050	         9.63910e+57
          1300.28680	         1.09374e+58
          1301.09310	         9.14618e+57
          1301.89940	         4.74836e+57
          1302.70570	         7.41092e+57
          1303.51200	         7.21065e+57
          1304.31830	         9.33063e+57
          1305.12460	         1.10334e+58
          1305.93090	         1.15736e+58
          1306.73720	         1.27175e+58
          1307.54350	         1.53624e+58
          1308.34980	         1.51851e+58
          1309.15610	         1.55401e+58
          1309.96240	         1.63783e+58
          1310.76870	         1.39628e+58
          1311.57500	         1.29362e+58
          1312.38130	         1.47415e+58
          1313.18760	         1.47985e+58
          1313.99390	         1.59730e+58
          1314.80020	         1.65195e+58
          1315.60650	         1.78600e+58
          1316.41280	         1.35499e+58
          1317.21910	         1.27934e+58
          1318.02540	         1.12399e+58
          1318.83170	         1.21777e+58
          1319.63800	         1.32526e+58
          1320.44430	         1.32255e+58
          1321.25060	         1.18021e+58
          1322.05690	         1.22289e+58
          1322.86320	         1.24943e+58
          1323.66950	         1.06738e+58
          1324.47580	         1.01666e+58
          1325.28210	         1.10095e+58
          1326.08840	         1.42795e+58
          1326.89470	         1.55401e+58
          1327.70100	         1.24969e+58
          1328.50730	         8.82435e+57
          1329.31360	         8.61088e+57
          1330.11990	         9.11963e+57
          1330.92620	         8.08396e+57
          1331.73250	         1.04660e+58
          1332.53880	         1.08396e+58
          1333.34510	         9.35446e+57
          1334.15140	         9.15049e+57
          1334.95770	         9.50374e+57
          1335.76400	         1.02324e+58
          1336.57030	         1.24269e+58
          1337.37660	         1.17236e+58
          1338.18290	         1.12422e+58
          1338.98920	         1.20968e+58
          1339.79550	         1.20423e+58
          1340.60180	         1.48275e+58
          1341.40810	         1.41757e+58
          1342.21440	         1.06612e+58
          1343.02070	         1.29930e+58
          1343.82700	         1.51845e+58
          1344.63330	         1.35450e+58
          1345.43960	         1.31709e+58
          1346.24590	         1.27188e+58
          1347.05220	         1.33334e+58
          1347.85850	         1.00032e+58
          1348.66480	         1.08577e+58
          1349.47110	         1.29061e+58
          1350.27740	         1.27535e+58
          1351.08370	         1.39894e+58
          1351.89000	         1.22530e+58
          1352.69630	         9.96725e+57
          1353.50260	         1.15525e+58
          1354.30890	         1.39427e+58
          1355.11520	         1.34728e+58
          1355.92150	         1.21178e+58
          1356.72780	         1.07238e+58
          1357.53410	         1.10897e+58
          1358.34040	         1.05399e+58
          1359.14670	         1.03772e+58
          1359.95300	         1.18953e+58
          1360.75930	         1.28969e+58
          1361.56560	         1.34177e+58
          1362.37190	         1.36959e+58
          1363.17820	         1.33692e+58
          1363.98450	         1.34635e+58
          1364.79080	         1.36842e+58
          1365.59710	         1.26763e+58
          1366.40340	         1.26032e+58
          1367.20970	         1.18877e+58
          1368.01600	         1.06551e+58
          1368.82230	         1.11427e+58
          1369.62860	         1.06118e+58
          1370.43490	         8.74906e+57
          1371.24120	         9.22508e+57
          1372.04750	         9.26252e+57
          1372.85380	         1.09846e+58
          1373.66010	         1.26745e+58
          1374.46640	         1.13244e+58
          1375.27270	         1.16116e+58
          1376.07900	         1.06223e+58
          1376.88530	         1.02899e+58
          1377.69160	         9.43579e+57
          1378.49790	         6.62912e+57
          1379.30420	         7.81612e+57
          1380.11050	         1.09969e+58
          1380.91680	         9.35549e+57
          1381.72310	         8.59337e+57
          1382.52940	         8.95162e+57
          1383.33570	         8.57515e+57
          1384.14200	         1.02194e+58
          1384.94830	         1.09315e+58
          1385.75460	         1.05208e+58
          1386.56090	         1.13351e+58
          1387.36720	         1.16544e+58
          1388.17350	         1.39638e+58
          1388.97980	         1.19660e+58
          1389.78610	         9.67669e+57
          1390.59240	         7.71053e+57
          1391.39870	         6.33651e+57
          1392.20500	         8.37444e+57
          1393.01130	         8.58024e+57
          1393.81760	         8.97955e+57
          1394.62390	         8.13971e+57
          1395.43020	         6.65625e+57
          1396.23650	         7.55376e+57
          1397.04280	         7.51292e+57
          1397.84910	         8.90912e+57
          1398.65540	         1.08377e+58
          1399.46170	         9.63195e+57
          1400.26800	         7.54417e+57
          1401.07430	         7.99776e+57
          1401.88060	         9.30340e+57
          1402.68690	         9.96208e+57
          1403.49320	         1.01180e+58
          1404.29950	         8.94738e+57
          1405.10580	         1.02720e+58
          1405.91210	         1.32930e+58
          1406.71840	         1.22318e+58
          1407.52470	         1.07218e+58
          1408.33100	         1.13951e+58
          1409.13730	         1.19952e+58
          1409.94360	         1.22457e+58
          1410.74990	         1.07636e+58
          1411.55620	         1.05006e+58
          1412.36250	         1.11906e+58
          1413.16880	         9.37617e+57
          1413.97510	         8.84507e+57
          1414.78140	         9.35023e+57
          1415.58770	         9.32845e+57
          1416.39400	         9.42496e+57
          1417.20030	         9.90483e+57
          1418.00660	         9.11744e+57
          1418.81290	         1.03674e+58
          1419.61920	         1.10373e+58
          1420.42550	         1.18214e+58
          1421.23180	         1.32184e+58
          1422.03810	         1.43929e+58
          1422.84440	         1.23473e+58
          1423.65070	         1.34194e+58
          1424.45700	         1.22323e+58
          1425.26330	         9.43025e+57
          1426.06960	         8.52939e+57
          1426.87590	         9.64736e+57
          1427.68220	         9.72645e+57
          1428.48850	         9.76742e+57
          1429.29480	         1.02406e+58
          1430.10110	         1.03944e+58
          1430.90740	         9.48189e+57
          1431.71370	         8.63829e+57
          1432.52000	         8.95940e+57
          1433.32630	         8.77992e+57
          1434.13260	         8.23146e+57
          1434.93890	         8.09665e+57
          1435.74520	         8.76105e+57
          1436.55150	         9.17537e+57
          1437.35780	         9.97066e+57
          1438.16410	         1.07850e+58
          1438.97040	         9.78596e+57
          1439.77670	         9.95310e+57
          1440.58300	         1.03119e+58
          1441.38930	         8.82362e+57
          1442.19560	         8.91229e+57
          1443.00190	         9.82970e+57
          1443.80820	         1.19069e+58
          1444.61450	         1.03972e+58
          1445.42080	         8.23273e+57
          1446.22710	         1.13570e+58
          1447.03340	         1.04388e+58
          1447.83970	         1.11527e+58
          1448.64600	         1.14477e+58
          1449.45230	         1.02975e+58
          1450.25860	         1.12369e+58
          1451.06490	         1.01412e+58
          1451.87120	         7.41837e+57
          1452.67750	         7.00919e+57
          1453.48380	         9.67039e+57
          1454.29010	         8.36201e+57
          1455.09640	         8.08748e+57
          1455.90270	         9.54630e+57
          1456.70900	         1.02746e+58
          1457.51530	         1.12334e+58
          1458.32160	         1.21634e+58
          1459.12790	         1.16821e+58
          1459.93420	         1.04882e+58
          1460.74050	         1.00189e+58
          1461.54680	         8.78795e+57
          1462.35310	         8.16844e+57
          1463.15940	         1.07680e+58
          1463.96570	         1.31838e+58
          1464.77200	         1.31426e+58
          1465.57830	         1.07186e+58
          1466.38460	         9.53230e+57
          1467.19090	         8.58403e+57
          1467.99720	         8.66498e+57
          1468.80350	         8.75711e+57
          1469.60980	         9.38820e+57
          1470.41610	         1.09260e+58
          1471.22240	         1.04476e+58
          1472.02870	         1.13684e+58
          1472.83500	         1.12066e+58
          1473.64130	         1.02588e+58
          1474.44760	         1.00967e+58
          1475.25390	         9.14378e+57
          1476.06020	         8.98471e+57
          1476.86650	         8.73767e+57
          1477.67280	         7.24032e+57
          1478.47910	         7.70691e+57
          1479.28540	         8.09824e+57
          1480.09170	         9.91513e+57
          1480.89800	         9.64042e+57
          1481.70430	         9.02777e+57
          1482.51060	         8.16634e+57
          1483.31690	         7.16106e+57
          1484.12320	         8.63210e+57
          1484.92950	         9.11694e+57
          1485.73580	         9.59990e+57
          1486.54210	         1.07735e+58
          1487.34840	         9.99397e+57
          1488.15470	         9.86336e+57
          1488.96100	         1.03797e+58
          1489.76730	         1.07715e+58
