#sample_200_stacked_spectrum_rest_UV-bands_median_H-alpha_noDC.txt
#median Lum: 1.67319e+42
#Rest-frame wavelength (A) | Luminosity (erg/s/A)
#
          1110.00000	         0.00000e+00
          1110.80630	        -1.88324e+58
          1111.61260	         2.56623e+58
          1112.41890	         9.72065e+58
          1113.22520	        -4.32086e+58
          1114.03150	         8.14511e+57
          1114.83780	         1.13043e+59
          1115.64410	         5.80843e+58
          1116.45040	         2.12625e+59
          1117.25670	         2.26096e+59
          1118.06300	         1.54796e+59
          1118.86930	         2.90759e+58
          1119.67560	         1.12101e+59
          1120.48190	         2.50178e+58
          1121.28820	        -1.14852e+59
          1122.09450	        -8.00804e+58
          1122.90080	        -3.94151e+58
          1123.70710	         3.14729e+58
          1124.51340	         4.01240e+58
          1125.31970	        -8.06477e+57
          1126.12600	         9.18462e+56
          1126.93230	        -2.15847e+58
          1127.73860	        -8.42024e+58
          1128.54490	        -3.89301e+58
          1129.35120	        -1.62706e+58
          1130.15750	        -4.11054e+58
          1130.96380	         7.07550e+57
          1131.77010	         6.26871e+58
          1132.57640	         4.49507e+58
          1133.38270	         3.57269e+58
          1134.18900	         1.05716e+58
          1134.99530	        -1.01199e+58
          1135.80160	         1.26997e+58
          1136.60790	         2.41452e+58
          1137.41420	        -2.15855e+58
          1138.22050	         2.58271e+58
          1139.02680	         3.52172e+58
          1139.83310	         2.15747e+58
          1140.63940	         6.03606e+56
          1141.44570	        -3.17556e+58
          1142.25200	         8.06302e+55
          1143.05830	         2.60602e+58
          1143.86460	         1.65037e+58
          1144.67090	         1.42326e+58
          1145.47720	         6.33665e+57
          1146.28350	         2.92293e+58
          1147.08980	         2.12389e+58
          1147.89610	         2.29362e+58
          1148.70240	         3.22068e+58
          1149.50870	         2.69603e+58
          1150.31500	         8.68561e+57
          1151.12130	        -6.48269e+56
          1151.92760	         1.55472e+56
          1152.73390	        -7.89359e+57
          1153.54020	         7.16944e+57
          1154.34650	         2.07901e+58
          1155.15280	         1.77672e+58
          1155.95910	         1.46578e+58
          1156.76540	         4.66389e+57
          1157.57170	        -3.50511e+57
          1158.37800	        -5.35418e+57
          1159.18430	        -2.23648e+57
          1159.99060	         6.32937e+57
          1160.79690	         9.94478e+57
          1161.60320	         1.42211e+58
          1162.40950	         1.30495e+58
          1163.21580	         1.18925e+58
          1164.02210	         7.14413e+57
          1164.82840	         1.31901e+58
          1165.63470	         1.98778e+58
          1166.44100	         2.74151e+58
          1167.24730	         2.63946e+58
          1168.05360	         1.16291e+58
          1168.85990	         6.06555e+57
          1169.66620	         7.50809e+57
          1170.47250	         8.98939e+57
          1171.27880	         5.17231e+57
          1172.08510	         9.60292e+57
          1172.89140	         2.00492e+58
          1173.69770	         8.69586e+57
          1174.50400	         1.87601e+58
          1175.31030	         1.40445e+58
          1176.11660	         1.62496e+58
          1176.92290	         1.52392e+58
          1177.72920	         1.14642e+58
          1178.53550	         5.17284e+57
          1179.34180	         3.10147e+57
          1180.14810	         9.63664e+57
          1180.95440	         1.19282e+58
          1181.76070	         5.57980e+56
          1182.56700	         1.14992e+57
          1183.37330	         5.03721e+57
          1184.17960	         1.22428e+58
          1184.98590	         1.15496e+58
          1185.79220	         1.00380e+58
          1186.59850	         1.71318e+58
          1187.40480	         1.11765e+58
          1188.21110	         1.83274e+58
          1189.01740	         1.39998e+58
          1189.82370	         1.18607e+58
          1190.63000	         1.05874e+58
          1191.43630	         1.58739e+58
          1192.24260	         1.26817e+58
          1193.04890	         1.13167e+58
          1193.85520	         1.35575e+58
          1194.66150	         4.62194e+57
          1195.46780	         8.01697e+57
          1196.27410	         1.23291e+58
          1197.08040	         9.01240e+57
          1197.88670	         1.25413e+58
          1198.69300	         1.34219e+58
          1199.49930	         1.63411e+58
          1200.30560	         9.41500e+57
          1201.11190	         1.01525e+58
          1201.91820	         8.44262e+57
          1202.72450	         1.04759e+58
          1203.53080	         1.39823e+58
          1204.33710	         8.31130e+57
          1205.14340	         6.16838e+57
          1205.94970	         7.22790e+57
          1206.75600	         5.70090e+57
          1207.56230	         5.22002e+57
          1208.36860	         8.92316e+57
          1209.17490	         3.94351e+57
          1209.98120	         6.28530e+57
          1210.78750	         8.47430e+57
          1211.59380	         1.50694e+58
          1212.40010	         1.89124e+58
          1213.20640	         2.18564e+58
          1214.01270	         2.04940e+58
          1214.81900	         2.34216e+58
          1215.62530	         4.42176e+58
          1216.43160	         8.93985e+58
          1217.23790	         1.49085e+59
          1218.04420	         1.16509e+59
          1218.85050	         8.68026e+58
          1219.65680	         5.88866e+58
          1220.46310	         3.73806e+58
          1221.26940	         2.57685e+58
          1222.07570	         1.75943e+58
          1222.88200	         1.62395e+58
          1223.68830	         1.42640e+58
          1224.49460	         1.03272e+58
          1225.30090	         7.68843e+57
          1226.10720	         6.21321e+57
          1226.91350	         7.84237e+57
          1227.71980	         1.20943e+58
          1228.52610	         1.39335e+58
          1229.33240	         1.19291e+58
          1230.13870	         1.30872e+58
          1230.94500	         1.10317e+58
          1231.75130	         6.71575e+57
          1232.55760	         6.44560e+57
          1233.36390	         7.97713e+57
          1234.17020	         7.74346e+57
          1234.97650	         7.03085e+57
          1235.78280	         7.05573e+57
          1236.58910	         8.56005e+57
          1237.39540	         1.16457e+58
          1238.20170	         1.21376e+58
          1239.00800	         1.49789e+58
          1239.81430	         1.58036e+58
          1240.62060	         1.07296e+58
          1241.42690	         1.12696e+58
          1242.23320	         1.18560e+58
          1243.03950	         9.48695e+57
          1243.84580	         7.54630e+57
          1244.65210	         9.68679e+57
          1245.45840	         1.05819e+58
          1246.26470	         7.29429e+57
          1247.07100	         5.58327e+57
          1247.87730	         4.99117e+57
          1248.68360	         5.10331e+57
          1249.48990	         8.11338e+57
          1250.29620	         6.79733e+57
          1251.10250	         6.99219e+57
          1251.90880	         5.67358e+57
          1252.71510	         6.82807e+57
          1253.52140	         7.10950e+57
          1254.32770	         1.05823e+58
          1255.13400	         1.28463e+58
          1255.94030	         1.05297e+58
          1256.74660	         9.04049e+57
          1257.55290	         1.08066e+58
          1258.35920	         1.06403e+58
          1259.16550	         5.61323e+57
          1259.97180	         4.75325e+57
          1260.77810	         5.90968e+57
          1261.58440	         1.08115e+58
          1262.39070	         8.37810e+57
          1263.19700	         6.48695e+57
          1264.00330	         9.04214e+57
          1264.80960	         1.05633e+58
          1265.61590	         1.11709e+58
          1266.42220	         1.10069e+58
          1267.22850	         1.03870e+58
          1268.03480	         1.42654e+58
          1268.84110	         1.64486e+58
          1269.64740	         1.35281e+58
          1270.45370	         1.24475e+58
          1271.26000	         1.36336e+58
          1272.06630	         1.17352e+58
          1272.87260	         1.07622e+58
          1273.67890	         1.22124e+58
          1274.48520	         1.21315e+58
          1275.29150	         1.28194e+58
          1276.09780	         1.12877e+58
          1276.90410	         1.43297e+58
          1277.71040	         1.40282e+58
          1278.51670	         1.17007e+58
          1279.32300	         1.20132e+58
          1280.12930	         1.14081e+58
          1280.93560	         1.26160e+58
          1281.74190	         1.25359e+58
          1282.54820	         1.05779e+58
          1283.35450	         1.07469e+58
          1284.16080	         1.16340e+58
          1284.96710	         1.20592e+58
          1285.77340	         1.17324e+58
          1286.57970	         1.12844e+58
          1287.38600	         1.44604e+58
          1288.19230	         1.71212e+58
          1288.99860	         1.54912e+58
          1289.80490	         1.40041e+58
          1290.61120	         1.33249e+58
          1291.41750	         1.42742e+58
          1292.22380	         1.29976e+58
          1293.03010	         1.09776e+58
          1293.83640	         1.24897e+58
          1294.64270	         1.00041e+58
          1295.44900	         4.92470e+57
          1296.25530	         6.09456e+57
          1297.06160	         1.08355e+58
          1297.86790	         1.01173e+58
          1298.67420	         7.69601e+57
          1299.48050	         8.38287e+57
          1300.28680	         1.01416e+58
          1301.09310	         9.07731e+57
          1301.89940	         4.84516e+57
          1302.70570	         6.48780e+57
          1303.51200	         7.96953e+57
          1304.31830	         9.47317e+57
          1305.12460	         1.11241e+58
          1305.93090	         1.06387e+58
          1306.73720	         1.25853e+58
          1307.54350	         1.40380e+58
          1308.34980	         1.32114e+58
          1309.15610	         1.35565e+58
          1309.96240	         1.55373e+58
          1310.76870	         1.35892e+58
          1311.57500	         1.02373e+58
          1312.38130	         1.01705e+58
          1313.18760	         1.23942e+58
          1313.99390	         1.57051e+58
          1314.80020	         1.48907e+58
          1315.60650	         1.26927e+58
          1316.41280	         1.13828e+58
          1317.21910	         1.22250e+58
          1318.02540	         1.21269e+58
          1318.83170	         1.22221e+58
          1319.63800	         1.13339e+58
          1320.44430	         9.81700e+57
          1321.25060	         1.23651e+58
          1322.05690	         1.35950e+58
          1322.86320	         1.25712e+58
          1323.66950	         1.13504e+58
          1324.47580	         9.39630e+57
          1325.28210	         9.68447e+57
          1326.08840	         1.17054e+58
          1326.89470	         1.23723e+58
          1327.70100	         9.56738e+57
          1328.50730	         7.26995e+57
          1329.31360	         1.05737e+58
          1330.11990	         1.05949e+58
          1330.92620	         9.53473e+57
          1331.73250	         1.12671e+58
          1332.53880	         9.58959e+57
          1333.34510	         8.42244e+57
          1334.15140	         7.40663e+57
          1334.95770	         8.58902e+57
          1335.76400	         1.16146e+58
          1336.57030	         1.09652e+58
          1337.37660	         9.38237e+57
          1338.18290	         9.17211e+57
          1338.98920	         1.08116e+58
          1339.79550	         1.13189e+58
          1340.60180	         1.27210e+58
          1341.40810	         1.45802e+58
          1342.21440	         1.33209e+58
          1343.02070	         1.19727e+58
          1343.82700	         1.35045e+58
          1344.63330	         1.30727e+58
          1345.43960	         1.31836e+58
          1346.24590	         1.12797e+58
          1347.05220	         1.06022e+58
          1347.85850	         9.85974e+57
          1348.66480	         1.06509e+58
          1349.47110	         1.26391e+58
          1350.27740	         1.15480e+58
          1351.08370	         1.13397e+58
          1351.89000	         1.09028e+58
          1352.69630	         1.09449e+58
          1353.50260	         1.10527e+58
          1354.30890	         1.12436e+58
          1355.11520	         1.11532e+58
          1355.92150	         1.05827e+58
          1356.72780	         1.11045e+58
          1357.53410	         1.03523e+58
          1358.34040	         1.02337e+58
          1359.14670	         1.01954e+58
          1359.95300	         1.05543e+58
          1360.75930	         1.15154e+58
          1361.56560	         1.30653e+58
          1362.37190	         1.26356e+58
          1363.17820	         9.98155e+57
          1363.98450	         1.03664e+58
          1364.79080	         1.12665e+58
          1365.59710	         1.32289e+58
          1366.40340	         1.22230e+58
          1367.20970	         9.81825e+57
          1368.01600	         8.94230e+57
          1368.82230	         9.63371e+57
          1369.62860	         1.19997e+58
          1370.43490	         1.04600e+58
          1371.24120	         9.47098e+57
          1372.04750	         7.93335e+57
          1372.85380	         9.47941e+57
          1373.66010	         1.18333e+58
          1374.46640	         1.11038e+58
          1375.27270	         1.08688e+58
          1376.07900	         9.36850e+57
          1376.88530	         8.51335e+57
          1377.69160	         9.22949e+57
          1378.49790	         7.04623e+57
          1379.30420	         6.57126e+57
          1380.11050	         8.12938e+57
          1380.91680	         8.42715e+57
          1381.72310	         8.14769e+57
          1382.52940	         8.35171e+57
          1383.33570	         7.72780e+57
          1384.14200	         8.02499e+57
          1384.94830	         9.91485e+57
          1385.75460	         1.07503e+58
          1386.56090	         1.17572e+58
          1387.36720	         1.08122e+58
          1388.17350	         1.23769e+58
          1388.97980	         1.09351e+58
          1389.78610	         9.35973e+57
          1390.59240	         7.68961e+57
          1391.39870	         6.45445e+57
          1392.20500	         8.08441e+57
          1393.01130	         7.54233e+57
          1393.81760	         7.49655e+57
          1394.62390	         7.56511e+57
          1395.43020	         6.89856e+57
          1396.23650	         7.72342e+57
          1397.04280	         7.82442e+57
          1397.84910	         7.92230e+57
          1398.65540	         9.19482e+57
          1399.46170	         1.00253e+58
          1400.26800	         8.81454e+57
          1401.07430	         7.68994e+57
          1401.88060	         8.17155e+57
          1402.68690	         8.90040e+57
          1403.49320	         1.00096e+58
          1404.29950	         1.02879e+58
          1405.10580	         1.06359e+58
          1405.91210	         1.01005e+58
          1406.71840	         9.53130e+57
          1407.52470	         9.03837e+57
          1408.33100	         8.98183e+57
          1409.13730	         1.08412e+58
          1409.94360	         1.25154e+58
          1410.74990	         1.21198e+58
          1411.55620	         9.91884e+57
          1412.36250	         7.82394e+57
          1413.16880	         8.43409e+57
          1413.97510	         8.87757e+57
          1414.78140	         9.26115e+57
          1415.58770	         1.05025e+58
          1416.39400	         1.08843e+58
          1417.20030	         1.08695e+58
          1418.00660	         9.30930e+57
          1418.81290	         9.14729e+57
          1419.61920	         8.90585e+57
          1420.42550	         1.28760e+58
          1421.23180	         1.43804e+58
          1422.03810	         1.19760e+58
          1422.84440	         9.83999e+57
          1423.65070	         1.26973e+58
          1424.45700	         1.16367e+58
          1425.26330	         7.44003e+57
          1426.06960	         8.11848e+57
          1426.87590	         1.09580e+58
          1427.68220	         1.04414e+58
          1428.48850	         1.01711e+58
          1429.29480	         9.99098e+57
          1430.10110	         9.36596e+57
          1430.90740	         8.71405e+57
          1431.71370	         8.61208e+57
          1432.52000	         8.06071e+57
          1433.32630	         8.18068e+57
          1434.13260	         7.83328e+57
          1434.93890	         7.81488e+57
          1435.74520	         8.64673e+57
          1436.55150	         9.53230e+57
          1437.35780	         9.00306e+57
          1438.16410	         9.65286e+57
          1438.97040	         1.02297e+58
          1439.77670	         1.00239e+58
          1440.58300	         9.89980e+57
          1441.38930	         8.46631e+57
          1442.19560	         8.47306e+57
          1443.00190	         9.36681e+57
          1443.80820	         1.17381e+58
          1444.61450	         1.10756e+58
          1445.42080	         8.95415e+57
          1446.22710	         1.04022e+58
          1447.03340	         1.08505e+58
          1447.83970	         1.10004e+58
          1448.64600	         1.06243e+58
          1449.45230	         9.49716e+57
          1450.25860	         1.03247e+58
          1451.06490	         8.59171e+57
          1451.87120	         7.39748e+57
          1452.67750	         7.48588e+57
          1453.48380	         9.64286e+57
          1454.29010	         8.19863e+57
          1455.09640	         6.37056e+57
          1455.90270	         7.44522e+57
          1456.70900	         8.72791e+57
          1457.51530	         9.35033e+57
          1458.32160	         1.15119e+58
          1459.12790	         1.14613e+58
          1459.93420	         1.01325e+58
          1460.74050	         8.72207e+57
          1461.54680	         9.02829e+57
          1462.35310	         8.46951e+57
          1463.15940	         8.81392e+57
          1463.96570	         9.79559e+57
          1464.77200	         1.18794e+58
          1465.57830	         1.03974e+58
          1466.38460	         7.82009e+57
          1467.19090	         8.34453e+57
          1467.99720	         8.64690e+57
          1468.80350	         8.34876e+57
          1469.60980	         9.39454e+57
          1470.41610	         1.00774e+58
          1471.22240	         9.34526e+57
          1472.02870	         9.79384e+57
          1472.83500	         1.01681e+58
          1473.64130	         9.18031e+57
          1474.44760	         8.63343e+57
          1475.25390	         7.82586e+57
          1476.06020	         7.25810e+57
          1476.86650	         8.43893e+57
          1477.67280	         8.09100e+57
          1478.47910	         6.78835e+57
          1479.28540	         6.45090e+57
          1480.09170	         8.05528e+57
          1480.89800	         8.84503e+57
          1481.70430	         8.62682e+57
          1482.51060	         8.10933e+57
          1483.31690	         7.95894e+57
          1484.12320	         7.52843e+57
          1484.92950	         7.68432e+57
          1485.73580	         7.98701e+57
          1486.54210	         8.14306e+57
          1487.34840	         9.11581e+57
          1488.15470	         8.24790e+57
          1488.96100	         8.75547e+57
          1489.76730	         9.30004e+57
