#sample_425_stacked_spectrum_rest_UV-bands_median_H-alpha_noDC.txt
#median Lum: 1.73318e+42
#Rest-frame wavelength (A) | Luminosity (erg/s/A)
#
          1110.00000	         0.00000e+00
          1110.80630	         1.67936e+59
          1111.61260	         4.13486e+58
          1112.41890	         2.30641e+59
          1113.22520	         8.47875e+57
          1114.03150	        -1.28474e+59
          1114.83780	         9.33553e+58
          1115.64410	         1.84782e+59
          1116.45040	         3.13223e+59
          1117.25670	         6.51083e+58
          1118.06300	         1.62269e+59
          1118.86930	         1.80976e+59
          1119.67560	         1.06656e+59
          1120.48190	         3.41003e+58
          1121.28820	        -1.54334e+59
          1122.09450	         3.39668e+58
          1122.90080	         5.79551e+58
          1123.70710	         1.13326e+59
          1124.51340	         7.01094e+58
          1125.31970	         2.92949e+58
          1126.12600	        -1.81768e+58
          1126.93230	        -2.96958e+58
          1127.73860	        -7.39656e+58
          1128.54490	        -2.27942e+58
          1129.35120	        -5.19089e+57
          1130.15750	        -6.41486e+58
          1130.96380	        -2.53470e+58
          1131.77010	         4.69318e+58
          1132.57640	         2.16498e+58
          1133.38270	         1.21871e+58
          1134.18900	         4.10667e+58
          1134.99530	         9.26812e+57
          1135.80160	         4.34104e+58
          1136.60790	         1.84898e+58
          1137.41420	        -1.14369e+58
          1138.22050	         2.05562e+58
          1139.02680	         3.58803e+58
          1139.83310	         2.47420e+58
          1140.63940	         2.53287e+58
          1141.44570	        -3.15816e+57
          1142.25200	         4.62876e+56
          1143.05830	         2.26332e+58
          1143.86460	         1.78270e+58
          1144.67090	         3.26430e+58
          1145.47720	         1.97321e+58
          1146.28350	         1.64710e+58
          1147.08980	         1.65556e+58
          1147.89610	         1.15623e+58
          1148.70240	         3.25058e+58
          1149.50870	         1.03927e+58
          1150.31500	         2.12076e+58
          1151.12130	         1.01998e+58
          1151.92760	         6.69127e+57
          1152.73390	         5.60847e+57
          1153.54020	         7.37579e+57
          1154.34650	         1.52691e+58
          1155.15280	         1.08564e+58
          1155.95910	         1.67925e+58
          1156.76540	         7.24096e+57
          1157.57170	         5.72434e+57
          1158.37800	         3.22261e+57
          1159.18430	        -2.84184e+57
          1159.99060	         1.07416e+58
          1160.79690	         1.38988e+58
          1161.60320	         1.91679e+58
          1162.40950	         1.69106e+58
          1163.21580	         1.01133e+58
          1164.02210	         8.97113e+57
          1164.82840	         8.50023e+57
          1165.63470	         1.59119e+58
          1166.44100	         3.27064e+58
          1167.24730	         2.01877e+58
          1168.05360	         3.67670e+57
          1168.85990	         3.07291e+57
          1169.66620	         2.90895e+57
          1170.47250	         1.19044e+58
          1171.27880	         8.71077e+57
          1172.08510	         1.12483e+58
          1172.89140	         1.57046e+58
          1173.69770	         7.95796e+57
          1174.50400	         1.32638e+58
          1175.31030	         2.14159e+58
          1176.11660	         2.22285e+58
          1176.92290	         1.57717e+58
          1177.72920	         1.18022e+58
          1178.53550	         8.34453e+57
          1179.34180	         1.07907e+57
          1180.14810	         3.33966e+57
          1180.95440	         1.07844e+58
          1181.76070	         1.13058e+58
          1182.56700	         6.50425e+57
          1183.37330	         6.16429e+57
          1184.17960	         1.13112e+58
          1184.98590	         8.66670e+57
          1185.79220	         5.69970e+57
          1186.59850	         1.06635e+58
          1187.40480	         1.34053e+58
          1188.21110	         1.88994e+58
          1189.01740	         1.36792e+58
          1189.82370	         8.79874e+57
          1190.63000	         1.43876e+58
          1191.43630	         1.35368e+58
          1192.24260	         7.10485e+57
          1193.04890	         1.37594e+58
          1193.85520	         1.39692e+58
          1194.66150	         8.56705e+57
          1195.46780	         1.11865e+58
          1196.27410	         1.47565e+58
          1197.08040	         1.20722e+58
          1197.88670	         1.04932e+58
          1198.69300	         1.13914e+58
          1199.49930	         1.50989e+58
          1200.30560	         1.19726e+58
          1201.11190	         1.49392e+58
          1201.91820	         1.58956e+58
          1202.72450	         1.00070e+58
          1203.53080	         1.32752e+58
          1204.33710	         6.52764e+57
          1205.14340	         9.45110e+57
          1205.94970	         1.18558e+58
          1206.75600	         4.59214e+57
          1207.56230	         2.74103e+57
          1208.36860	         6.61654e+57
          1209.17490	         5.44048e+57
          1209.98120	         8.85793e+57
          1210.78750	         1.12935e+58
          1211.59380	         1.57278e+58
          1212.40010	         2.20184e+58
          1213.20640	         1.79355e+58
          1214.01270	         1.75552e+58
          1214.81900	         2.34181e+58
          1215.62530	         4.11308e+58
          1216.43160	         8.92816e+58
          1217.23790	         1.52734e+59
          1218.04420	         1.18683e+59
          1218.85050	         9.30591e+58
          1219.65680	         6.61217e+58
          1220.46310	         3.91054e+58
          1221.26940	         2.21313e+58
          1222.07570	         1.58247e+58
          1222.88200	         1.45888e+58
          1223.68830	         1.36303e+58
          1224.49460	         1.17435e+58
          1225.30090	         6.55330e+57
          1226.10720	         4.61738e+57
          1226.91350	         5.84983e+57
          1227.71980	         8.11088e+57
          1228.52610	         1.20831e+58
          1229.33240	         9.01621e+57
          1230.13870	         1.00698e+58
          1230.94500	         7.85569e+57
          1231.75130	         7.61430e+57
          1232.55760	         1.03413e+58
          1233.36390	         9.34006e+57
          1234.17020	         8.82852e+57
          1234.97650	         7.23434e+57
          1235.78280	         7.39261e+57
          1236.58910	         6.50036e+57
          1237.39540	         8.38529e+57
          1238.20170	         9.72819e+57
          1239.00800	         1.26696e+58
          1239.81430	         1.76387e+58
          1240.62060	         1.31615e+58
          1241.42690	         1.14321e+58
          1242.23320	         1.13481e+58
          1243.03950	         7.41726e+57
          1243.84580	         7.12855e+57
          1244.65210	         9.23011e+57
          1245.45840	         1.08227e+58
          1246.26470	         8.87044e+57
          1247.07100	         3.39015e+57
          1247.87730	         4.52979e+57
          1248.68360	         5.52956e+57
          1249.48990	         6.95374e+57
          1250.29620	         9.96003e+57
          1251.10250	         5.96286e+57
          1251.90880	         6.52608e+57
          1252.71510	         8.20571e+57
          1253.52140	         9.26253e+57
          1254.32770	         1.12522e+58
          1255.13400	         1.33984e+58
          1255.94030	         1.34231e+58
          1256.74660	         1.04804e+58
          1257.55290	         1.06591e+58
          1258.35920	         1.01855e+58
          1259.16550	         7.24124e+57
          1259.97180	         7.70253e+57
          1260.77810	         9.56949e+57
          1261.58440	         9.60754e+57
          1262.39070	         8.94277e+57
          1263.19700	         9.05248e+57
          1264.00330	         8.85697e+57
          1264.80960	         1.22613e+58
          1265.61590	         1.39427e+58
          1266.42220	         1.21951e+58
          1267.22850	         1.33421e+58
          1268.03480	         1.51976e+58
          1268.84110	         1.57170e+58
          1269.64740	         1.42376e+58
          1270.45370	         1.39677e+58
          1271.26000	         1.22304e+58
          1272.06630	         1.18660e+58
          1272.87260	         1.19727e+58
          1273.67890	         1.22793e+58
          1274.48520	         1.40913e+58
          1275.29150	         1.51404e+58
          1276.09780	         1.29501e+58
          1276.90410	         1.49995e+58
          1277.71040	         1.45873e+58
          1278.51670	         1.27539e+58
          1279.32300	         1.54092e+58
          1280.12930	         1.48457e+58
          1280.93560	         1.22703e+58
          1281.74190	         1.45012e+58
          1282.54820	         1.56641e+58
          1283.35450	         1.22318e+58
          1284.16080	         1.10487e+58
          1284.96710	         1.20816e+58
          1285.77340	         9.83384e+57
          1286.57970	         1.03112e+58
          1287.38600	         1.55558e+58
          1288.19230	         1.77178e+58
          1288.99860	         1.73610e+58
          1289.80490	         1.23595e+58
          1290.61120	         1.36888e+58
          1291.41750	         1.53753e+58
          1292.22380	         1.31616e+58
          1293.03010	         1.28057e+58
          1293.83640	         1.21293e+58
          1294.64270	         1.09872e+58
          1295.44900	         7.59999e+57
          1296.25530	         7.05718e+57
          1297.06160	         9.04459e+57
          1297.86790	         1.08266e+58
          1298.67420	         1.10599e+58
          1299.48050	         1.32463e+58
          1300.28680	         1.23999e+58
          1301.09310	         8.97754e+57
          1301.89940	         4.88202e+57
          1302.70570	         6.87852e+57
          1303.51200	         8.99855e+57
          1304.31830	         1.09904e+58
          1305.12460	         1.15390e+58
          1305.93090	         1.12335e+58
          1306.73720	         1.22274e+58
          1307.54350	         1.41829e+58
          1308.34980	         1.48749e+58
          1309.15610	         1.48739e+58
          1309.96240	         1.43449e+58
          1310.76870	         1.15589e+58
          1311.57500	         9.57872e+57
          1312.38130	         1.17306e+58
          1313.18760	         1.51186e+58
          1313.99390	         1.41273e+58
          1314.80020	         1.55127e+58
          1315.60650	         1.75572e+58
          1316.41280	         1.46749e+58
          1317.21910	         1.04889e+58
          1318.02540	         1.28193e+58
          1318.83170	         1.46984e+58
          1319.63800	         1.29326e+58
          1320.44430	         1.23540e+58
          1321.25060	         1.31434e+58
          1322.05690	         1.44053e+58
          1322.86320	         1.33326e+58
          1323.66950	         1.08466e+58
          1324.47580	         9.23704e+57
          1325.28210	         1.02493e+58
          1326.08840	         1.24380e+58
          1326.89470	         1.43057e+58
          1327.70100	         1.29670e+58
          1328.50730	         9.54647e+57
          1329.31360	         8.78902e+57
          1330.11990	         1.07353e+58
          1330.92620	         9.41343e+57
          1331.73250	         1.12790e+58
          1332.53880	         1.12710e+58
          1333.34510	         8.99475e+57
          1334.15140	         9.18504e+57
          1334.95770	         9.48450e+57
          1335.76400	         1.02238e+58
          1336.57030	         1.02767e+58
          1337.37660	         1.08969e+58
          1338.18290	         1.16278e+58
          1338.98920	         1.13476e+58
          1339.79550	         1.05665e+58
          1340.60180	         1.09638e+58
          1341.40810	         1.36454e+58
          1342.21440	         1.23514e+58
          1343.02070	         1.24201e+58
          1343.82700	         1.41039e+58
          1344.63330	         1.37203e+58
          1345.43960	         1.62958e+58
          1346.24590	         1.13081e+58
          1347.05220	         1.13946e+58
          1347.85850	         1.07914e+58
          1348.66480	         1.16181e+58
          1349.47110	         1.31536e+58
          1350.27740	         1.09505e+58
          1351.08370	         1.20343e+58
          1351.89000	         1.39005e+58
          1352.69630	         1.34179e+58
          1353.50260	         1.33231e+58
          1354.30890	         1.29344e+58
          1355.11520	         1.22644e+58
          1355.92150	         1.05412e+58
          1356.72780	         1.00753e+58
          1357.53410	         1.13534e+58
          1358.34040	         1.19090e+58
          1359.14670	         1.09912e+58
          1359.95300	         1.16023e+58
          1360.75930	         1.30516e+58
          1361.56560	         1.23475e+58
          1362.37190	         1.21962e+58
          1363.17820	         1.23762e+58
          1363.98450	         1.27255e+58
          1364.79080	         1.18003e+58
          1365.59710	         1.26096e+58
          1366.40340	         1.25009e+58
          1367.20970	         1.01250e+58
          1368.01600	         9.58515e+57
          1368.82230	         1.03304e+58
          1369.62860	         1.18876e+58
          1370.43490	         9.40208e+57
          1371.24120	         8.04047e+57
          1372.04750	         7.35011e+57
          1372.85380	         1.03561e+58
          1373.66010	         1.19099e+58
          1374.46640	         1.19220e+58
          1375.27270	         1.04706e+58
          1376.07900	         8.72504e+57
          1376.88530	         7.64694e+57
          1377.69160	         7.76255e+57
          1378.49790	         8.50613e+57
          1379.30420	         9.20756e+57
          1380.11050	         1.05822e+58
          1380.91680	         8.99369e+57
          1381.72310	         7.95395e+57
          1382.52940	         8.37101e+57
          1383.33570	         8.49574e+57
          1384.14200	         9.49111e+57
          1384.94830	         1.05129e+58
          1385.75460	         1.05496e+58
          1386.56090	         1.18190e+58
          1387.36720	         9.93685e+57
          1388.17350	         1.16354e+58
          1388.97980	         1.21455e+58
          1389.78610	         1.06744e+58
          1390.59240	         8.02883e+57
          1391.39870	         7.36859e+57
          1392.20500	         7.66574e+57
          1393.01130	         7.18909e+57
          1393.81760	         6.49749e+57
          1394.62390	         7.42606e+57
          1395.43020	         7.65590e+57
          1396.23650	         6.18462e+57
          1397.04280	         7.60189e+57
          1397.84910	         8.33369e+57
          1398.65540	         9.11823e+57
          1399.46170	         1.02967e+58
          1400.26800	         7.46503e+57
          1401.07430	         6.01463e+57
          1401.88060	         8.58329e+57
          1402.68690	         9.09356e+57
          1403.49320	         9.34666e+57
          1404.29950	         1.03974e+58
          1405.10580	         1.18317e+58
          1405.91210	         1.33190e+58
          1406.71840	         1.14562e+58
          1407.52470	         1.08235e+58
          1408.33100	         1.05207e+58
          1409.13730	         1.11986e+58
          1409.94360	         1.18542e+58
          1410.74990	         1.17602e+58
          1411.55620	         1.02705e+58
          1412.36250	         9.65730e+57
          1413.16880	         9.72172e+57
          1413.97510	         8.65362e+57
          1414.78140	         8.22251e+57
          1415.58770	         1.20657e+58
          1416.39400	         1.37680e+58
          1417.20030	         1.19353e+58
          1418.00660	         9.52805e+57
          1418.81290	         9.44456e+57
          1419.61920	         1.08924e+58
          1420.42550	         1.26403e+58
          1421.23180	         1.36251e+58
          1422.03810	         1.35848e+58
          1422.84440	         1.38363e+58
          1423.65070	         1.35533e+58
          1424.45700	         1.21301e+58
          1425.26330	         9.16687e+57
          1426.06960	         8.98579e+57
          1426.87590	         9.93559e+57
          1427.68220	         1.05219e+58
          1428.48850	         1.16946e+58
          1429.29480	         1.13709e+58
          1430.10110	         1.06168e+58
          1430.90740	         9.33432e+57
          1431.71370	         9.57660e+57
          1432.52000	         9.82175e+57
          1433.32630	         8.56510e+57
          1434.13260	         8.15909e+57
          1434.93890	         8.60258e+57
          1435.74520	         9.01208e+57
          1436.55150	         1.00738e+58
          1437.35780	         9.96812e+57
          1438.16410	         1.03813e+58
          1438.97040	         1.02122e+58
          1439.77670	         8.69912e+57
          1440.58300	         9.59757e+57
          1441.38930	         1.05605e+58
          1442.19560	         1.05138e+58
          1443.00190	         1.01922e+58
          1443.80820	         1.10858e+58
          1444.61450	         1.12501e+58
          1445.42080	         9.14350e+57
          1446.22710	         1.04401e+58
          1447.03340	         9.68675e+57
          1447.83970	         1.13090e+58
          1448.64600	         1.21471e+58
          1449.45230	         1.01391e+58
          1450.25860	         9.84386e+57
          1451.06490	         8.94271e+57
          1451.87120	         8.46145e+57
          1452.67750	         7.92709e+57
          1453.48380	         8.35185e+57
          1454.29010	         8.66788e+57
          1455.09640	         9.11671e+57
          1455.90270	         9.58239e+57
          1456.70900	         8.67885e+57
          1457.51530	         9.43946e+57
          1458.32160	         1.30612e+58
          1459.12790	         1.41550e+58
          1459.93420	         1.09547e+58
          1460.74050	         8.45362e+57
          1461.54680	         8.03762e+57
          1462.35310	         9.09104e+57
          1463.15940	         1.10906e+58
          1463.96570	         1.25190e+58
          1464.77200	         1.23947e+58
          1465.57830	         1.12646e+58
          1466.38460	         9.85594e+57
          1467.19090	         8.97837e+57
          1467.99720	         8.25499e+57
          1468.80350	         9.03947e+57
          1469.60980	         9.97875e+57
          1470.41610	         1.12299e+58
          1471.22240	         1.03028e+58
          1472.02870	         9.84643e+57
          1472.83500	         1.04163e+58
          1473.64130	         1.02935e+58
          1474.44760	         9.40891e+57
          1475.25390	         1.02688e+58
          1476.06020	         1.04039e+58
          1476.86650	         9.29892e+57
          1477.67280	         8.47422e+57
          1478.47910	         7.32047e+57
          1479.28540	         7.22987e+57
          1480.09170	         7.85327e+57
          1480.89800	         8.29055e+57
          1481.70430	         1.00080e+58
          1482.51060	         9.02068e+57
          1483.31690	         6.97269e+57
          1484.12320	         8.24606e+57
          1484.92950	         9.04072e+57
          1485.73580	         9.09576e+57
          1486.54210	         8.70194e+57
          1487.34840	         9.58786e+57
          1488.15470	         8.74357e+57
          1488.96100	         7.92124e+57
          1489.76730	         8.81261e+57
