#sample_168_stacked_spectrum_rest_UV-bands_median_H-alpha_noDC.txt
#median Lum: 1.67948e+42
#Rest-frame wavelength (A) | Luminosity (erg/s/A)
#
          1110.00000	         0.00000e+00
          1110.80630	        -1.88411e+59
          1111.61260	         2.70990e+59
          1112.41890	         5.69786e+58
          1113.22520	         1.08549e+59
          1114.03150	        -4.88328e+57
          1114.83780	         2.11186e+59
          1115.64410	         2.37547e+59
          1116.45040	         5.95322e+58
          1117.25670	         1.41373e+59
          1118.06300	         4.22928e+58
          1118.86930	         2.28208e+58
          1119.67560	         4.46045e+58
          1120.48190	        -8.03927e+57
          1121.28820	        -1.07066e+59
          1122.09450	        -6.50998e+58
          1122.90080	         2.18561e+58
          1123.70710	         3.19444e+58
          1124.51340	         1.00883e+59
          1125.31970	        -2.71472e+58
          1126.12600	        -9.01362e+56
          1126.93230	        -8.16858e+57
          1127.73860	        -6.40851e+58
          1128.54490	         2.23532e+58
          1129.35120	         5.27813e+58
          1130.15750	        -1.74004e+58
          1130.96380	        -3.59195e+58
          1131.77010	         2.54771e+58
          1132.57640	         3.25863e+58
          1133.38270	         4.79442e+58
          1134.18900	         2.25685e+57
          1134.99530	        -1.65809e+58
          1135.80160	         1.38346e+58
          1136.60790	         2.46755e+58
          1137.41420	        -1.84460e+58
          1138.22050	         1.88550e+58
          1139.02680	         4.54339e+58
          1139.83310	         2.56624e+58
          1140.63940	         1.34630e+58
          1141.44570	        -1.69675e+58
          1142.25200	        -7.17827e+57
          1143.05830	         2.89810e+58
          1143.86460	         4.38047e+58
          1144.67090	         3.00531e+58
          1145.47720	         1.46598e+58
          1146.28350	         8.75965e+56
          1147.08980	         9.53058e+57
          1147.89610	         2.26858e+58
          1148.70240	         2.05874e+58
          1149.50870	         2.83648e+58
          1150.31500	         2.45517e+58
          1151.12130	         1.91485e+58
          1151.92760	         9.56052e+57
          1152.73390	         1.02407e+58
          1153.54020	         1.22063e+58
          1154.34650	         2.49699e+58
          1155.15280	         1.99094e+58
          1155.95910	         2.02226e+58
          1156.76540	         5.12829e+57
          1157.57170	        -4.64101e+57
          1158.37800	        -5.93214e+57
          1159.18430	        -4.27437e+57
          1159.99060	         2.68833e+57
          1160.79690	         2.71451e+56
          1161.60320	         2.09966e+58
          1162.40950	         1.19261e+58
          1163.21580	         2.80308e+58
          1164.02210	         1.67548e+58
          1164.82840	         1.07250e+58
          1165.63470	         1.90992e+58
          1166.44100	         3.50326e+58
          1167.24730	         1.90641e+58
          1168.05360	         1.23660e+58
          1168.85990	         9.66568e+57
          1169.66620	         7.50420e+57
          1170.47250	         8.41998e+57
          1171.27880	         8.65169e+57
          1172.08510	         7.43655e+57
          1172.89140	         4.90075e+57
          1173.69770	         5.89954e+57
          1174.50400	         8.32906e+57
          1175.31030	         1.61076e+58
          1176.11660	         1.78793e+58
          1176.92290	         1.67345e+58
          1177.72920	         1.17841e+58
          1178.53550	         6.87148e+57
          1179.34180	         4.70269e+57
          1180.14810	         7.96112e+57
          1180.95440	         1.04345e+58
          1181.76070	         6.66138e+57
          1182.56700	         2.90669e+57
          1183.37330	         1.85552e+57
          1184.17960	         1.10318e+58
          1184.98590	         1.17585e+58
          1185.79220	         6.89055e+57
          1186.59850	         7.27569e+57
          1187.40480	         5.77273e+57
          1188.21110	         1.09788e+58
          1189.01740	         1.39718e+58
          1189.82370	         8.09630e+57
          1190.63000	         1.74051e+58
          1191.43630	         1.64338e+58
          1192.24260	         7.46484e+57
          1193.04890	         1.06040e+58
          1193.85520	         1.05023e+58
          1194.66150	         2.12769e+57
          1195.46780	         7.73869e+57
          1196.27410	         1.47699e+58
          1197.08040	         1.06852e+58
          1197.88670	         1.18667e+58
          1198.69300	         1.28049e+58
          1199.49930	         1.64053e+58
          1200.30560	         1.37030e+58
          1201.11190	         1.17423e+58
          1201.91820	         1.02811e+58
          1202.72450	         1.32227e+58
          1203.53080	         1.49415e+58
          1204.33710	         6.66864e+57
          1205.14340	         6.84061e+57
          1205.94970	         7.38497e+57
          1206.75600	         6.82239e+57
          1207.56230	         4.80963e+57
          1208.36860	         9.77420e+57
          1209.17490	         3.10934e+57
          1209.98120	         5.62921e+57
          1210.78750	         1.16970e+58
          1211.59380	         1.25444e+58
          1212.40010	         1.89151e+58
          1213.20640	         1.74572e+58
          1214.01270	         1.75671e+58
          1214.81900	         2.72458e+58
          1215.62530	         4.55479e+58
          1216.43160	         9.02537e+58
          1217.23790	         1.50867e+59
          1218.04420	         1.16618e+59
          1218.85050	         8.91525e+58
          1219.65680	         5.89297e+58
          1220.46310	         3.23542e+58
          1221.26940	         2.02578e+58
          1222.07570	         1.20731e+58
          1222.88200	         1.53105e+58
          1223.68830	         1.03865e+58
          1224.49460	         4.88932e+57
          1225.30090	         5.32042e+57
          1226.10720	         8.73609e+57
          1226.91350	         7.06748e+57
          1227.71980	         8.61617e+57
          1228.52610	         1.15487e+58
          1229.33240	         8.37048e+57
          1230.13870	         7.72508e+57
          1230.94500	         9.10835e+57
          1231.75130	         8.52485e+57
          1232.55760	         9.11069e+57
          1233.36390	         7.22389e+57
          1234.17020	         7.69020e+57
          1234.97650	         7.93958e+57
          1235.78280	         7.77155e+57
          1236.58910	         9.07191e+57
          1237.39540	         9.67379e+57
          1238.20170	         7.85094e+57
          1239.00800	         1.37446e+58
          1239.81430	         1.81888e+58
          1240.62060	         1.13742e+58
          1241.42690	         1.00852e+58
          1242.23320	         1.06388e+58
          1243.03950	         7.63072e+57
          1243.84580	         7.32054e+57
          1244.65210	         8.62709e+57
          1245.45840	         1.10048e+58
          1246.26470	         1.19901e+58
          1247.07100	         7.61934e+57
          1247.87730	         7.10690e+57
          1248.68360	         3.34830e+57
          1249.48990	         7.04188e+57
          1250.29620	         9.61304e+57
          1251.10250	         9.07839e+57
          1251.90880	         7.59732e+57
          1252.71510	         6.87428e+57
          1253.52140	         7.32577e+57
          1254.32770	         8.86854e+57
          1255.13400	         1.18739e+58
          1255.94030	         1.09159e+58
          1256.74660	         1.04473e+58
          1257.55290	         1.28395e+58
          1258.35920	         9.82854e+57
          1259.16550	         3.64918e+57
          1259.97180	         4.07979e+57
          1260.77810	         7.79811e+57
          1261.58440	         9.78537e+57
          1262.39070	         7.71049e+57
          1263.19700	         8.21648e+57
          1264.00330	         9.43981e+57
          1264.80960	         1.02516e+58
          1265.61590	         1.12469e+58
          1266.42220	         1.13139e+58
          1267.22850	         9.66362e+57
          1268.03480	         1.20507e+58
          1268.84110	         1.36942e+58
          1269.64740	         1.30251e+58
          1270.45370	         1.24190e+58
          1271.26000	         1.12989e+58
          1272.06630	         1.14896e+58
          1272.87260	         1.14753e+58
          1273.67890	         1.36182e+58
          1274.48520	         1.37228e+58
          1275.29150	         1.01956e+58
          1276.09780	         1.01639e+58
          1276.90410	         1.53052e+58
          1277.71040	         1.46481e+58
          1278.51670	         1.24104e+58
          1279.32300	         1.40963e+58
          1280.12930	         1.24427e+58
          1280.93560	         1.14366e+58
          1281.74190	         1.18211e+58
          1282.54820	         1.22664e+58
          1283.35450	         1.18383e+58
          1284.16080	         1.36490e+58
          1284.96710	         1.59061e+58
          1285.77340	         1.26108e+58
          1286.57970	         1.18498e+58
          1287.38600	         1.47120e+58
          1288.19230	         1.63035e+58
          1288.99860	         1.31655e+58
          1289.80490	         9.72405e+57
          1290.61120	         1.38816e+58
          1291.41750	         1.40208e+58
          1292.22380	         1.14413e+58
          1293.03010	         1.03516e+58
          1293.83640	         1.25305e+58
          1294.64270	         1.11977e+58
          1295.44900	         7.52039e+57
          1296.25530	         7.14238e+57
          1297.06160	         9.32156e+57
          1297.86790	         8.82988e+57
          1298.67420	         9.23236e+57
          1299.48050	         1.13745e+58
          1300.28680	         1.20286e+58
          1301.09310	         1.03458e+58
          1301.89940	         5.24641e+57
          1302.70570	         5.49990e+57
          1303.51200	         6.55716e+57
          1304.31830	         8.91757e+57
          1305.12460	         1.24968e+58
          1305.93090	         1.34747e+58
          1306.73720	         1.37120e+58
          1307.54350	         1.44479e+58
          1308.34980	         1.46621e+58
          1309.15610	         1.58586e+58
          1309.96240	         1.60991e+58
          1310.76870	         1.48179e+58
          1311.57500	         1.41316e+58
          1312.38130	         1.35782e+58
          1313.18760	         1.47933e+58
          1313.99390	         1.47498e+58
          1314.80020	         1.52572e+58
          1315.60650	         1.40995e+58
          1316.41280	         1.12254e+58
          1317.21910	         9.20708e+57
          1318.02540	         1.22147e+58
          1318.83170	         1.37663e+58
          1319.63800	         1.21756e+58
          1320.44430	         1.21126e+58
          1321.25060	         1.42491e+58
          1322.05690	         1.22012e+58
          1322.86320	         1.12959e+58
          1323.66950	         1.20563e+58
          1324.47580	         1.05854e+58
          1325.28210	         1.04437e+58
          1326.08840	         1.13455e+58
          1326.89470	         1.26930e+58
          1327.70100	         9.03149e+57
          1328.50730	         8.56034e+57
          1329.31360	         1.16098e+58
          1330.11990	         1.05597e+58
          1330.92620	         8.63286e+57
          1331.73250	         1.08696e+58
          1332.53880	         1.00681e+58
          1333.34510	         8.30499e+57
          1334.15140	         9.75313e+57
          1334.95770	         9.47757e+57
          1335.76400	         1.04877e+58
          1336.57030	         1.10426e+58
          1337.37660	         1.10845e+58
          1338.18290	         1.11190e+58
          1338.98920	         1.05387e+58
          1339.79550	         1.12261e+58
          1340.60180	         1.39190e+58
          1341.40810	         1.44885e+58
          1342.21440	         1.19018e+58
          1343.02070	         1.30749e+58
          1343.82700	         1.32184e+58
          1344.63330	         1.33153e+58
          1345.43960	         1.52457e+58
          1346.24590	         1.26180e+58
          1347.05220	         1.32012e+58
          1347.85850	         1.21535e+58
          1348.66480	         1.29334e+58
          1349.47110	         1.29406e+58
          1350.27740	         1.29390e+58
          1351.08370	         1.26929e+58
          1351.89000	         1.26516e+58
          1352.69630	         1.19014e+58
          1353.50260	         1.21966e+58
          1354.30890	         1.28759e+58
          1355.11520	         1.23309e+58
          1355.92150	         1.10274e+58
          1356.72780	         1.15998e+58
          1357.53410	         1.17850e+58
          1358.34040	         1.24572e+58
          1359.14670	         1.15079e+58
          1359.95300	         1.15619e+58
          1360.75930	         1.20119e+58
          1361.56560	         1.14397e+58
          1362.37190	         1.19849e+58
          1363.17820	         1.16724e+58
          1363.98450	         1.23204e+58
          1364.79080	         1.30128e+58
          1365.59710	         1.38863e+58
          1366.40340	         1.17288e+58
          1367.20970	         9.01150e+57
          1368.01600	         1.08738e+58
          1368.82230	         9.95126e+57
          1369.62860	         1.08392e+58
          1370.43490	         9.93241e+57
          1371.24120	         8.62178e+57
          1372.04750	         8.72008e+57
          1372.85380	         1.09883e+58
          1373.66010	         1.11901e+58
          1374.46640	         1.00981e+58
          1375.27270	         1.02678e+58
          1376.07900	         9.34243e+57
          1376.88530	         1.00247e+58
          1377.69160	         1.04815e+58
          1378.49790	         8.08897e+57
          1379.30420	         8.03905e+57
          1380.11050	         9.61887e+57
          1380.91680	         8.61628e+57
          1381.72310	         7.73169e+57
          1382.52940	         7.96377e+57
          1383.33570	         1.01721e+58
          1384.14200	         1.14004e+58
          1384.94830	         1.07748e+58
          1385.75460	         1.05839e+58
          1386.56090	         1.21707e+58
          1387.36720	         1.20018e+58
          1388.17350	         1.30496e+58
          1388.97980	         1.25360e+58
          1389.78610	         1.08876e+58
          1390.59240	         8.57929e+57
          1391.39870	         7.41503e+57
          1392.20500	         8.16746e+57
          1393.01130	         7.71937e+57
          1393.81760	         6.43393e+57
          1394.62390	         6.92897e+57
          1395.43020	         7.13066e+57
          1396.23650	         6.45066e+57
          1397.04280	         7.71395e+57
          1397.84910	         9.84723e+57
          1398.65540	         1.02036e+58
          1399.46170	         9.70818e+57
          1400.26800	         8.84385e+57
          1401.07430	         8.23146e+57
          1401.88060	         8.83657e+57
          1402.68690	         1.03347e+58
          1403.49320	         1.01675e+58
          1404.29950	         9.16610e+57
          1405.10580	         1.04166e+58
          1405.91210	         1.23081e+58
          1406.71840	         1.20830e+58
          1407.52470	         1.13745e+58
          1408.33100	         1.05477e+58
          1409.13730	         1.02086e+58
          1409.94360	         1.14241e+58
          1410.74990	         1.18804e+58
          1411.55620	         1.11335e+58
          1412.36250	         9.48613e+57
          1413.16880	         8.29332e+57
          1413.97510	         8.81394e+57
          1414.78140	         1.00295e+58
          1415.58770	         1.08353e+58
          1416.39400	         9.99897e+57
          1417.20030	         1.05701e+58
          1418.00660	         1.04054e+58
          1418.81290	         1.01695e+58
          1419.61920	         9.13712e+57
          1420.42550	         1.23672e+58
          1421.23180	         1.59245e+58
          1422.03810	         1.29035e+58
          1422.84440	         1.06211e+58
          1423.65070	         1.21010e+58
          1424.45700	         1.08505e+58
          1425.26330	         7.94693e+57
          1426.06960	         9.22625e+57
          1426.87590	         1.08569e+58
          1427.68220	         1.11446e+58
          1428.48850	         1.13605e+58
          1429.29480	         1.05990e+58
          1430.10110	         9.67256e+57
          1430.90740	         8.53851e+57
          1431.71370	         9.36610e+57
          1432.52000	         8.93105e+57
          1433.32630	         8.04742e+57
          1434.13260	         7.81092e+57
          1434.93890	         8.15101e+57
          1435.74520	         8.78613e+57
          1436.55150	         9.90618e+57
          1437.35780	         9.74941e+57
          1438.16410	         9.18260e+57
          1438.97040	         9.76622e+57
          1439.77670	         1.00356e+58
          1440.58300	         8.91169e+57
          1441.38930	         9.47726e+57
          1442.19560	         9.55149e+57
          1443.00190	         9.98156e+57
          1443.80820	         1.00779e+58
          1444.61450	         1.00056e+58
          1445.42080	         8.62905e+57
          1446.22710	         8.62565e+57
          1447.03340	         9.03484e+57
          1447.83970	         9.94441e+57
          1448.64600	         1.08511e+58
          1449.45230	         1.11470e+58
          1450.25860	         1.05134e+58
          1451.06490	         9.61338e+57
          1451.87120	         8.52017e+57
          1452.67750	         7.47414e+57
          1453.48380	         8.69268e+57
          1454.29010	         8.73994e+57
          1455.09640	         7.84775e+57
          1455.90270	         7.98331e+57
          1456.70900	         7.86148e+57
          1457.51530	         9.93445e+57
          1458.32160	         1.23799e+58
          1459.12790	         1.12928e+58
          1459.93420	         1.11511e+58
          1460.74050	         8.92788e+57
          1461.54680	         8.63251e+57
          1462.35310	         8.73683e+57
          1463.15940	         1.08567e+58
          1463.96570	         1.30927e+58
          1464.77200	         1.27592e+58
          1465.57830	         1.07783e+58
          1466.38460	         9.43826e+57
          1467.19090	         8.43550e+57
          1467.99720	         8.21744e+57
          1468.80350	         9.12540e+57
          1469.60980	         1.01529e+58
          1470.41610	         1.07673e+58
          1471.22240	         9.91058e+57
          1472.02870	         9.41790e+57
          1472.83500	         9.49609e+57
          1473.64130	         9.50906e+57
          1474.44760	         1.11077e+58
          1475.25390	         9.42443e+57
          1476.06020	         8.64424e+57
          1476.86650	         8.69328e+57
          1477.67280	         7.81787e+57
          1478.47910	         6.02008e+57
          1479.28540	         6.30299e+57
          1480.09170	         7.28310e+57
          1480.89800	         9.08129e+57
          1481.70430	         9.66856e+57
          1482.51060	         8.29664e+57
          1483.31690	         7.82166e+57
          1484.12320	         7.98123e+57
          1484.92950	         7.82988e+57
          1485.73580	         7.74735e+57
          1486.54210	         8.19070e+57
          1487.34840	         8.75424e+57
          1488.15470	         8.24571e+57
          1488.96100	         9.02796e+57
          1489.76730	         8.88587e+57
