#sample_22_stacked_spectrum_rest_UV-bands_median_H-alpha_noDC.txt
#median Lum: 1.69763e+42
#Rest-frame wavelength (A) | Luminosity (erg/s/A)
#
          1110.00000	         0.00000e+00
          1110.80630	         2.78893e+59
          1111.61260	         1.28363e+59
          1112.41890	         1.57105e+58
          1113.22520	        -1.88404e+59
          1114.03150	        -3.35110e+59
          1114.83780	         1.61984e+59
          1115.64410	         9.43879e+58
          1116.45040	         1.39136e+59
          1117.25670	         4.72794e+58
          1118.06300	         1.56020e+59
          1118.86930	         2.05860e+58
          1119.67560	        -3.92725e+58
          1120.48190	        -3.67187e+58
          1121.28820	        -1.47493e+59
          1122.09450	        -3.64641e+58
          1122.90080	         9.36146e+58
          1123.70710	         1.18697e+59
          1124.51340	         8.46443e+58
          1125.31970	         1.59665e+58
          1126.12600	         1.68630e+58
          1126.93230	         1.35615e+58
          1127.73860	        -4.08054e+58
          1128.54490	         3.14533e+58
          1129.35120	         5.46207e+58
          1130.15750	        -3.08711e+58
          1130.96380	        -4.12643e+58
          1131.77010	         6.79689e+58
          1132.57640	         7.66820e+58
          1133.38270	         4.54032e+58
          1134.18900	         2.95026e+58
          1134.99530	         1.13484e+58
          1135.80160	         1.96377e+58
          1136.60790	         1.44880e+57
          1137.41420	        -2.26349e+58
          1138.22050	         2.41039e+58
          1139.02680	         2.84232e+58
          1139.83310	         1.50417e+58
          1140.63940	         7.64805e+57
          1141.44570	        -1.64517e+58
          1142.25200	        -4.39283e+57
          1143.05830	         1.17649e+58
          1143.86460	         9.61715e+57
          1144.67090	        -1.33286e+58
          1145.47720	         1.40132e+57
          1146.28350	         7.72253e+57
          1147.08980	         2.90265e+57
          1147.89610	         3.43123e+57
          1148.70240	         1.66128e+58
          1149.50870	         3.16782e+58
          1150.31500	         1.45131e+58
          1151.12130	         8.95952e+57
          1151.92760	         5.01043e+57
          1152.73390	         3.93787e+57
          1153.54020	         9.13934e+57
          1154.34650	         2.35959e+58
          1155.15280	         1.66865e+58
          1155.95910	         2.79433e+57
          1156.76540	         1.32610e+58
          1157.57170	         7.74933e+57
          1158.37800	         2.07651e+57
          1159.18430	        -4.70775e+57
          1159.99060	        -6.24225e+56
          1160.79690	         1.11754e+58
          1161.60320	         1.90526e+58
          1162.40950	         1.63875e+58
          1163.21580	         2.20437e+58
          1164.02210	         1.91715e+58
          1164.82840	         7.63973e+57
          1165.63470	         2.06766e+58
          1166.44100	         2.63707e+58
          1167.24730	         2.32532e+58
          1168.05360	         1.15485e+58
          1168.85990	         9.72904e+57
          1169.66620	         2.64757e+57
          1170.47250	         3.73067e+57
          1171.27880	         3.31602e+57
          1172.08510	         2.52360e+57
          1172.89140	         7.49576e+57
          1173.69770	         7.32880e+57
          1174.50400	         1.84224e+58
          1175.31030	         2.32746e+58
          1176.11660	         2.25053e+58
          1176.92290	         1.58249e+58
          1177.72920	         6.77321e+57
          1178.53550	         7.57246e+57
          1179.34180	         1.31257e+58
          1180.14810	         1.25554e+58
          1180.95440	         9.58886e+57
          1181.76070	         8.54396e+57
          1182.56700	         7.75575e+57
          1183.37330	         8.94492e+57
          1184.17960	         1.44113e+58
          1184.98590	         1.48615e+58
          1185.79220	         8.11458e+57
          1186.59850	         1.19604e+58
          1187.40480	         1.59693e+58
          1188.21110	         1.37408e+58
          1189.01740	         8.50561e+57
          1189.82370	         4.27368e+57
          1190.63000	         1.21637e+58
          1191.43630	         1.78929e+58
          1192.24260	         2.73088e+57
          1193.04890	         9.72055e+57
          1193.85520	         1.13102e+58
          1194.66150	         1.11319e+58
          1195.46780	         1.70218e+58
          1196.27410	         1.11544e+58
          1197.08040	         7.44171e+57
          1197.88670	         1.16620e+58
          1198.69300	         1.26343e+58
          1199.49930	         1.28970e+58
          1200.30560	         1.14043e+58
          1201.11190	         1.08752e+58
          1201.91820	         6.82361e+57
          1202.72450	         1.07762e+58
          1203.53080	         1.79772e+58
          1204.33710	         1.08398e+58
          1205.14340	         8.07849e+57
          1205.94970	         8.22916e+57
          1206.75600	         5.30102e+57
          1207.56230	         2.36883e+57
          1208.36860	         8.79002e+57
          1209.17490	         3.91570e+57
          1209.98120	         2.64292e+57
          1210.78750	         8.02801e+57
          1211.59380	         1.19666e+58
          1212.40010	         1.93981e+58
          1213.20640	         2.00483e+58
          1214.01270	         1.87280e+58
          1214.81900	         2.45713e+58
          1215.62530	         4.81874e+58
          1216.43160	         9.42877e+58
          1217.23790	         1.54475e+59
          1218.04420	         1.14213e+59
          1218.85050	         8.41026e+58
          1219.65680	         5.52950e+58
          1220.46310	         3.36948e+58
          1221.26940	         2.38543e+58
          1222.07570	         1.50689e+58
          1222.88200	         1.41274e+58
          1223.68830	         1.16509e+58
          1224.49460	         9.11467e+57
          1225.30090	         6.99479e+57
          1226.10720	         5.39215e+57
          1226.91350	         4.90438e+57
          1227.71980	         7.98384e+57
          1228.52610	         1.15997e+58
          1229.33240	         6.14715e+57
          1230.13870	         7.81189e+57
          1230.94500	         9.59171e+57
          1231.75130	         7.41744e+57
          1232.55760	         9.52114e+57
          1233.36390	         8.87508e+57
          1234.17020	         8.19088e+57
          1234.97650	         8.77490e+57
          1235.78280	         9.13119e+57
          1236.58910	         5.59127e+57
          1237.39540	         6.97070e+57
          1238.20170	         9.17079e+57
          1239.00800	         1.20196e+58
          1239.81430	         1.30637e+58
          1240.62060	         9.08001e+57
          1241.42690	         9.09279e+57
          1242.23320	         1.04163e+58
          1243.03950	         8.04995e+57
          1243.84580	         9.23962e+57
          1244.65210	         1.29322e+58
          1245.45840	         1.24966e+58
          1246.26470	         9.10468e+57
          1247.07100	         5.13991e+57
          1247.87730	         5.68234e+57
          1248.68360	         4.69400e+57
          1249.48990	         8.99030e+57
          1250.29620	         1.00987e+58
          1251.10250	         6.31344e+57
          1251.90880	         4.54462e+57
          1252.71510	         5.12061e+57
          1253.52140	         4.93682e+57
          1254.32770	         9.08963e+57
          1255.13400	         1.36833e+58
          1255.94030	         1.09527e+58
          1256.74660	         9.23861e+57
          1257.55290	         8.52573e+57
          1258.35920	         9.12657e+57
          1259.16550	         6.88428e+57
          1259.97180	         5.06245e+57
          1260.77810	         7.76352e+57
          1261.58440	         1.00891e+58
          1262.39070	         9.28986e+57
          1263.19700	         9.10710e+57
          1264.00330	         9.58636e+57
          1264.80960	         1.31001e+58
          1265.61590	         1.35197e+58
          1266.42220	         1.01129e+58
          1267.22850	         1.00191e+58
          1268.03480	         1.30769e+58
          1268.84110	         1.44787e+58
          1269.64740	         1.30473e+58
          1270.45370	         1.37142e+58
          1271.26000	         1.07375e+58
          1272.06630	         1.00416e+58
          1272.87260	         1.10347e+58
          1273.67890	         1.27496e+58
          1274.48520	         1.24672e+58
          1275.29150	         1.24916e+58
          1276.09780	         1.10893e+58
          1276.90410	         1.17366e+58
          1277.71040	         1.24461e+58
          1278.51670	         1.23742e+58
          1279.32300	         1.29845e+58
          1280.12930	         1.14970e+58
          1280.93560	         1.03648e+58
          1281.74190	         1.19212e+58
          1282.54820	         1.16432e+58
          1283.35450	         1.10198e+58
          1284.16080	         1.16719e+58
          1284.96710	         1.41266e+58
          1285.77340	         1.31710e+58
          1286.57970	         1.24899e+58
          1287.38600	         1.59981e+58
          1288.19230	         1.73303e+58
          1288.99860	         1.40429e+58
          1289.80490	         1.12744e+58
          1290.61120	         1.30719e+58
          1291.41750	         1.42433e+58
          1292.22380	         1.24730e+58
          1293.03010	         1.06770e+58
          1293.83640	         1.19958e+58
          1294.64270	         1.05149e+58
          1295.44900	         7.17254e+57
          1296.25530	         7.68078e+57
          1297.06160	         9.67112e+57
          1297.86790	         1.07743e+58
          1298.67420	         9.46561e+57
          1299.48050	         1.07636e+58
          1300.28680	         1.02691e+58
          1301.09310	         5.77071e+57
          1301.89940	         2.51867e+57
          1302.70570	         5.06219e+57
          1303.51200	         7.08120e+57
          1304.31830	         8.98969e+57
          1305.12460	         9.49853e+57
          1305.93090	         1.01373e+58
          1306.73720	         1.17819e+58
          1307.54350	         1.30894e+58
          1308.34980	         1.42467e+58
          1309.15610	         1.43198e+58
          1309.96240	         1.44772e+58
          1310.76870	         1.35342e+58
          1311.57500	         1.21215e+58
          1312.38130	         1.12880e+58
          1313.18760	         1.14212e+58
          1313.99390	         1.40227e+58
          1314.80020	         1.75247e+58
          1315.60650	         1.56357e+58
          1316.41280	         1.27511e+58
          1317.21910	         1.13379e+58
          1318.02540	         1.07160e+58
          1318.83170	         1.18516e+58
          1319.63800	         1.20718e+58
          1320.44430	         1.12089e+58
          1321.25060	         1.25169e+58
          1322.05690	         1.34612e+58
          1322.86320	         1.22194e+58
          1323.66950	         1.02928e+58
          1324.47580	         9.01970e+57
          1325.28210	         9.69612e+57
          1326.08840	         1.12828e+58
          1326.89470	         1.29225e+58
          1327.70100	         9.96526e+57
          1328.50730	         6.74148e+57
          1329.31360	         8.04323e+57
          1330.11990	         9.08540e+57
          1330.92620	         9.45969e+57
          1331.73250	         1.12231e+58
          1332.53880	         9.97683e+57
          1333.34510	         9.50204e+57
          1334.15140	         9.26502e+57
          1334.95770	         7.97951e+57
          1335.76400	         9.69198e+57
          1336.57030	         9.94744e+57
          1337.37660	         9.89202e+57
          1338.18290	         9.51799e+57
          1338.98920	         9.08911e+57
          1339.79550	         1.05684e+58
          1340.60180	         1.16886e+58
          1341.40810	         1.29116e+58
          1342.21440	         1.30945e+58
          1343.02070	         1.30881e+58
          1343.82700	         1.29237e+58
          1344.63330	         1.13439e+58
          1345.43960	         9.89451e+57
          1346.24590	         8.80143e+57
          1347.05220	         1.05075e+58
          1347.85850	         9.73376e+57
          1348.66480	         1.20587e+58
          1349.47110	         1.29571e+58
          1350.27740	         1.16325e+58
          1351.08370	         1.02003e+58
          1351.89000	         1.00136e+58
          1352.69630	         1.10200e+58
          1353.50260	         1.20763e+58
          1354.30890	         1.06120e+58
          1355.11520	         1.11072e+58
          1355.92150	         1.11598e+58
          1356.72780	         1.00297e+58
          1357.53410	         1.04985e+58
          1358.34040	         1.03713e+58
          1359.14670	         9.39176e+57
          1359.95300	         1.07171e+58
          1360.75930	         1.20606e+58
          1361.56560	         1.12007e+58
          1362.37190	         1.25316e+58
          1363.17820	         1.11700e+58
          1363.98450	         1.19772e+58
          1364.79080	         1.35155e+58
          1365.59710	         1.37166e+58
          1366.40340	         1.27116e+58
          1367.20970	         1.05567e+58
          1368.01600	         1.05901e+58
          1368.82230	         8.84334e+57
          1369.62860	         9.87518e+57
          1370.43490	         8.64229e+57
          1371.24120	         7.88168e+57
          1372.04750	         7.46028e+57
          1372.85380	         9.51938e+57
          1373.66010	         1.03917e+58
          1374.46640	         1.18891e+58
          1375.27270	         1.27364e+58
          1376.07900	         1.00806e+58
          1376.88530	         8.80708e+57
          1377.69160	         8.37473e+57
          1378.49790	         6.16417e+57
          1379.30420	         7.23709e+57
          1380.11050	         7.99564e+57
          1380.91680	         7.54053e+57
          1381.72310	         8.08629e+57
          1382.52940	         7.63900e+57
          1383.33570	         8.00203e+57
          1384.14200	         9.76464e+57
          1384.94830	         1.06522e+58
          1385.75460	         8.76731e+57
          1386.56090	         8.78617e+57
          1387.36720	         9.37683e+57
          1388.17350	         1.29282e+58
          1388.97980	         1.19473e+58
          1389.78610	         9.94045e+57
          1390.59240	         9.46931e+57
          1391.39870	         7.68084e+57
          1392.20500	         8.45741e+57
          1393.01130	         7.86041e+57
          1393.81760	         6.57206e+57
          1394.62390	         6.53655e+57
          1395.43020	         6.62440e+57
          1396.23650	         6.40568e+57
          1397.04280	         6.40081e+57
          1397.84910	         8.67691e+57
          1398.65540	         8.55878e+57
          1399.46170	         9.07261e+57
          1400.26800	         8.89715e+57
          1401.07430	         7.65789e+57
          1401.88060	         8.78936e+57
          1402.68690	         9.58762e+57
          1403.49320	         1.00313e+58
          1404.29950	         9.44181e+57
          1405.10580	         1.04932e+58
          1405.91210	         1.11502e+58
          1406.71840	         1.09559e+58
          1407.52470	         1.00675e+58
          1408.33100	         9.43948e+57
          1409.13730	         1.03489e+58
          1409.94360	         1.07674e+58
          1410.74990	         9.67609e+57
          1411.55620	         9.64838e+57
          1412.36250	         9.73554e+57
          1413.16880	         9.21775e+57
          1413.97510	         8.26099e+57
          1414.78140	         9.26668e+57
          1415.58770	         1.06570e+58
          1416.39400	         1.05934e+58
          1417.20030	         1.10865e+58
          1418.00660	         9.85684e+57
          1418.81290	         1.08097e+58
          1419.61920	         8.81636e+57
          1420.42550	         1.13049e+58
          1421.23180	         1.31472e+58
          1422.03810	         1.22433e+58
          1422.84440	         1.21185e+58
          1423.65070	         1.29691e+58
          1424.45700	         1.20285e+58
          1425.26330	         9.27836e+57
          1426.06960	         8.74355e+57
          1426.87590	         9.66303e+57
          1427.68220	         9.44833e+57
          1428.48850	         1.02559e+58
          1429.29480	         1.05322e+58
          1430.10110	         9.73580e+57
          1430.90740	         8.28701e+57
          1431.71370	         8.81366e+57
          1432.52000	         8.53683e+57
          1433.32630	         8.38211e+57
          1434.13260	         8.61363e+57
          1434.93890	         9.09316e+57
          1435.74520	         1.08035e+58
          1436.55150	         1.04365e+58
          1437.35780	         8.38321e+57
          1438.16410	         8.97333e+57
          1438.97040	         8.96352e+57
          1439.77670	         8.12814e+57
          1440.58300	         8.88915e+57
          1441.38930	         8.98859e+57
          1442.19560	         9.67769e+57
          1443.00190	         1.04668e+58
          1443.80820	         1.16468e+58
          1444.61450	         1.09632e+58
          1445.42080	         8.42057e+57
          1446.22710	         9.16819e+57
          1447.03340	         9.27337e+57
          1447.83970	         1.00903e+58
          1448.64600	         1.07126e+58
          1449.45230	         1.04355e+58
          1450.25860	         1.10738e+58
          1451.06490	         9.26736e+57
          1451.87120	         7.47576e+57
          1452.67750	         7.18468e+57
          1453.48380	         8.51798e+57
          1454.29010	         7.98541e+57
          1455.09640	         7.23707e+57
          1455.90270	         8.67239e+57
          1456.70900	         8.75672e+57
          1457.51530	         9.32316e+57
          1458.32160	         1.08179e+58
          1459.12790	         1.07776e+58
          1459.93420	         1.04573e+58
          1460.74050	         8.19655e+57
          1461.54680	         7.52998e+57
          1462.35310	         7.60811e+57
          1463.15940	         9.54777e+57
          1463.96570	         1.07234e+58
          1464.77200	         1.09512e+58
          1465.57830	         1.01571e+58
          1466.38460	         9.96730e+57
          1467.19090	         9.22533e+57
          1467.99720	         9.36199e+57
          1468.80350	         9.23105e+57
          1469.60980	         9.23891e+57
          1470.41610	         1.00736e+58
          1471.22240	         1.01703e+58
          1472.02870	         1.02190e+58
          1472.83500	         9.71274e+57
          1473.64130	         9.56942e+57
          1474.44760	         9.90922e+57
          1475.25390	         9.72268e+57
          1476.06020	         9.66329e+57
          1476.86650	         8.48545e+57
          1477.67280	         8.34122e+57
          1478.47910	         7.48629e+57
          1479.28540	         6.71622e+57
          1480.09170	         8.61208e+57
          1480.89800	         9.27663e+57
          1481.70430	         8.02260e+57
          1482.51060	         7.70644e+57
          1483.31690	         7.80865e+57
          1484.12320	         7.91115e+57
          1484.92950	         8.14815e+57
          1485.73580	         8.81567e+57
          1486.54210	         8.99070e+57
          1487.34840	         9.34748e+57
          1488.15470	         8.75975e+57
          1488.96100	         8.46316e+57
          1489.76730	         9.24064e+57
