#sample_269_stacked_spectrum_rest_UV-bands_median_H-alpha_noDC.txt
#median Lum: 1.68314e+42
#Rest-frame wavelength (A) | Luminosity (erg/s/A)
#
          1110.00000	         0.00000e+00
          1110.80630	         3.12219e+59
          1111.61260	         3.41007e+59
          1112.41890	         1.10392e+59
          1113.22520	        -9.09438e+58
          1114.03150	        -1.56198e+59
          1114.83780	         2.17332e+59
          1115.64410	         5.45059e+58
          1116.45040	         9.19609e+58
          1117.25670	         3.04056e+58
          1118.06300	         5.44421e+58
          1118.86930	         3.94507e+58
          1119.67560	         1.55845e+59
          1120.48190	         3.78065e+58
          1121.28820	        -9.93658e+58
          1122.09450	         6.66789e+57
          1122.90080	         6.26307e+58
          1123.70710	         6.34772e+58
          1124.51340	         4.97637e+58
          1125.31970	        -1.53692e+58
          1126.12600	        -1.38833e+58
          1126.93230	        -4.87021e+58
          1127.73860	        -8.64022e+58
          1128.54490	        -1.04792e+58
          1129.35120	         2.44123e+58
          1130.15750	         8.48202e+57
          1130.96380	        -5.42948e+58
          1131.77010	         3.80245e+58
          1132.57640	         3.25489e+58
          1133.38270	         1.50890e+58
          1134.18900	         9.45836e+57
          1134.99530	         1.02042e+58
          1135.80160	         2.42445e+58
          1136.60790	         7.21487e+57
          1137.41420	         7.16591e+57
          1138.22050	         3.44266e+58
          1139.02680	         2.05189e+58
          1139.83310	         1.36913e+58
          1140.63940	         1.39595e+58
          1141.44570	        -2.06899e+58
          1142.25200	        -1.79200e+58
          1143.05830	         1.27003e+58
          1143.86460	         1.70624e+58
          1144.67090	         3.19629e+58
          1145.47720	         9.74763e+57
          1146.28350	         2.02739e+58
          1147.08980	         1.63739e+58
          1147.89610	         1.13323e+58
          1148.70240	         1.34036e+58
          1149.50870	         2.25028e+58
          1150.31500	         2.33600e+58
          1151.12130	         1.31200e+58
          1151.92760	         3.75305e+57
          1152.73390	         1.20089e+58
          1153.54020	         1.29237e+58
          1154.34650	         2.35599e+58
          1155.15280	         1.71708e+58
          1155.95910	         1.04263e+58
          1156.76540	         3.22523e+57
          1157.57170	         4.57309e+57
          1158.37800	         5.35255e+57
          1159.18430	         6.44078e+57
          1159.99060	         1.83988e+57
          1160.79690	        -1.47461e+57
          1161.60320	         5.29413e+56
          1162.40950	         1.47782e+58
          1163.21580	         1.94816e+58
          1164.02210	         1.31765e+58
          1164.82840	         1.08201e+58
          1165.63470	         8.14854e+57
          1166.44100	         2.53294e+58
          1167.24730	         2.80496e+58
          1168.05360	         1.74536e+58
          1168.85990	         1.33378e+58
          1169.66620	         1.55237e+58
          1170.47250	         8.80012e+57
          1171.27880	         9.83335e+57
          1172.08510	         2.17979e+58
          1172.89140	         1.45288e+58
          1173.69770	         4.48182e+57
          1174.50400	         1.31493e+58
          1175.31030	         1.91140e+58
          1176.11660	         2.05779e+58
          1176.92290	         1.69682e+58
          1177.72920	         1.45194e+58
          1178.53550	         9.44807e+57
          1179.34180	         3.76340e+57
          1180.14810	         7.06572e+57
          1180.95440	         6.03050e+57
          1181.76070	         4.68861e+57
          1182.56700	         1.21666e+58
          1183.37330	         6.97680e+57
          1184.17960	         9.47292e+57
          1184.98590	         1.12909e+58
          1185.79220	         9.82549e+57
          1186.59850	         7.45630e+57
          1187.40480	         5.93531e+57
          1188.21110	         1.17284e+58
          1189.01740	         1.27976e+58
          1189.82370	         1.26208e+58
          1190.63000	         1.78011e+58
          1191.43630	         1.57815e+58
          1192.24260	         8.03532e+57
          1193.04890	         1.33313e+58
          1193.85520	         1.44977e+58
          1194.66150	         2.89863e+57
          1195.46780	         7.78075e+57
          1196.27410	         1.50722e+58
          1197.08040	         9.06396e+57
          1197.88670	         1.51155e+58
          1198.69300	         1.72617e+58
          1199.49930	         1.36045e+58
          1200.30560	         1.10507e+58
          1201.11190	         1.22757e+58
          1201.91820	         7.66734e+57
          1202.72450	         5.19965e+57
          1203.53080	         1.47593e+58
          1204.33710	         9.85441e+57
          1205.14340	         5.18738e+57
          1205.94970	         4.19625e+57
          1206.75600	         5.61536e+57
          1207.56230	         8.70948e+57
          1208.36860	         1.35034e+58
          1209.17490	         9.65774e+57
          1209.98120	         6.14625e+57
          1210.78750	         2.36247e+57
          1211.59380	         7.45225e+57
          1212.40010	         1.95681e+58
          1213.20640	         2.23647e+58
          1214.01270	         2.29328e+58
          1214.81900	         2.56597e+58
          1215.62530	         4.60428e+58
          1216.43160	         9.55480e+58
          1217.23790	         1.53356e+59
          1218.04420	         1.10488e+59
          1218.85050	         8.60771e+58
          1219.65680	         5.70182e+58
          1220.46310	         3.11668e+58
          1221.26940	         2.28561e+58
          1222.07570	         1.43773e+58
          1222.88200	         1.32156e+58
          1223.68830	         1.06283e+58
          1224.49460	         4.49025e+57
          1225.30090	         7.64356e+57
          1226.10720	         6.57452e+57
          1226.91350	         7.77965e+57
          1227.71980	         1.13436e+58
          1228.52610	         1.13134e+58
          1229.33240	         8.25333e+57
          1230.13870	         9.48830e+57
          1230.94500	         1.07847e+58
          1231.75130	         5.72777e+57
          1232.55760	         8.02285e+57
          1233.36390	         9.21207e+57
          1234.17020	         8.64762e+57
          1234.97650	         7.72399e+57
          1235.78280	         7.61317e+57
          1236.58910	         7.16280e+57
          1237.39540	         9.61916e+57
          1238.20170	         1.21734e+58
          1239.00800	         1.43346e+58
          1239.81430	         1.67123e+58
          1240.62060	         1.18818e+58
          1241.42690	         9.06299e+57
          1242.23320	         8.09555e+57
          1243.03950	         5.47453e+57
          1243.84580	         9.33658e+57
          1244.65210	         1.08944e+58
          1245.45840	         1.12529e+58
          1246.26470	         7.89484e+57
          1247.07100	         4.47494e+57
          1247.87730	         7.80575e+57
          1248.68360	         6.26823e+57
          1249.48990	         7.22586e+57
          1250.29620	         1.22345e+58
          1251.10250	         9.43420e+57
          1251.90880	         6.69138e+57
          1252.71510	         5.46059e+57
          1253.52140	         5.60644e+57
          1254.32770	         8.80373e+57
          1255.13400	         1.36488e+58
          1255.94030	         1.26766e+58
          1256.74660	         1.07140e+58
          1257.55290	         1.02608e+58
          1258.35920	         7.33694e+57
          1259.16550	         6.16373e+57
          1259.97180	         4.05094e+57
          1260.77810	         7.69924e+57
          1261.58440	         1.08651e+58
          1262.39070	         9.05520e+57
          1263.19700	         8.27725e+57
          1264.00330	         9.51048e+57
          1264.80960	         1.22858e+58
          1265.61590	         1.32735e+58
          1266.42220	         1.03923e+58
          1267.22850	         1.01769e+58
          1268.03480	         1.42243e+58
          1268.84110	         1.63381e+58
          1269.64740	         1.30068e+58
          1270.45370	         1.12175e+58
          1271.26000	         1.04814e+58
          1272.06630	         1.12374e+58
          1272.87260	         1.36681e+58
          1273.67890	         1.30324e+58
          1274.48520	         1.23072e+58
          1275.29150	         1.41293e+58
          1276.09780	         1.05679e+58
          1276.90410	         1.17120e+58
          1277.71040	         1.17844e+58
          1278.51670	         1.08868e+58
          1279.32300	         1.40640e+58
          1280.12930	         1.34336e+58
          1280.93560	         1.12174e+58
          1281.74190	         1.18527e+58
          1282.54820	         1.27624e+58
          1283.35450	         1.08503e+58
          1284.16080	         1.03910e+58
          1284.96710	         1.40610e+58
          1285.77340	         1.23280e+58
          1286.57970	         1.05364e+58
          1287.38600	         1.41587e+58
          1288.19230	         1.64136e+58
          1288.99860	         1.52691e+58
          1289.80490	         1.11544e+58
          1290.61120	         1.27073e+58
          1291.41750	         1.34531e+58
          1292.22380	         1.16736e+58
          1293.03010	         1.11561e+58
          1293.83640	         1.00040e+58
          1294.64270	         8.46875e+57
          1295.44900	         7.21507e+57
          1296.25530	         7.19276e+57
          1297.06160	         9.05585e+57
          1297.86790	         1.04738e+58
          1298.67420	         9.94867e+57
          1299.48050	         1.08588e+58
          1300.28680	         1.16803e+58
          1301.09310	         7.78380e+57
          1301.89940	         5.63187e+57
          1302.70570	         7.75301e+57
          1303.51200	         7.37039e+57
          1304.31830	         9.73170e+57
          1305.12460	         9.77537e+57
          1305.93090	         8.98518e+57
          1306.73720	         1.18335e+58
          1307.54350	         1.29433e+58
          1308.34980	         1.32592e+58
          1309.15610	         1.34835e+58
          1309.96240	         1.42324e+58
          1310.76870	         1.43459e+58
          1311.57500	         1.42865e+58
          1312.38130	         1.15515e+58
          1313.18760	         1.42787e+58
          1313.99390	         1.85598e+58
          1314.80020	         1.58193e+58
          1315.60650	         1.12122e+58
          1316.41280	         1.20337e+58
          1317.21910	         1.26589e+58
          1318.02540	         1.42494e+58
          1318.83170	         1.39646e+58
          1319.63800	         1.17789e+58
          1320.44430	         1.09888e+58
          1321.25060	         1.21097e+58
          1322.05690	         1.21032e+58
          1322.86320	         1.18810e+58
          1323.66950	         1.15418e+58
          1324.47580	         8.94851e+57
          1325.28210	         9.30804e+57
          1326.08840	         1.14990e+58
          1326.89470	         1.31542e+58
          1327.70100	         1.12379e+58
          1328.50730	         9.03685e+57
          1329.31360	         9.55594e+57
          1330.11990	         8.71154e+57
          1330.92620	         8.37890e+57
          1331.73250	         1.09049e+58
          1332.53880	         1.05515e+58
          1333.34510	         7.72669e+57
          1334.15140	         7.34784e+57
          1334.95770	         8.08139e+57
          1335.76400	         1.07001e+58
          1336.57030	         1.09422e+58
          1337.37660	         9.35563e+57
          1338.18290	         9.42464e+57
          1338.98920	         9.86096e+57
          1339.79550	         1.01522e+58
          1340.60180	         1.13232e+58
          1341.40810	         1.23509e+58
          1342.21440	         1.07660e+58
          1343.02070	         1.31914e+58
          1343.82700	         1.49471e+58
          1344.63330	         1.34426e+58
          1345.43960	         1.33703e+58
          1346.24590	         1.12406e+58
          1347.05220	         1.19244e+58
          1347.85850	         1.06778e+58
          1348.66480	         1.11670e+58
          1349.47110	         1.14375e+58
          1350.27740	         1.03520e+58
          1351.08370	         1.12214e+58
          1351.89000	         1.26037e+58
          1352.69630	         1.25827e+58
          1353.50260	         1.18494e+58
          1354.30890	         1.08695e+58
          1355.11520	         1.11399e+58
          1355.92150	         9.92322e+57
          1356.72780	         8.93505e+57
          1357.53410	         9.53356e+57
          1358.34040	         1.08810e+58
          1359.14670	         1.03233e+58
          1359.95300	         1.00415e+58
          1360.75930	         1.12994e+58
          1361.56560	         1.15167e+58
          1362.37190	         1.16563e+58
          1363.17820	         1.14179e+58
          1363.98450	         1.29615e+58
          1364.79080	         1.28723e+58
          1365.59710	         1.13961e+58
          1366.40340	         1.06830e+58
          1367.20970	         9.56249e+57
          1368.01600	         8.77262e+57
          1368.82230	         8.73546e+57
          1369.62860	         1.03826e+58
          1370.43490	         1.01748e+58
          1371.24120	         9.56927e+57
          1372.04750	         9.06591e+57
          1372.85380	         1.07730e+58
          1373.66010	         9.81378e+57
          1374.46640	         9.78429e+57
          1375.27270	         1.02820e+58
          1376.07900	         8.87738e+57
          1376.88530	         8.41718e+57
          1377.69160	         7.18030e+57
          1378.49790	         5.55685e+57
          1379.30420	         7.01137e+57
          1380.11050	         8.59030e+57
          1380.91680	         7.34173e+57
          1381.72310	         7.92947e+57
          1382.52940	         7.78246e+57
          1383.33570	         6.87782e+57
          1384.14200	         9.34466e+57
          1384.94830	         1.08623e+58
          1385.75460	         1.01389e+58
          1386.56090	         1.18402e+58
          1387.36720	         1.18643e+58
          1388.17350	         1.22248e+58
          1388.97980	         1.14199e+58
          1389.78610	         1.01393e+58
          1390.59240	         9.66873e+57
          1391.39870	         8.00627e+57
          1392.20500	         8.79841e+57
          1393.01130	         8.06316e+57
          1393.81760	         7.45800e+57
          1394.62390	         8.39186e+57
          1395.43020	         7.02987e+57
          1396.23650	         6.45766e+57
          1397.04280	         7.23871e+57
          1397.84910	         9.28608e+57
          1398.65540	         9.32434e+57
          1399.46170	         8.73175e+57
          1400.26800	         8.40126e+57
          1401.07430	         8.11519e+57
          1401.88060	         7.95936e+57
          1402.68690	         9.04391e+57
          1403.49320	         9.51371e+57
          1404.29950	         8.48763e+57
          1405.10580	         9.26002e+57
          1405.91210	         1.08940e+58
          1406.71840	         1.14977e+58
          1407.52470	         1.13458e+58
          1408.33100	         1.02809e+58
          1409.13730	         1.03718e+58
          1409.94360	         1.13258e+58
          1410.74990	         1.15759e+58
          1411.55620	         1.11055e+58
          1412.36250	         1.08583e+58
          1413.16880	         9.68964e+57
          1413.97510	         8.29662e+57
          1414.78140	         8.84031e+57
          1415.58770	         9.72213e+57
          1416.39400	         8.92964e+57
          1417.20030	         9.55558e+57
          1418.00660	         9.57250e+57
          1418.81290	         1.19749e+58
          1419.61920	         1.11438e+58
          1420.42550	         1.02445e+58
          1421.23180	         1.33660e+58
          1422.03810	         1.34292e+58
          1422.84440	         1.16053e+58
          1423.65070	         1.23911e+58
          1424.45700	         1.09562e+58
          1425.26330	         9.00017e+57
          1426.06960	         8.97527e+57
          1426.87590	         9.80169e+57
          1427.68220	         1.02394e+58
          1428.48850	         1.03280e+58
          1429.29480	         9.34795e+57
          1430.10110	         9.54481e+57
          1430.90740	         8.26096e+57
          1431.71370	         8.31822e+57
          1432.52000	         7.80068e+57
          1433.32630	         7.27273e+57
          1434.13260	         7.65773e+57
          1434.93890	         8.13991e+57
          1435.74520	         9.25997e+57
          1436.55150	         9.82861e+57
          1437.35780	         8.16569e+57
          1438.16410	         8.74823e+57
          1438.97040	         9.67726e+57
          1439.77670	         8.76330e+57
          1440.58300	         8.68343e+57
          1441.38930	         9.13434e+57
          1442.19560	         9.50221e+57
          1443.00190	         1.03520e+58
          1443.80820	         1.07820e+58
          1444.61450	         9.62549e+57
          1445.42080	         8.53741e+57
          1446.22710	         9.28887e+57
          1447.03340	         9.23893e+57
          1447.83970	         1.04438e+58
          1448.64600	         1.13201e+58
          1449.45230	         1.08044e+58
          1450.25860	         1.03534e+58
          1451.06490	         8.48032e+57
          1451.87120	         7.09861e+57
          1452.67750	         7.32456e+57
          1453.48380	         9.10990e+57
          1454.29010	         7.73682e+57
          1455.09640	         6.65020e+57
          1455.90270	         7.24626e+57
          1456.70900	         7.58763e+57
          1457.51530	         8.68675e+57
          1458.32160	         1.09345e+58
          1459.12790	         1.01344e+58
          1459.93420	         8.54508e+57
          1460.74050	         7.45862e+57
          1461.54680	         7.27440e+57
          1462.35310	         7.85986e+57
          1463.15940	         8.96150e+57
          1463.96570	         9.71768e+57
          1464.77200	         1.11004e+58
          1465.57830	         1.01254e+58
          1466.38460	         9.04734e+57
          1467.19090	         9.79424e+57
          1467.99720	         9.27150e+57
          1468.80350	         1.00502e+58
          1469.60980	         1.02718e+58
          1470.41610	         1.14060e+58
          1471.22240	         9.60317e+57
          1472.02870	         8.98331e+57
          1472.83500	         9.32746e+57
          1473.64130	         9.61327e+57
          1474.44760	         9.13312e+57
          1475.25390	         8.80800e+57
          1476.06020	         7.79253e+57
          1476.86650	         7.47008e+57
          1477.67280	         7.59232e+57
          1478.47910	         6.47604e+57
          1479.28540	         7.34585e+57
          1480.09170	         7.78154e+57
          1480.89800	         8.30765e+57
          1481.70430	         9.46643e+57
          1482.51060	         8.58317e+57
          1483.31690	         8.03647e+57
          1484.12320	         8.81803e+57
          1484.92950	         8.45123e+57
          1485.73580	         8.91715e+57
          1486.54210	         8.53787e+57
          1487.34840	         8.47909e+57
          1488.15470	         8.22969e+57
          1488.96100	         9.28370e+57
          1489.76730	         9.04687e+57
