#sample_274_stacked_spectrum_rest_UV-bands_median_H-alpha_noDC.txt
#median Lum: 1.69704e+42
#Rest-frame wavelength (A) | Luminosity (erg/s/A)
#
          1110.00000	         0.00000e+00
          1110.80630	         1.47048e+59
          1111.61260	         4.41769e+58
          1112.41890	         3.28361e+58
          1113.22520	        -5.46554e+58
          1114.03150	        -1.15705e+59
          1114.83780	         2.75857e+59
          1115.64410	         2.13030e+59
          1116.45040	        -4.59731e+58
          1117.25670	         1.10959e+59
          1118.06300	         1.19426e+59
          1118.86930	        -4.08212e+58
          1119.67560	         3.04590e+58
          1120.48190	         3.23829e+58
          1121.28820	        -7.04948e+58
          1122.09450	         4.21092e+58
          1122.90080	         1.92856e+58
          1123.70710	         3.58585e+58
          1124.51340	         1.20897e+59
          1125.31970	         2.40706e+58
          1126.12600	         2.75030e+58
          1126.93230	        -6.22509e+58
          1127.73860	        -9.37327e+57
          1128.54490	         6.09275e+58
          1129.35120	        -2.33906e+58
          1130.15750	        -3.55073e+58
          1130.96380	        -4.94655e+58
          1131.77010	         7.38398e+58
          1132.57640	         5.91387e+58
          1133.38270	         6.24491e+58
          1134.18900	         1.12594e+58
          1134.99530	        -1.09081e+58
          1135.80160	         9.60223e+57
          1136.60790	         1.98094e+58
          1137.41420	        -1.74701e+58
          1138.22050	         2.76841e+58
          1139.02680	         3.63788e+58
          1139.83310	         2.31200e+58
          1140.63940	         1.54659e+58
          1141.44570	        -2.34021e+58
          1142.25200	        -1.42383e+58
          1143.05830	         2.31688e+58
          1143.86460	         3.65436e+58
          1144.67090	         1.64872e+58
          1145.47720	         1.65437e+58
          1146.28350	         1.13224e+58
          1147.08980	         1.04576e+58
          1147.89610	         2.17356e+58
          1148.70240	         2.04319e+58
          1149.50870	         3.41720e+58
          1150.31500	         1.07027e+58
          1151.12130	         5.88080e+57
          1151.92760	        -6.76005e+56
          1152.73390	         1.21535e+58
          1153.54020	         6.09637e+57
          1154.34650	         2.62939e+58
          1155.15280	         1.95158e+58
          1155.95910	         1.87242e+58
          1156.76540	         1.89794e+58
          1157.57170	         4.51523e+57
          1158.37800	        -2.80995e+57
          1159.18430	        -2.92256e+57
          1159.99060	         1.08979e+58
          1160.79690	         7.75843e+57
          1161.60320	         8.39373e+57
          1162.40950	         2.26014e+58
          1163.21580	         7.89751e+57
          1164.02210	         1.47503e+58
          1164.82840	         1.55734e+58
          1165.63470	         2.35238e+58
          1166.44100	         3.70440e+58
          1167.24730	         2.56892e+58
          1168.05360	         6.91929e+57
          1168.85990	         1.25417e+58
          1169.66620	         1.00242e+58
          1170.47250	         1.08094e+57
          1171.27880	        -4.98089e+55
          1172.08510	         1.17000e+58
          1172.89140	         9.73276e+57
          1173.69770	         2.59910e+57
          1174.50400	         6.07634e+57
          1175.31030	         1.73439e+58
          1176.11660	         2.03984e+58
          1176.92290	         1.97712e+58
          1177.72920	         1.47525e+58
          1178.53550	         1.05103e+58
          1179.34180	         4.98020e+57
          1180.14810	         7.06401e+57
          1180.95440	         1.08773e+58
          1181.76070	         8.66163e+57
          1182.56700	         1.09329e+58
          1183.37330	         1.02164e+58
          1184.17960	         1.34511e+58
          1184.98590	         1.28898e+58
          1185.79220	         1.01431e+58
          1186.59850	         1.45008e+58
          1187.40480	         1.41071e+58
          1188.21110	         1.95919e+58
          1189.01740	         8.45170e+57
          1189.82370	         5.79298e+57
          1190.63000	         4.55366e+57
          1191.43630	         9.63661e+57
          1192.24260	         1.02203e+58
          1193.04890	         1.62460e+58
          1193.85520	         1.42382e+58
          1194.66150	         7.43171e+57
          1195.46780	         8.96651e+57
          1196.27410	         1.56646e+58
          1197.08040	         1.24526e+58
          1197.88670	         1.72650e+58
          1198.69300	         1.70430e+58
          1199.49930	         1.60293e+58
          1200.30560	         1.14151e+58
          1201.11190	         1.06732e+58
          1201.91820	         1.07371e+58
          1202.72450	         8.37730e+57
          1203.53080	         1.47244e+58
          1204.33710	         9.06955e+57
          1205.14340	         7.39975e+57
          1205.94970	         6.33076e+57
          1206.75600	         5.51873e+57
          1207.56230	         5.32347e+57
          1208.36860	         6.86209e+57
          1209.17490	         5.43026e+57
          1209.98120	         5.91315e+57
          1210.78750	         8.11207e+57
          1211.59380	         1.25106e+58
          1212.40010	         1.52514e+58
          1213.20640	         1.98426e+58
          1214.01270	         2.00004e+58
          1214.81900	         2.72061e+58
          1215.62530	         4.74384e+58
          1216.43160	         8.93691e+58
          1217.23790	         1.47752e+59
          1218.04420	         1.14435e+59
          1218.85050	         8.63856e+58
          1219.65680	         5.99996e+58
          1220.46310	         3.27306e+58
          1221.26940	         2.17169e+58
          1222.07570	         1.49347e+58
          1222.88200	         1.35696e+58
          1223.68830	         1.18513e+58
          1224.49460	         6.96944e+57
          1225.30090	         4.81683e+57
          1226.10720	         5.99008e+57
          1226.91350	         6.40518e+57
          1227.71980	         8.51796e+57
          1228.52610	         9.41837e+57
          1229.33240	         7.16025e+57
          1230.13870	         1.14455e+58
          1230.94500	         9.77260e+57
          1231.75130	         8.20794e+57
          1232.55760	         7.24048e+57
          1233.36390	         9.01323e+57
          1234.17020	         8.50421e+57
          1234.97650	         8.59831e+57
          1235.78280	         8.06817e+57
          1236.58910	         9.41330e+57
          1237.39540	         1.14631e+58
          1238.20170	         1.12116e+58
          1239.00800	         1.27926e+58
          1239.81430	         1.51258e+58
          1240.62060	         1.13802e+58
          1241.42690	         1.00247e+58
          1242.23320	         1.16932e+58
          1243.03950	         9.27861e+57
          1243.84580	         7.48945e+57
          1244.65210	         1.07078e+58
          1245.45840	         1.19354e+58
          1246.26470	         1.13410e+58
          1247.07100	         7.12410e+57
          1247.87730	         6.07384e+57
          1248.68360	         4.89749e+57
          1249.48990	         6.36157e+57
          1250.29620	         7.81666e+57
          1251.10250	         6.00904e+57
          1251.90880	         3.36321e+57
          1252.71510	         4.30530e+57
          1253.52140	         5.34119e+57
          1254.32770	         8.36068e+57
          1255.13400	         1.23309e+58
          1255.94030	         1.01233e+58
          1256.74660	         8.22484e+57
          1257.55290	         1.01443e+58
          1258.35920	         8.37898e+57
          1259.16550	         7.82016e+57
          1259.97180	         5.05268e+57
          1260.77810	         6.41317e+57
          1261.58440	         9.68351e+57
          1262.39070	         8.57010e+57
          1263.19700	         7.78340e+57
          1264.00330	         8.48582e+57
          1264.80960	         1.12115e+58
          1265.61590	         1.25910e+58
          1266.42220	         1.21758e+58
          1267.22850	         1.00659e+58
          1268.03480	         1.28257e+58
          1268.84110	         1.32980e+58
          1269.64740	         1.17129e+58
          1270.45370	         1.12262e+58
          1271.26000	         1.08037e+58
          1272.06630	         1.15032e+58
          1272.87260	         1.14050e+58
          1273.67890	         1.20797e+58
          1274.48520	         1.38991e+58
          1275.29150	         1.40884e+58
          1276.09780	         1.33592e+58
          1276.90410	         1.40134e+58
          1277.71040	         1.19189e+58
          1278.51670	         1.12848e+58
          1279.32300	         1.53392e+58
          1280.12930	         1.44437e+58
          1280.93560	         1.26182e+58
          1281.74190	         1.33741e+58
          1282.54820	         1.32593e+58
          1283.35450	         1.11904e+58
          1284.16080	         1.33475e+58
          1284.96710	         1.48376e+58
          1285.77340	         1.20023e+58
          1286.57970	         1.11557e+58
          1287.38600	         1.55984e+58
          1288.19230	         1.79501e+58
          1288.99860	         1.57264e+58
          1289.80490	         1.18451e+58
          1290.61120	         1.38577e+58
          1291.41750	         1.66311e+58
          1292.22380	         1.12942e+58
          1293.03010	         8.56084e+57
          1293.83640	         1.15871e+58
          1294.64270	         1.08647e+58
          1295.44900	         8.68522e+57
          1296.25530	         8.43071e+57
          1297.06160	         8.44879e+57
          1297.86790	         9.10691e+57
          1298.67420	         8.40046e+57
          1299.48050	         1.02485e+58
          1300.28680	         1.19671e+58
          1301.09310	         8.42033e+57
          1301.89940	         3.98777e+57
          1302.70570	         6.91110e+57
          1303.51200	         7.58837e+57
          1304.31830	         1.01320e+58
          1305.12460	         1.15984e+58
          1305.93090	         1.23211e+58
          1306.73720	         1.32862e+58
          1307.54350	         1.55872e+58
          1308.34980	         1.46734e+58
          1309.15610	         1.40578e+58
          1309.96240	         1.64154e+58
          1310.76870	         1.37549e+58
          1311.57500	         1.10808e+58
          1312.38130	         1.03722e+58
          1313.18760	         1.38484e+58
          1313.99390	         1.77484e+58
          1314.80020	         1.71961e+58
          1315.60650	         1.34364e+58
          1316.41280	         1.28705e+58
          1317.21910	         1.05813e+58
          1318.02540	         1.15229e+58
          1318.83170	         1.35599e+58
          1319.63800	         1.19617e+58
          1320.44430	         1.17314e+58
          1321.25060	         1.44785e+58
          1322.05690	         1.55159e+58
          1322.86320	         1.30287e+58
          1323.66950	         1.12136e+58
          1324.47580	         1.10532e+58
          1325.28210	         1.05657e+58
          1326.08840	         1.21433e+58
          1326.89470	         1.36802e+58
          1327.70100	         1.04612e+58
          1328.50730	         8.17295e+57
          1329.31360	         9.74098e+57
          1330.11990	         9.17771e+57
          1330.92620	         9.19599e+57
          1331.73250	         1.10588e+58
          1332.53880	         9.29886e+57
          1333.34510	         8.76262e+57
          1334.15140	         8.78328e+57
          1334.95770	         9.65707e+57
          1335.76400	         1.06502e+58
          1336.57030	         1.05786e+58
          1337.37660	         9.57995e+57
          1338.18290	         9.38129e+57
          1338.98920	         1.27412e+58
          1339.79550	         1.30640e+58
          1340.60180	         1.28701e+58
          1341.40810	         1.49131e+58
          1342.21440	         1.45868e+58
          1343.02070	         1.35060e+58
          1343.82700	         1.36213e+58
          1344.63330	         1.47021e+58
          1345.43960	         1.51335e+58
          1346.24590	         1.24107e+58
          1347.05220	         1.35905e+58
          1347.85850	         1.28073e+58
          1348.66480	         1.26450e+58
          1349.47110	         1.33921e+58
          1350.27740	         1.29652e+58
          1351.08370	         1.13149e+58
          1351.89000	         1.12684e+58
          1352.69630	         1.21364e+58
          1353.50260	         1.20921e+58
          1354.30890	         1.26014e+58
          1355.11520	         1.26891e+58
          1355.92150	         1.08095e+58
          1356.72780	         1.02595e+58
          1357.53410	         1.09253e+58
          1358.34040	         1.17172e+58
          1359.14670	         1.26625e+58
          1359.95300	         1.14549e+58
          1360.75930	         1.05148e+58
          1361.56560	         9.83878e+57
          1362.37190	         1.04034e+58
          1363.17820	         1.03561e+58
          1363.98450	         1.22600e+58
          1364.79080	         1.51465e+58
          1365.59710	         1.45163e+58
          1366.40340	         1.19513e+58
          1367.20970	         1.04383e+58
          1368.01600	         9.88225e+57
          1368.82230	         9.70852e+57
          1369.62860	         1.08355e+58
          1370.43490	         9.31331e+57
          1371.24120	         8.80254e+57
          1372.04750	         8.53207e+57
          1372.85380	         1.06193e+58
          1373.66010	         1.14228e+58
          1374.46640	         9.84804e+57
          1375.27270	         1.09732e+58
          1376.07900	         9.44424e+57
          1376.88530	         9.10747e+57
          1377.69160	         9.12975e+57
          1378.49790	         6.83620e+57
          1379.30420	         6.57637e+57
          1380.11050	         8.83728e+57
          1380.91680	         8.51323e+57
          1381.72310	         8.55872e+57
          1382.52940	         8.89699e+57
          1383.33570	         8.24754e+57
          1384.14200	         9.96742e+57
          1384.94830	         1.06496e+58
          1385.75460	         9.17004e+57
          1386.56090	         1.05903e+58
          1387.36720	         1.11552e+58
          1388.17350	         1.31760e+58
          1388.97980	         1.28467e+58
          1389.78610	         8.39046e+57
          1390.59240	         6.59403e+57
          1391.39870	         7.46655e+57
          1392.20500	         8.54917e+57
          1393.01130	         7.69644e+57
          1393.81760	         8.31964e+57
          1394.62390	         8.42790e+57
          1395.43020	         6.44534e+57
          1396.23650	         7.38472e+57
          1397.04280	         7.96138e+57
          1397.84910	         8.02146e+57
          1398.65540	         8.83287e+57
          1399.46170	         1.05493e+58
          1400.26800	         9.81935e+57
          1401.07430	         8.67300e+57
          1401.88060	         8.75587e+57
          1402.68690	         9.88008e+57
          1403.49320	         1.02918e+58
          1404.29950	         1.02666e+58
          1405.10580	         1.12500e+58
          1405.91210	         1.13562e+58
          1406.71840	         1.07850e+58
          1407.52470	         1.14046e+58
          1408.33100	         1.03800e+58
          1409.13730	         1.05365e+58
          1409.94360	         1.17281e+58
          1410.74990	         1.12658e+58
          1411.55620	         1.01633e+58
          1412.36250	         1.04029e+58
          1413.16880	         9.24377e+57
          1413.97510	         8.22093e+57
          1414.78140	         9.28451e+57
          1415.58770	         1.00694e+58
          1416.39400	         9.78409e+57
          1417.20030	         1.12936e+58
          1418.00660	         1.04773e+58
          1418.81290	         1.04845e+58
          1419.61920	         9.55387e+57
          1420.42550	         1.12908e+58
          1421.23180	         1.38056e+58
          1422.03810	         1.33400e+58
          1422.84440	         1.17161e+58
          1423.65070	         1.31956e+58
          1424.45700	         1.27096e+58
          1425.26330	         9.16794e+57
          1426.06960	         7.68610e+57
          1426.87590	         9.17063e+57
          1427.68220	         9.48476e+57
          1428.48850	         1.09875e+58
          1429.29480	         1.16053e+58
          1430.10110	         1.01934e+58
          1430.90740	         8.86190e+57
          1431.71370	         8.46545e+57
          1432.52000	         9.29986e+57
          1433.32630	         8.47003e+57
          1434.13260	         8.67640e+57
          1434.93890	         9.43576e+57
          1435.74520	         9.45550e+57
          1436.55150	         9.19953e+57
          1437.35780	         9.03704e+57
          1438.16410	         9.62315e+57
          1438.97040	         9.47511e+57
          1439.77670	         8.98190e+57
          1440.58300	         9.21070e+57
          1441.38930	         9.61895e+57
          1442.19560	         1.03713e+58
          1443.00190	         1.02457e+58
          1443.80820	         1.05511e+58
          1444.61450	         8.80665e+57
          1445.42080	         8.25307e+57
          1446.22710	         1.07237e+58
          1447.03340	         1.10514e+58
          1447.83970	         1.03182e+58
          1448.64600	         1.04462e+58
          1449.45230	         1.06057e+58
          1450.25860	         1.05667e+58
          1451.06490	         8.87465e+57
          1451.87120	         7.88638e+57
          1452.67750	         7.51956e+57
          1453.48380	         8.60230e+57
          1454.29010	         7.85801e+57
          1455.09640	         7.51689e+57
          1455.90270	         9.33593e+57
          1456.70900	         9.27483e+57
          1457.51530	         1.04127e+58
          1458.32160	         1.28611e+58
          1459.12790	         1.21795e+58
          1459.93420	         1.05775e+58
          1460.74050	         8.31690e+57
          1461.54680	         8.21875e+57
          1462.35310	         8.62736e+57
          1463.15940	         1.06483e+58
          1463.96570	         1.21251e+58
          1464.77200	         1.33368e+58
          1465.57830	         1.16778e+58
          1466.38460	         9.52702e+57
          1467.19090	         8.53491e+57
          1467.99720	         8.89878e+57
          1468.80350	         1.00909e+58
          1469.60980	         1.04048e+58
          1470.41610	         1.07779e+58
          1471.22240	         1.04529e+58
          1472.02870	         1.01997e+58
          1472.83500	         1.01397e+58
          1473.64130	         9.64809e+57
          1474.44760	         9.43019e+57
          1475.25390	         9.55395e+57
          1476.06020	         8.65312e+57
          1476.86650	         7.57286e+57
          1477.67280	         6.99523e+57
          1478.47910	         5.72760e+57
          1479.28540	         7.28888e+57
          1480.09170	         9.57828e+57
          1480.89800	         9.31154e+57
          1481.70430	         8.62787e+57
          1482.51060	         7.69646e+57
          1483.31690	         7.53215e+57
          1484.12320	         8.70557e+57
          1484.92950	         8.31760e+57
          1485.73580	         8.67107e+57
          1486.54210	         1.03298e+58
          1487.34840	         9.54605e+57
          1488.15470	         7.85150e+57
          1488.96100	         6.40623e+57
          1489.76730	         7.64329e+57
