#sample_392_stacked_spectrum_rest_UV-bands_median_H-alpha_noDC.txt
#median Lum: 1.70162e+42
#Rest-frame wavelength (A) | Luminosity (erg/s/A)
#
          1110.00000	         0.00000e+00
          1110.80630	         1.64053e+59
          1111.61260	         3.43692e+59
          1112.41890	         4.07817e+59
          1113.22520	         3.22813e+59
          1114.03150	        -1.59857e+59
          1114.83780	         1.26433e+59
          1115.64410	         2.67360e+59
          1116.45040	         1.80837e+59
          1117.25670	        -5.28477e+58
          1118.06300	         9.40481e+58
          1118.86930	         1.39980e+58
          1119.67560	         5.76611e+58
          1120.48190	        -1.94827e+58
          1121.28820	        -1.41141e+59
          1122.09450	         3.75656e+58
          1122.90080	         1.25005e+58
          1123.70710	         3.34073e+58
          1124.51340	         9.33045e+58
          1125.31970	         3.43837e+57
          1126.12600	         6.21602e+57
          1126.93230	        -1.23061e+58
          1127.73860	        -4.57850e+58
          1128.54490	        -1.39861e+57
          1129.35120	         1.33645e+58
          1130.15750	         7.26892e+57
          1130.96380	        -4.47602e+58
          1131.77010	         8.58652e+57
          1132.57640	         3.60748e+58
          1133.38270	         3.12498e+58
          1134.18900	         2.69790e+58
          1134.99530	         2.48848e+58
          1135.80160	         2.51450e+58
          1136.60790	         2.79723e+58
          1137.41420	        -8.12355e+57
          1138.22050	         5.30259e+58
          1139.02680	         3.17427e+58
          1139.83310	         3.10864e+58
          1140.63940	         2.23504e+58
          1141.44570	        -1.17154e+58
          1142.25200	        -2.68705e+57
          1143.05830	         2.03729e+58
          1143.86460	         2.44595e+58
          1144.67090	         7.64467e+57
          1145.47720	         1.72449e+57
          1146.28350	         6.19726e+57
          1147.08980	         9.09291e+57
          1147.89610	         1.35181e+58
          1148.70240	         2.14491e+58
          1149.50870	         3.38341e+58
          1150.31500	         2.05565e+58
          1151.12130	         1.09371e+58
          1151.92760	         2.90129e+57
          1152.73390	         5.49503e+57
          1153.54020	         3.83335e+57
          1154.34650	         2.86175e+58
          1155.15280	         3.20581e+58
          1155.95910	         9.28560e+57
          1156.76540	         1.68579e+57
          1157.57170	        -5.54282e+56
          1158.37800	         3.99001e+57
          1159.18430	        -2.14168e+57
          1159.99060	         3.75939e+57
          1160.79690	         5.38945e+57
          1161.60320	         1.18140e+58
          1162.40950	         1.52997e+58
          1163.21580	         1.54659e+58
          1164.02210	         1.59730e+58
          1164.82840	         1.21527e+58
          1165.63470	         1.41190e+58
          1166.44100	         2.16543e+58
          1167.24730	         2.38583e+58
          1168.05360	         8.00945e+57
          1168.85990	         9.01804e+57
          1169.66620	         1.17118e+58
          1170.47250	         6.02869e+57
          1171.27880	         5.43570e+57
          1172.08510	         1.07427e+58
          1172.89140	         1.36964e+58
          1173.69770	         4.74242e+57
          1174.50400	         9.83714e+57
          1175.31030	         1.88434e+58
          1176.11660	         1.95055e+58
          1176.92290	         1.58843e+58
          1177.72920	         1.24934e+58
          1178.53550	         6.20769e+57
          1179.34180	         6.14226e+56
          1180.14810	         7.99140e+57
          1180.95440	         8.26746e+57
          1181.76070	         7.70326e+57
          1182.56700	         7.16598e+57
          1183.37330	         3.79787e+57
          1184.17960	         9.20709e+57
          1184.98590	         1.14739e+58
          1185.79220	         8.52776e+57
          1186.59850	         1.35582e+58
          1187.40480	         1.28097e+58
          1188.21110	         2.00321e+58
          1189.01740	         9.46980e+57
          1189.82370	         1.22939e+58
          1190.63000	         1.50113e+58
          1191.43630	         1.51282e+58
          1192.24260	         1.22024e+58
          1193.04890	         9.77797e+57
          1193.85520	         9.16215e+57
          1194.66150	        -1.75173e+56
          1195.46780	         3.60702e+57
          1196.27410	         1.35819e+58
          1197.08040	         1.10928e+58
          1197.88670	         1.66451e+58
          1198.69300	         1.50337e+58
          1199.49930	         1.33692e+58
          1200.30560	         1.35972e+58
          1201.11190	         1.04028e+58
          1201.91820	         8.90498e+57
          1202.72450	         8.79287e+57
          1203.53080	         1.31460e+58
          1204.33710	         9.90777e+57
          1205.14340	         1.33565e+58
          1205.94970	         9.58384e+57
          1206.75600	         9.93353e+57
          1207.56230	         7.22154e+57
          1208.36860	         7.98893e+57
          1209.17490	         5.49487e+57
          1209.98120	         7.48240e+57
          1210.78750	         1.13699e+58
          1211.59380	         1.48505e+58
          1212.40010	         1.83384e+58
          1213.20640	         2.16394e+58
          1214.01270	         2.17236e+58
          1214.81900	         2.64122e+58
          1215.62530	         4.66148e+58
          1216.43160	         9.41187e+58
          1217.23790	         1.52063e+59
          1218.04420	         1.15197e+59
          1218.85050	         8.80652e+58
          1219.65680	         5.70006e+58
          1220.46310	         3.06086e+58
          1221.26940	         2.34097e+58
          1222.07570	         1.58981e+58
          1222.88200	         1.21626e+58
          1223.68830	         8.69803e+57
          1224.49460	         5.90479e+57
          1225.30090	         8.02583e+57
          1226.10720	         9.11832e+57
          1226.91350	         9.76678e+57
          1227.71980	         1.01559e+58
          1228.52610	         1.06978e+58
          1229.33240	         1.38858e+58
          1230.13870	         1.08203e+58
          1230.94500	         4.77952e+57
          1231.75130	         7.12595e+57
          1232.55760	         8.67579e+57
          1233.36390	         6.89417e+57
          1234.17020	         6.89416e+57
          1234.97650	         7.23011e+57
          1235.78280	         8.84678e+57
          1236.58910	         8.18664e+57
          1237.39540	         1.12320e+58
          1238.20170	         1.16021e+58
          1239.00800	         1.28548e+58
          1239.81430	         1.56156e+58
          1240.62060	         1.13870e+58
          1241.42690	         9.23796e+57
          1242.23320	         1.23790e+58
          1243.03950	         8.88410e+57
          1243.84580	         6.94604e+57
          1244.65210	         9.75788e+57
          1245.45840	         9.87488e+57
          1246.26470	         8.79815e+57
          1247.07100	         6.07397e+57
          1247.87730	         8.81223e+57
          1248.68360	         4.40017e+57
          1249.48990	         5.35091e+57
          1250.29620	         9.44012e+57
          1251.10250	         8.60350e+57
          1251.90880	         6.13592e+57
          1252.71510	         5.99254e+57
          1253.52140	         7.79786e+57
          1254.32770	         1.10916e+58
          1255.13400	         1.17535e+58
          1255.94030	         1.02642e+58
          1256.74660	         1.10837e+58
          1257.55290	         1.07976e+58
          1258.35920	         8.44807e+57
          1259.16550	         6.10874e+57
          1259.97180	         6.23426e+57
          1260.77810	         9.96248e+57
          1261.58440	         1.14513e+58
          1262.39070	         8.85429e+57
          1263.19700	         9.90959e+57
          1264.00330	         1.13854e+58
          1264.80960	         1.21369e+58
          1265.61590	         1.30511e+58
          1266.42220	         1.24603e+58
          1267.22850	         1.17811e+58
          1268.03480	         1.43384e+58
          1268.84110	         1.49477e+58
          1269.64740	         1.46179e+58
          1270.45370	         1.52554e+58
          1271.26000	         1.31017e+58
          1272.06630	         1.41909e+58
          1272.87260	         1.36945e+58
          1273.67890	         1.09991e+58
          1274.48520	         1.10216e+58
          1275.29150	         1.30531e+58
          1276.09780	         1.22491e+58
          1276.90410	         1.65843e+58
          1277.71040	         1.54229e+58
          1278.51670	         1.18098e+58
          1279.32300	         1.40540e+58
          1280.12930	         1.46013e+58
          1280.93560	         1.17098e+58
          1281.74190	         1.09511e+58
          1282.54820	         1.13215e+58
          1283.35450	         9.05971e+57
          1284.16080	         1.11006e+58
          1284.96710	         1.27026e+58
          1285.77340	         1.04582e+58
          1286.57970	         1.34601e+58
          1287.38600	         2.01966e+58
          1288.19230	         1.86157e+58
          1288.99860	         1.39919e+58
          1289.80490	         1.15325e+58
          1290.61120	         1.16856e+58
          1291.41750	         1.29788e+58
          1292.22380	         1.25410e+58
          1293.03010	         1.08705e+58
          1293.83640	         1.03875e+58
          1294.64270	         9.80869e+57
          1295.44900	         7.26742e+57
          1296.25530	         7.54163e+57
          1297.06160	         8.38742e+57
          1297.86790	         9.11245e+57
          1298.67420	         1.00880e+58
          1299.48050	         9.81010e+57
          1300.28680	         1.00696e+58
          1301.09310	         8.12104e+57
          1301.89940	         4.21584e+57
          1302.70570	         5.65580e+57
          1303.51200	         8.01917e+57
          1304.31830	         1.02983e+58
          1305.12460	         1.08568e+58
          1305.93090	         1.04643e+58
          1306.73720	         1.21779e+58
          1307.54350	         1.48808e+58
          1308.34980	         1.52343e+58
          1309.15610	         1.44458e+58
          1309.96240	         1.38322e+58
          1310.76870	         1.18089e+58
          1311.57500	         9.76130e+57
          1312.38130	         1.10476e+58
          1313.18760	         1.41784e+58
          1313.99390	         1.70970e+58
          1314.80020	         1.71534e+58
          1315.60650	         1.47761e+58
          1316.41280	         1.25909e+58
          1317.21910	         1.13323e+58
          1318.02540	         1.26220e+58
          1318.83170	         1.30222e+58
          1319.63800	         1.20637e+58
          1320.44430	         1.02718e+58
          1321.25060	         1.11905e+58
          1322.05690	         1.16759e+58
          1322.86320	         1.15510e+58
          1323.66950	         1.20694e+58
          1324.47580	         9.37136e+57
          1325.28210	         8.41588e+57
          1326.08840	         1.01428e+58
          1326.89470	         1.10906e+58
          1327.70100	         9.14140e+57
          1328.50730	         7.64970e+57
          1329.31360	         1.02689e+58
          1330.11990	         1.09437e+58
          1330.92620	         8.93743e+57
          1331.73250	         1.12297e+58
          1332.53880	         1.14274e+58
          1333.34510	         1.14504e+58
          1334.15140	         9.47443e+57
          1334.95770	         8.18606e+57
          1335.76400	         1.05946e+58
          1336.57030	         1.14811e+58
          1337.37660	         1.00491e+58
          1338.18290	         1.01753e+58
          1338.98920	         1.18878e+58
          1339.79550	         1.22896e+58
          1340.60180	         1.38735e+58
          1341.40810	         1.42798e+58
          1342.21440	         1.15295e+58
          1343.02070	         1.08002e+58
          1343.82700	         1.11868e+58
          1344.63330	         1.14708e+58
          1345.43960	         1.36735e+58
          1346.24590	         1.15004e+58
          1347.05220	         1.40621e+58
          1347.85850	         1.28716e+58
          1348.66480	         9.87947e+57
          1349.47110	         1.14691e+58
          1350.27740	         1.20032e+58
          1351.08370	         1.17083e+58
          1351.89000	         1.16771e+58
          1352.69630	         1.16450e+58
          1353.50260	         1.05084e+58
          1354.30890	         1.09849e+58
          1355.11520	         1.08928e+58
          1355.92150	         1.04720e+58
          1356.72780	         1.03967e+58
          1357.53410	         1.05747e+58
          1358.34040	         1.09850e+58
          1359.14670	         1.05742e+58
          1359.95300	         1.29764e+58
          1360.75930	         1.25320e+58
          1361.56560	         1.05934e+58
          1362.37190	         1.14798e+58
          1363.17820	         1.21388e+58
          1363.98450	         1.16232e+58
          1364.79080	         1.20148e+58
          1365.59710	         1.31170e+58
          1366.40340	         1.13480e+58
          1367.20970	         9.66437e+57
          1368.01600	         8.92534e+57
          1368.82230	         9.55048e+57
          1369.62860	         1.02775e+58
          1370.43490	         1.03286e+58
          1371.24120	         9.94483e+57
          1372.04750	         9.69509e+57
          1372.85380	         1.08635e+58
          1373.66010	         1.13085e+58
          1374.46640	         1.08443e+58
          1375.27270	         1.04688e+58
          1376.07900	         9.40188e+57
          1376.88530	         8.75172e+57
          1377.69160	         7.96301e+57
          1378.49790	         7.36004e+57
          1379.30420	         7.35030e+57
          1380.11050	         9.52739e+57
          1380.91680	         9.45738e+57
          1381.72310	         8.91056e+57
          1382.52940	         8.67361e+57
          1383.33570	         9.91587e+57
          1384.14200	         1.07862e+58
          1384.94830	         9.66479e+57
          1385.75460	         9.52304e+57
          1386.56090	         1.14296e+58
          1387.36720	         1.26467e+58
          1388.17350	         1.20009e+58
          1388.97980	         1.11188e+58
          1389.78610	         9.75638e+57
          1390.59240	         7.07755e+57
          1391.39870	         6.36352e+57
          1392.20500	         7.51855e+57
          1393.01130	         7.48232e+57
          1393.81760	         6.74160e+57
          1394.62390	         6.92032e+57
          1395.43020	         6.88882e+57
          1396.23650	         7.40473e+57
          1397.04280	         7.66152e+57
          1397.84910	         8.48898e+57
          1398.65540	         9.49440e+57
          1399.46170	         1.04239e+58
          1400.26800	         8.21440e+57
          1401.07430	         8.25994e+57
          1401.88060	         9.44518e+57
          1402.68690	         9.37281e+57
          1403.49320	         9.32372e+57
          1404.29950	         1.03141e+58
          1405.10580	         1.15949e+58
          1405.91210	         1.08638e+58
          1406.71840	         9.74519e+57
          1407.52470	         9.58853e+57
          1408.33100	         9.36673e+57
          1409.13730	         1.12351e+58
          1409.94360	         1.15639e+58
          1410.74990	         1.11263e+58
          1411.55620	         1.00542e+58
          1412.36250	         8.93084e+57
          1413.16880	         9.46850e+57
          1413.97510	         8.30461e+57
          1414.78140	         8.37416e+57
          1415.58770	         1.03982e+58
          1416.39400	         9.38771e+57
          1417.20030	         1.07947e+58
          1418.00660	         1.15664e+58
          1418.81290	         1.11157e+58
          1419.61920	         1.19185e+58
          1420.42550	         1.21217e+58
          1421.23180	         1.32156e+58
          1422.03810	         1.20196e+58
          1422.84440	         1.01985e+58
          1423.65070	         1.26321e+58
          1424.45700	         1.06227e+58
          1425.26330	         7.81434e+57
          1426.06960	         8.78769e+57
          1426.87590	         1.09053e+58
          1427.68220	         1.04467e+58
          1428.48850	         1.10161e+58
          1429.29480	         1.04813e+58
          1430.10110	         9.41008e+57
          1430.90740	         8.49618e+57
          1431.71370	         8.78192e+57
          1432.52000	         7.97644e+57
          1433.32630	         7.34683e+57
          1434.13260	         8.62623e+57
          1434.93890	         8.79858e+57
          1435.74520	         9.22017e+57
          1436.55150	         9.44545e+57
          1437.35780	         9.12843e+57
          1438.16410	         9.05635e+57
          1438.97040	         8.91558e+57
          1439.77670	         8.48313e+57
          1440.58300	         8.46366e+57
          1441.38930	         9.85907e+57
          1442.19560	         1.05436e+58
          1443.00190	         9.14791e+57
          1443.80820	         9.58267e+57
          1444.61450	         8.68520e+57
          1445.42080	         9.01742e+57
          1446.22710	         9.62743e+57
          1447.03340	         9.66406e+57
          1447.83970	         1.15694e+58
          1448.64600	         1.13140e+58
          1449.45230	         9.19569e+57
          1450.25860	         9.63919e+57
          1451.06490	         9.28025e+57
          1451.87120	         7.21077e+57
          1452.67750	         7.79713e+57
          1453.48380	         9.50503e+57
          1454.29010	         7.41530e+57
          1455.09640	         7.43314e+57
          1455.90270	         9.36517e+57
          1456.70900	         8.83924e+57
          1457.51530	         9.89886e+57
          1458.32160	         1.17902e+58
          1459.12790	         1.12049e+58
          1459.93420	         1.07510e+58
          1460.74050	         8.47273e+57
          1461.54680	         7.89630e+57
          1462.35310	         8.59472e+57
          1463.15940	         8.99669e+57
          1463.96570	         9.90953e+57
          1464.77200	         1.17940e+58
          1465.57830	         1.04547e+58
          1466.38460	         8.42473e+57
          1467.19090	         7.47419e+57
          1467.99720	         8.58360e+57
          1468.80350	         9.76708e+57
          1469.60980	         9.59698e+57
          1470.41610	         1.09188e+58
          1471.22240	         9.85270e+57
          1472.02870	         1.02247e+58
          1472.83500	         1.00607e+58
          1473.64130	         9.88248e+57
          1474.44760	         9.58286e+57
          1475.25390	         8.92305e+57
          1476.06020	         8.98628e+57
          1476.86650	         9.08884e+57
          1477.67280	         7.79286e+57
          1478.47910	         7.48146e+57
          1479.28540	         7.04142e+57
          1480.09170	         8.09113e+57
          1480.89800	         9.51132e+57
          1481.70430	         9.49406e+57
          1482.51060	         9.11715e+57
          1483.31690	         7.38207e+57
          1484.12320	         7.46044e+57
          1484.92950	         7.89654e+57
          1485.73580	         8.45399e+57
          1486.54210	         8.91379e+57
          1487.34840	         8.04214e+57
          1488.15470	         7.80941e+57
          1488.96100	         9.30722e+57
          1489.76730	         9.33815e+57
