#sample_283_stacked_spectrum_rest_UV-bands_median_H-alpha_noDC.txt
#median Lum: 1.71794e+42
#Rest-frame wavelength (A) | Luminosity (erg/s/A)
#
          1110.00000	         0.00000e+00
          1110.80630	         9.42926e+58
          1111.61260	         3.08633e+59
          1112.41890	         1.46213e+59
          1113.22520	         1.46654e+58
          1114.03150	        -1.50361e+59
          1114.83780	         1.62752e+59
          1115.64410	         6.92383e+58
          1116.45040	         2.49407e+59
          1117.25670	         1.96499e+59
          1118.06300	         2.05035e+59
          1118.86930	         5.32755e+58
          1119.67560	         1.21275e+59
          1120.48190	        -1.13025e+58
          1121.28820	        -6.60626e+58
          1122.09450	         9.18323e+58
          1122.90080	        -5.13543e+57
          1123.70710	         3.79055e+58
          1124.51340	         5.92003e+58
          1125.31970	        -3.24574e+58
          1126.12600	        -3.48467e+58
          1126.93230	        -2.36913e+58
          1127.73860	        -2.41682e+58
          1128.54490	        -4.19332e+58
          1129.35120	         7.18266e+57
          1130.15750	         1.62674e+58
          1130.96380	        -2.21735e+58
          1131.77010	         5.60928e+58
          1132.57640	         3.89095e+58
          1133.38270	         3.18934e+58
          1134.18900	         2.89032e+58
          1134.99530	         7.62530e+57
          1135.80160	         2.33545e+58
          1136.60790	         5.03575e+58
          1137.41420	         1.50638e+58
          1138.22050	         1.71978e+58
          1139.02680	         2.67384e+58
          1139.83310	         1.85469e+58
          1140.63940	         2.39524e+58
          1141.44570	        -2.27716e+58
          1142.25200	        -1.15998e+58
          1143.05830	         2.97993e+57
          1143.86460	         2.87083e+58
          1144.67090	         1.11984e+58
          1145.47720	         9.29657e+57
          1146.28350	         7.40394e+57
          1147.08980	        -2.91219e+57
          1147.89610	         2.07156e+58
          1148.70240	         2.78866e+58
          1149.50870	         2.40325e+58
          1150.31500	         1.61666e+58
          1151.12130	         4.56612e+57
          1151.92760	         1.02852e+58
          1152.73390	        -2.77687e+57
          1153.54020	        -2.04473e+57
          1154.34650	         2.71057e+58
          1155.15280	         1.88733e+58
          1155.95910	         9.35999e+57
          1156.76540	         1.49594e+58
          1157.57170	         1.41291e+58
          1158.37800	        -2.64946e+57
          1159.18430	        -6.34887e+57
          1159.99060	         2.55725e+57
          1160.79690	         1.21617e+58
          1161.60320	         5.61268e+57
          1162.40950	         1.00358e+58
          1163.21580	         1.84730e+58
          1164.02210	         1.42159e+58
          1164.82840	         1.43500e+58
          1165.63470	         1.98938e+58
          1166.44100	         2.51365e+58
          1167.24730	         1.41624e+58
          1168.05360	         3.78969e+57
          1168.85990	         6.05604e+57
          1169.66620	         1.05747e+58
          1170.47250	         1.37097e+58
          1171.27880	         9.44471e+57
          1172.08510	         5.44848e+57
          1172.89140	         7.48951e+57
          1173.69770	         1.82875e+57
          1174.50400	         1.08808e+58
          1175.31030	         1.72125e+58
          1176.11660	         1.65695e+58
          1176.92290	         9.99640e+57
          1177.72920	         1.09732e+58
          1178.53550	         7.99201e+57
          1179.34180	         5.60595e+57
          1180.14810	         6.05445e+57
          1180.95440	         7.13298e+57
          1181.76070	         5.98986e+57
          1182.56700	         8.29191e+57
          1183.37330	         1.16933e+58
          1184.17960	         1.45183e+58
          1184.98590	         8.10659e+57
          1185.79220	         4.39863e+57
          1186.59850	         1.00963e+58
          1187.40480	         7.18649e+57
          1188.21110	         1.19284e+58
          1189.01740	         8.97725e+57
          1189.82370	         1.15575e+58
          1190.63000	         1.06783e+58
          1191.43630	         1.69197e+58
          1192.24260	         1.30612e+58
          1193.04890	         1.26670e+58
          1193.85520	         1.21123e+58
          1194.66150	         7.72486e+57
          1195.46780	         1.17740e+58
          1196.27410	         1.56200e+58
          1197.08040	         9.72037e+57
          1197.88670	         1.25154e+58
          1198.69300	         1.52341e+58
          1199.49930	         1.40531e+58
          1200.30560	         4.46469e+57
          1201.11190	         6.15473e+57
          1201.91820	         1.08404e+58
          1202.72450	         1.01746e+58
          1203.53080	         1.38221e+58
          1204.33710	         9.01272e+57
          1205.14340	         3.63487e+57
          1205.94970	         6.53457e+57
          1206.75600	         7.73744e+57
          1207.56230	         2.88192e+57
          1208.36860	         9.44842e+57
          1209.17490	         5.46379e+57
          1209.98120	         5.80057e+57
          1210.78750	         3.44235e+57
          1211.59380	         8.69715e+57
          1212.40010	         1.90551e+58
          1213.20640	         2.16172e+58
          1214.01270	         2.09926e+58
          1214.81900	         2.70603e+58
          1215.62530	         4.52684e+58
          1216.43160	         8.64603e+58
          1217.23790	         1.51783e+59
          1218.04420	         1.18365e+59
          1218.85050	         9.05560e+58
          1219.65680	         5.97833e+58
          1220.46310	         3.24532e+58
          1221.26940	         2.06288e+58
          1222.07570	         1.39322e+58
          1222.88200	         1.54729e+58
          1223.68830	         1.23206e+58
          1224.49460	         6.19150e+57
          1225.30090	         6.24295e+57
          1226.10720	         5.04527e+57
          1226.91350	         3.47180e+57
          1227.71980	         8.94287e+57
          1228.52610	         1.22349e+58
          1229.33240	         9.23210e+57
          1230.13870	         1.00058e+58
          1230.94500	         9.77436e+57
          1231.75130	         8.05210e+57
          1232.55760	         8.33616e+57
          1233.36390	         9.13138e+57
          1234.17020	         1.04234e+58
          1234.97650	         8.68553e+57
          1235.78280	         6.50379e+57
          1236.58910	         8.20795e+57
          1237.39540	         1.08047e+58
          1238.20170	         1.03597e+58
          1239.00800	         1.22903e+58
          1239.81430	         1.62646e+58
          1240.62060	         1.07343e+58
          1241.42690	         7.89633e+57
          1242.23320	         1.01013e+58
          1243.03950	         8.37228e+57
          1243.84580	         8.01788e+57
          1244.65210	         8.63875e+57
          1245.45840	         8.50248e+57
          1246.26470	         8.09315e+57
          1247.07100	         7.47133e+57
          1247.87730	         5.68536e+57
          1248.68360	         4.84490e+57
          1249.48990	         9.15828e+57
          1250.29620	         1.09838e+58
          1251.10250	         6.15127e+57
          1251.90880	         3.50873e+57
          1252.71510	         5.65073e+57
          1253.52140	         6.62957e+57
          1254.32770	         1.03319e+58
          1255.13400	         1.36986e+58
          1255.94030	         1.15391e+58
          1256.74660	         9.30938e+57
          1257.55290	         1.03011e+58
          1258.35920	         1.02821e+58
          1259.16550	         7.40637e+57
          1259.97180	         5.53843e+57
          1260.77810	         6.47728e+57
          1261.58440	         1.01486e+58
          1262.39070	         1.00390e+58
          1263.19700	         9.98640e+57
          1264.00330	         1.00517e+58
          1264.80960	         9.06491e+57
          1265.61590	         1.21060e+58
          1266.42220	         1.39546e+58
          1267.22850	         1.17035e+58
          1268.03480	         1.28857e+58
          1268.84110	         1.39884e+58
          1269.64740	         1.39950e+58
          1270.45370	         1.35970e+58
          1271.26000	         1.18391e+58
          1272.06630	         1.25625e+58
          1272.87260	         1.29975e+58
          1273.67890	         1.14326e+58
          1274.48520	         1.33447e+58
          1275.29150	         1.19873e+58
          1276.09780	         1.06731e+58
          1276.90410	         1.45691e+58
          1277.71040	         1.33337e+58
          1278.51670	         1.30030e+58
          1279.32300	         1.44796e+58
          1280.12930	         1.29050e+58
          1280.93560	         1.15454e+58
          1281.74190	         1.36040e+58
          1282.54820	         1.53079e+58
          1283.35450	         1.20256e+58
          1284.16080	         1.17402e+58
          1284.96710	         1.34280e+58
          1285.77340	         1.02712e+58
          1286.57970	         1.24284e+58
          1287.38600	         1.66060e+58
          1288.19230	         1.90670e+58
          1288.99860	         1.91054e+58
          1289.80490	         1.17158e+58
          1290.61120	         1.17451e+58
          1291.41750	         1.19058e+58
          1292.22380	         1.12235e+58
          1293.03010	         1.03741e+58
          1293.83640	         1.14179e+58
          1294.64270	         1.15076e+58
          1295.44900	         9.51461e+57
          1296.25530	         9.12908e+57
          1297.06160	         9.99242e+57
          1297.86790	         1.01407e+58
          1298.67420	         9.60284e+57
          1299.48050	         1.12665e+58
          1300.28680	         1.32488e+58
          1301.09310	         9.23038e+57
          1301.89940	         5.57407e+57
          1302.70570	         7.19299e+57
          1303.51200	         8.35614e+57
          1304.31830	         1.04564e+58
          1305.12460	         1.15750e+58
          1305.93090	         1.21367e+58
          1306.73720	         1.27797e+58
          1307.54350	         1.38121e+58
          1308.34980	         1.37293e+58
          1309.15610	         1.48077e+58
          1309.96240	         1.36577e+58
          1310.76870	         1.37634e+58
          1311.57500	         1.60613e+58
          1312.38130	         1.55547e+58
          1313.18760	         1.57238e+58
          1313.99390	         1.54542e+58
          1314.80020	         1.57746e+58
          1315.60650	         1.66932e+58
          1316.41280	         1.36477e+58
          1317.21910	         1.14877e+58
          1318.02540	         1.32876e+58
          1318.83170	         1.47967e+58
          1319.63800	         1.37016e+58
          1320.44430	         1.24528e+58
          1321.25060	         1.30738e+58
          1322.05690	         1.29767e+58
          1322.86320	         1.27879e+58
          1323.66950	         1.17347e+58
          1324.47580	         9.45605e+57
          1325.28210	         9.27980e+57
          1326.08840	         1.07345e+58
          1326.89470	         1.16594e+58
          1327.70100	         1.17050e+58
          1328.50730	         1.02654e+58
          1329.31360	         1.00196e+58
          1330.11990	         9.57570e+57
          1330.92620	         8.87538e+57
          1331.73250	         9.76739e+57
          1332.53880	         9.84924e+57
          1333.34510	         8.73034e+57
          1334.15140	         8.82955e+57
          1334.95770	         9.72972e+57
          1335.76400	         1.05976e+58
          1336.57030	         1.26474e+58
          1337.37660	         1.38173e+58
          1338.18290	         1.17447e+58
          1338.98920	         1.22139e+58
          1339.79550	         1.15662e+58
          1340.60180	         1.13751e+58
          1341.40810	         1.36298e+58
          1342.21440	         1.19477e+58
          1343.02070	         1.17784e+58
          1343.82700	         1.24157e+58
          1344.63330	         1.18782e+58
          1345.43960	         1.22523e+58
          1346.24590	         9.80616e+57
          1347.05220	         1.17860e+58
          1347.85850	         1.17494e+58
          1348.66480	         1.28997e+58
          1349.47110	         1.29966e+58
          1350.27740	         1.15743e+58
          1351.08370	         1.29890e+58
          1351.89000	         1.22432e+58
          1352.69630	         1.06796e+58
          1353.50260	         1.15858e+58
          1354.30890	         1.17446e+58
          1355.11520	         1.16497e+58
          1355.92150	         1.27351e+58
          1356.72780	         1.14281e+58
          1357.53410	         1.13725e+58
          1358.34040	         1.15141e+58
          1359.14670	         9.87739e+57
          1359.95300	         1.09867e+58
          1360.75930	         1.20732e+58
          1361.56560	         1.11243e+58
          1362.37190	         1.17383e+58
          1363.17820	         1.13090e+58
          1363.98450	         1.18638e+58
          1364.79080	         1.23519e+58
          1365.59710	         1.21570e+58
          1366.40340	         1.19866e+58
          1367.20970	         1.02874e+58
          1368.01600	         9.14142e+57
          1368.82230	         9.99573e+57
          1369.62860	         1.18840e+58
          1370.43490	         9.46511e+57
          1371.24120	         8.91392e+57
          1372.04750	         9.23520e+57
          1372.85380	         1.24641e+58
          1373.66010	         1.28874e+58
          1374.46640	         1.13340e+58
          1375.27270	         1.06366e+58
          1376.07900	         9.37295e+57
          1376.88530	         9.58190e+57
          1377.69160	         9.02532e+57
          1378.49790	         6.77139e+57
          1379.30420	         7.35893e+57
          1380.11050	         8.34212e+57
          1380.91680	         7.65174e+57
          1381.72310	         6.29166e+57
          1382.52940	         7.53549e+57
          1383.33570	         9.52293e+57
          1384.14200	         1.03925e+58
          1384.94830	         1.16450e+58
          1385.75460	         1.13318e+58
          1386.56090	         1.27256e+58
          1387.36720	         1.24329e+58
          1388.17350	         1.51931e+58
          1388.97980	         1.21856e+58
          1389.78610	         8.42508e+57
          1390.59240	         8.71101e+57
          1391.39870	         6.97999e+57
          1392.20500	         7.25975e+57
          1393.01130	         7.32124e+57
          1393.81760	         6.87627e+57
          1394.62390	         7.72200e+57
          1395.43020	         7.41319e+57
          1396.23650	         7.54184e+57
          1397.04280	         9.42973e+57
          1397.84910	         9.97881e+57
          1398.65540	         9.65993e+57
          1399.46170	         9.71944e+57
          1400.26800	         7.85478e+57
          1401.07430	         7.13000e+57
          1401.88060	         7.31204e+57
          1402.68690	         8.90941e+57
          1403.49320	         9.94705e+57
          1404.29950	         1.06239e+58
          1405.10580	         1.10865e+58
          1405.91210	         1.15226e+58
          1406.71840	         1.01811e+58
          1407.52470	         8.74620e+57
          1408.33100	         9.19810e+57
          1409.13730	         1.19086e+58
          1409.94360	         1.27652e+58
          1410.74990	         1.15345e+58
          1411.55620	         1.02771e+58
          1412.36250	         1.01511e+58
          1413.16880	         8.95375e+57
          1413.97510	         8.15261e+57
          1414.78140	         9.22119e+57
          1415.58770	         1.00544e+58
          1416.39400	         9.21685e+57
          1417.20030	         1.01204e+58
          1418.00660	         1.06953e+58
          1418.81290	         1.05013e+58
          1419.61920	         1.05694e+58
          1420.42550	         1.30594e+58
          1421.23180	         1.39394e+58
          1422.03810	         1.24071e+58
          1422.84440	         1.14750e+58
          1423.65070	         1.19912e+58
          1424.45700	         1.14603e+58
          1425.26330	         8.99724e+57
          1426.06960	         9.54239e+57
          1426.87590	         9.63135e+57
          1427.68220	         8.61648e+57
          1428.48850	         9.59149e+57
          1429.29480	         1.07859e+58
          1430.10110	         9.88881e+57
          1430.90740	         8.13639e+57
          1431.71370	         8.26467e+57
          1432.52000	         9.78017e+57
          1433.32630	         8.73384e+57
          1434.13260	         8.56465e+57
          1434.93890	         7.83946e+57
          1435.74520	         8.47645e+57
          1436.55150	         9.85210e+57
          1437.35780	         1.03792e+58
          1438.16410	         9.57906e+57
          1438.97040	         9.27651e+57
          1439.77670	         9.23460e+57
          1440.58300	         1.03046e+58
          1441.38930	         9.58466e+57
          1442.19560	         9.69725e+57
          1443.00190	         1.13965e+58
          1443.80820	         1.17267e+58
          1444.61450	         1.00162e+58
          1445.42080	         9.16696e+57
          1446.22710	         1.11080e+58
          1447.03340	         1.03958e+58
          1447.83970	         1.04151e+58
          1448.64600	         1.06325e+58
          1449.45230	         1.03787e+58
          1450.25860	         9.95664e+57
          1451.06490	         8.68321e+57
          1451.87120	         7.83983e+57
          1452.67750	         7.57010e+57
          1453.48380	         8.17408e+57
          1454.29010	         7.75872e+57
          1455.09640	         7.71580e+57
          1455.90270	         9.54597e+57
          1456.70900	         9.70589e+57
          1457.51530	         1.00343e+58
          1458.32160	         1.09017e+58
          1459.12790	         1.05845e+58
          1459.93420	         1.14534e+58
          1460.74050	         9.68547e+57
          1461.54680	         8.99764e+57
          1462.35310	         8.14082e+57
          1463.15940	         9.96514e+57
          1463.96570	         1.17576e+58
          1464.77200	         1.24637e+58
          1465.57830	         1.09962e+58
          1466.38460	         9.37704e+57
          1467.19090	         9.07398e+57
          1467.99720	         9.63697e+57
          1468.80350	         1.07556e+58
          1469.60980	         1.06016e+58
          1470.41610	         1.14244e+58
          1471.22240	         1.04047e+58
          1472.02870	         1.04348e+58
          1472.83500	         1.05627e+58
          1473.64130	         1.08315e+58
          1474.44760	         9.74838e+57
          1475.25390	         9.61740e+57
          1476.06020	         8.82109e+57
          1476.86650	         8.23233e+57
          1477.67280	         8.51678e+57
          1478.47910	         7.23498e+57
          1479.28540	         6.18058e+57
          1480.09170	         7.40933e+57
          1480.89800	         8.43175e+57
          1481.70430	         9.06871e+57
          1482.51060	         8.70942e+57
          1483.31690	         8.68761e+57
          1484.12320	         8.21657e+57
          1484.92950	         7.62544e+57
          1485.73580	         8.77451e+57
          1486.54210	         9.09777e+57
          1487.34840	         8.07795e+57
          1488.15470	         8.44202e+57
          1488.96100	         9.08523e+57
          1489.76730	         1.03084e+58
