#sample_37_stacked_spectrum_rest_UV-bands_median_H-alpha_noDC.txt
#median Lum: 1.68679e+42
#Rest-frame wavelength (A) | Luminosity (erg/s/A)
#
          1110.00000	         0.00000e+00
          1110.80630	         3.15242e+59
          1111.61260	         4.30950e+59
          1112.41890	         3.24676e+59
          1113.22520	         1.23173e+59
          1114.03150	         1.06113e+58
          1114.83780	         1.28311e+59
          1115.64410	         3.74576e+58
          1116.45040	         2.97977e+58
          1117.25670	         8.51304e+58
          1118.06300	         1.22349e+59
          1118.86930	        -9.57264e+58
          1119.67560	         1.50014e+59
          1120.48190	         1.04580e+59
          1121.28820	        -8.34472e+58
          1122.09450	         4.69084e+58
          1122.90080	         5.48109e+58
          1123.70710	         8.90343e+58
          1124.51340	         1.13233e+59
          1125.31970	         6.17915e+58
          1126.12600	         7.16503e+57
          1126.93230	        -7.74630e+58
          1127.73860	        -7.51966e+58
          1128.54490	         9.22643e+57
          1129.35120	         9.21292e+57
          1130.15750	        -4.46000e+57
          1130.96380	        -2.62035e+58
          1131.77010	         3.17326e+58
          1132.57640	         2.03145e+58
          1133.38270	         2.75152e+58
          1134.18900	         3.17313e+58
          1134.99530	         2.82612e+58
          1135.80160	         2.01412e+58
          1136.60790	         1.44552e+58
          1137.41420	         7.70578e+57
          1138.22050	         2.72294e+58
          1139.02680	         3.41729e+58
          1139.83310	         2.56658e+58
          1140.63940	         2.27210e+58
          1141.44570	        -1.50353e+58
          1142.25200	        -1.61968e+57
          1143.05830	         1.24722e+58
          1143.86460	         7.53398e+57
          1144.67090	         1.33398e+58
          1145.47720	         1.60000e+58
          1146.28350	         1.83652e+58
          1147.08980	         1.94454e+58
          1147.89610	         2.58748e+58
          1148.70240	         2.48160e+58
          1149.50870	         3.00344e+58
          1150.31500	         1.69319e+58
          1151.12130	         1.30610e+58
          1151.92760	         6.34377e+57
          1152.73390	         9.14450e+57
          1153.54020	         1.33232e+58
          1154.34650	         2.22883e+58
          1155.15280	         2.89336e+58
          1155.95910	         1.01202e+58
          1156.76540	         1.73776e+58
          1157.57170	         9.90170e+57
          1158.37800	        -2.42223e+57
          1159.18430	        -3.15916e+57
          1159.99060	         4.63093e+57
          1160.79690	        -1.80511e+57
          1161.60320	         6.65488e+57
          1162.40950	         1.67055e+58
          1163.21580	         2.87328e+58
          1164.02210	         1.66072e+58
          1164.82840	         7.85742e+57
          1165.63470	         1.25871e+58
          1166.44100	         2.56892e+58
          1167.24730	         2.45495e+58
          1168.05360	         1.33958e+58
          1168.85990	         3.93404e+57
          1169.66620	         1.23106e+58
          1170.47250	         1.27682e+58
          1171.27880	         1.09989e+58
          1172.08510	         1.44163e+58
          1172.89140	         1.60364e+58
          1173.69770	         3.55834e+57
          1174.50400	         9.78756e+57
          1175.31030	         1.60350e+58
          1176.11660	         1.53122e+58
          1176.92290	         1.06700e+58
          1177.72920	         1.19613e+58
          1178.53550	         9.74497e+57
          1179.34180	         2.08168e+57
          1180.14810	         5.72298e+57
          1180.95440	         8.47640e+57
          1181.76070	         4.55721e+57
          1182.56700	         5.31026e+57
          1183.37330	         8.36044e+57
          1184.17960	         1.41522e+58
          1184.98590	         1.24215e+58
          1185.79220	         1.37570e+58
          1186.59850	         1.61895e+58
          1187.40480	         1.28433e+58
          1188.21110	         1.58010e+58
          1189.01740	         6.88046e+57
          1189.82370	         1.25705e+58
          1190.63000	         2.00259e+58
          1191.43630	         1.59018e+58
          1192.24260	         1.28558e+58
          1193.04890	         1.46666e+58
          1193.85520	         1.08005e+58
          1194.66150	         3.47525e+57
          1195.46780	         7.84577e+57
          1196.27410	         1.17735e+58
          1197.08040	         9.70612e+57
          1197.88670	         1.53281e+58
          1198.69300	         1.52190e+58
          1199.49930	         1.41588e+58
          1200.30560	         1.18210e+58
          1201.11190	         9.09229e+57
          1201.91820	         8.63484e+57
          1202.72450	         1.13467e+58
          1203.53080	         1.49361e+58
          1204.33710	         9.98501e+57
          1205.14340	         9.93392e+57
          1205.94970	         9.05404e+57
          1206.75600	         5.54321e+57
          1207.56230	         3.61987e+57
          1208.36860	         6.71163e+57
          1209.17490	         1.62351e+57
          1209.98120	         2.17550e+57
          1210.78750	         6.31620e+57
          1211.59380	         1.59279e+58
          1212.40010	         2.03823e+58
          1213.20640	         1.90724e+58
          1214.01270	         2.16590e+58
          1214.81900	         2.91711e+58
          1215.62530	         4.40765e+58
          1216.43160	         8.64726e+58
          1217.23790	         1.50442e+59
          1218.04420	         1.15078e+59
          1218.85050	         8.14482e+58
          1219.65680	         5.53800e+58
          1220.46310	         3.21854e+58
          1221.26940	         1.99951e+58
          1222.07570	         1.36779e+58
          1222.88200	         1.48501e+58
          1223.68830	         1.19671e+58
          1224.49460	         5.93009e+57
          1225.30090	         8.18258e+57
          1226.10720	         6.57050e+57
          1226.91350	         6.07492e+57
          1227.71980	         6.37179e+57
          1228.52610	         1.16867e+58
          1229.33240	         7.59704e+57
          1230.13870	         5.63157e+57
          1230.94500	         9.13432e+57
          1231.75130	         4.88261e+57
          1232.55760	         7.55732e+57
          1233.36390	         7.99671e+57
          1234.17020	         8.71485e+57
          1234.97650	         7.25794e+57
          1235.78280	         5.49370e+57
          1236.58910	         5.75557e+57
          1237.39540	         8.86116e+57
          1238.20170	         1.12839e+58
          1239.00800	         1.02404e+58
          1239.81430	         1.33239e+58
          1240.62060	         1.17176e+58
          1241.42690	         9.47870e+57
          1242.23320	         1.08524e+58
          1243.03950	         7.67944e+57
          1243.84580	         7.28947e+57
          1244.65210	         1.02627e+58
          1245.45840	         1.21144e+58
          1246.26470	         9.64049e+57
          1247.07100	         9.01567e+57
          1247.87730	         7.65291e+57
          1248.68360	         3.85509e+57
          1249.48990	         7.15452e+57
          1250.29620	         9.80229e+57
          1251.10250	         6.92477e+57
          1251.90880	         3.95906e+57
          1252.71510	         4.40611e+57
          1253.52140	         6.50960e+57
          1254.32770	         9.79451e+57
          1255.13400	         1.33865e+58
          1255.94030	         1.23388e+58
          1256.74660	         9.80476e+57
          1257.55290	         1.03901e+58
          1258.35920	         9.39329e+57
          1259.16550	         5.82569e+57
          1259.97180	         6.25456e+57
          1260.77810	         1.04329e+58
          1261.58440	         1.22906e+58
          1262.39070	         7.92743e+57
          1263.19700	         7.58969e+57
          1264.00330	         8.92902e+57
          1264.80960	         1.12163e+58
          1265.61590	         1.18604e+58
          1266.42220	         1.23610e+58
          1267.22850	         1.10246e+58
          1268.03480	         1.11407e+58
          1268.84110	         1.30246e+58
          1269.64740	         1.22639e+58
          1270.45370	         1.28964e+58
          1271.26000	         1.30556e+58
          1272.06630	         1.28200e+58
          1272.87260	         1.25533e+58
          1273.67890	         1.24773e+58
          1274.48520	         1.31050e+58
          1275.29150	         1.14970e+58
          1276.09780	         9.96457e+57
          1276.90410	         1.29571e+58
          1277.71040	         1.22055e+58
          1278.51670	         1.17682e+58
          1279.32300	         1.32297e+58
          1280.12930	         1.26831e+58
          1280.93560	         1.06480e+58
          1281.74190	         1.05700e+58
          1282.54820	         1.31871e+58
          1283.35450	         1.25095e+58
          1284.16080	         1.04414e+58
          1284.96710	         1.17177e+58
          1285.77340	         1.13263e+58
          1286.57970	         1.28315e+58
          1287.38600	         1.65406e+58
          1288.19230	         1.70527e+58
          1288.99860	         1.36055e+58
          1289.80490	         1.05906e+58
          1290.61120	         1.36880e+58
          1291.41750	         1.30063e+58
          1292.22380	         9.57163e+57
          1293.03010	         1.09726e+58
          1293.83640	         1.16134e+58
          1294.64270	         9.46395e+57
          1295.44900	         7.43647e+57
          1296.25530	         7.60318e+57
          1297.06160	         9.55085e+57
          1297.86790	         9.91016e+57
          1298.67420	         1.03545e+58
          1299.48050	         1.00051e+58
          1300.28680	         8.58100e+57
          1301.09310	         7.78108e+57
          1301.89940	         3.59826e+57
          1302.70570	         7.06185e+57
          1303.51200	         8.45296e+57
          1304.31830	         8.00458e+57
          1305.12460	         9.79244e+57
          1305.93090	         1.02884e+58
          1306.73720	         1.09254e+58
          1307.54350	         1.37155e+58
          1308.34980	         1.54414e+58
          1309.15610	         1.56825e+58
          1309.96240	         1.68789e+58
          1310.76870	         1.31232e+58
          1311.57500	         9.23308e+57
          1312.38130	         1.10644e+58
          1313.18760	         1.38454e+58
          1313.99390	         1.44293e+58
          1314.80020	         1.51491e+58
          1315.60650	         1.32830e+58
          1316.41280	         1.01794e+58
          1317.21910	         1.07963e+58
          1318.02540	         1.05566e+58
          1318.83170	         1.09784e+58
          1319.63800	         1.14475e+58
          1320.44430	         9.31267e+57
          1321.25060	         1.04887e+58
          1322.05690	         1.18837e+58
          1322.86320	         1.31680e+58
          1323.66950	         1.13358e+58
          1324.47580	         9.28232e+57
          1325.28210	         9.74979e+57
          1326.08840	         1.05557e+58
          1326.89470	         1.11262e+58
          1327.70100	         8.87637e+57
          1328.50730	         6.95120e+57
          1329.31360	         9.21671e+57
          1330.11990	         9.11919e+57
          1330.92620	         8.12989e+57
          1331.73250	         1.04494e+58
          1332.53880	         9.68307e+57
          1333.34510	         9.60520e+57
          1334.15140	         9.51355e+57
          1334.95770	         8.99061e+57
          1335.76400	         1.05176e+58
          1336.57030	         1.04669e+58
          1337.37660	         9.50108e+57
          1338.18290	         1.01782e+58
          1338.98920	         1.04820e+58
          1339.79550	         9.99954e+57
          1340.60180	         1.22550e+58
          1341.40810	         1.31423e+58
          1342.21440	         1.24257e+58
          1343.02070	         1.27670e+58
          1343.82700	         1.19970e+58
          1344.63330	         1.11370e+58
          1345.43960	         1.20524e+58
          1346.24590	         1.19448e+58
          1347.05220	         1.27671e+58
          1347.85850	         1.10375e+58
          1348.66480	         1.23487e+58
          1349.47110	         1.28442e+58
          1350.27740	         1.26838e+58
          1351.08370	         1.25656e+58
          1351.89000	         1.09795e+58
          1352.69630	         1.05457e+58
          1353.50260	         1.21203e+58
          1354.30890	         1.22197e+58
          1355.11520	         1.32317e+58
          1355.92150	         1.17672e+58
          1356.72780	         1.04192e+58
          1357.53410	         9.69843e+57
          1358.34040	         9.28157e+57
          1359.14670	         9.21745e+57
          1359.95300	         1.04475e+58
          1360.75930	         1.10902e+58
          1361.56560	         9.49635e+57
          1362.37190	         8.35290e+57
          1363.17820	         9.92635e+57
          1363.98450	         1.08298e+58
          1364.79080	         1.19410e+58
          1365.59710	         1.36056e+58
          1366.40340	         1.32562e+58
          1367.20970	         1.04004e+58
          1368.01600	         8.92047e+57
          1368.82230	         9.20509e+57
          1369.62860	         1.08947e+58
          1370.43490	         9.67015e+57
          1371.24120	         9.66361e+57
          1372.04750	         8.37144e+57
          1372.85380	         1.04132e+58
          1373.66010	         1.13653e+58
          1374.46640	         1.11669e+58
          1375.27270	         9.86050e+57
          1376.07900	         7.45059e+57
          1376.88530	         7.60985e+57
          1377.69160	         8.24841e+57
          1378.49790	         5.71839e+57
          1379.30420	         7.20501e+57
          1380.11050	         8.92095e+57
          1380.91680	         7.52191e+57
          1381.72310	         7.35283e+57
          1382.52940	         8.42733e+57
          1383.33570	         8.76902e+57
          1384.14200	         1.06227e+58
          1384.94830	         1.10037e+58
          1385.75460	         1.04908e+58
          1386.56090	         1.12872e+58
          1387.36720	         1.06137e+58
          1388.17350	         1.23764e+58
          1388.97980	         1.14914e+58
          1389.78610	         7.67787e+57
          1390.59240	         6.94669e+57
          1391.39870	         6.56232e+57
          1392.20500	         7.19068e+57
          1393.01130	         7.17034e+57
          1393.81760	         6.39163e+57
          1394.62390	         6.48460e+57
          1395.43020	         6.58419e+57
          1396.23650	         6.84978e+57
          1397.04280	         7.48562e+57
          1397.84910	         8.48224e+57
          1398.65540	         7.58722e+57
          1399.46170	         8.32452e+57
          1400.26800	         9.26222e+57
          1401.07430	         8.78621e+57
          1401.88060	         8.00834e+57
          1402.68690	         9.18663e+57
          1403.49320	         9.52016e+57
          1404.29950	         9.30480e+57
          1405.10580	         1.08846e+58
          1405.91210	         1.14222e+58
          1406.71840	         9.87550e+57
          1407.52470	         9.45087e+57
          1408.33100	         9.98903e+57
          1409.13730	         1.10301e+58
          1409.94360	         1.12353e+58
          1410.74990	         1.12538e+58
          1411.55620	         1.04496e+58
          1412.36250	         8.89538e+57
          1413.16880	         8.32271e+57
          1413.97510	         8.36031e+57
          1414.78140	         8.62371e+57
          1415.58770	         9.89967e+57
          1416.39400	         9.98735e+57
          1417.20030	         1.02821e+58
          1418.00660	         9.02223e+57
          1418.81290	         8.19433e+57
          1419.61920	         1.02181e+58
          1420.42550	         1.27514e+58
          1421.23180	         1.38071e+58
          1422.03810	         1.33462e+58
          1422.84440	         1.14537e+58
          1423.65070	         1.10792e+58
          1424.45700	         9.88343e+57
          1425.26330	         7.62830e+57
          1426.06960	         8.78411e+57
          1426.87590	         1.06648e+58
          1427.68220	         9.91839e+57
          1428.48850	         9.92916e+57
          1429.29480	         1.09745e+58
          1430.10110	         1.11674e+58
          1430.90740	         8.24335e+57
          1431.71370	         7.29369e+57
          1432.52000	         8.15759e+57
          1433.32630	         7.73103e+57
          1434.13260	         7.02321e+57
          1434.93890	         8.16871e+57
          1435.74520	         8.94688e+57
          1436.55150	         8.68863e+57
          1437.35780	         9.06046e+57
          1438.16410	         9.00207e+57
          1438.97040	         9.70692e+57
          1439.77670	         8.85305e+57
          1440.58300	         8.81821e+57
          1441.38930	         9.72745e+57
          1442.19560	         1.04036e+58
          1443.00190	         1.03635e+58
          1443.80820	         1.05255e+58
          1444.61450	         9.36864e+57
          1445.42080	         8.84691e+57
          1446.22710	         1.11540e+58
          1447.03340	         1.04363e+58
          1447.83970	         1.07988e+58
          1448.64600	         1.09148e+58
          1449.45230	         9.51894e+57
          1450.25860	         9.59444e+57
          1451.06490	         9.25745e+57
          1451.87120	         7.66422e+57
          1452.67750	         7.45015e+57
          1453.48380	         8.18686e+57
          1454.29010	         7.08863e+57
          1455.09640	         6.41702e+57
          1455.90270	         8.05790e+57
          1456.70900	         9.08571e+57
          1457.51530	         9.84465e+57
          1458.32160	         1.23270e+58
          1459.12790	         1.18093e+58
          1459.93420	         9.59350e+57
          1460.74050	         7.48863e+57
          1461.54680	         8.36107e+57
          1462.35310	         8.02681e+57
          1463.15940	         8.83366e+57
          1463.96570	         1.13396e+58
          1464.77200	         1.19077e+58
          1465.57830	         9.66103e+57
          1466.38460	         9.23734e+57
          1467.19090	         8.58490e+57
          1467.99720	         9.40675e+57
          1468.80350	         9.79484e+57
          1469.60980	         9.87209e+57
          1470.41610	         1.06004e+58
          1471.22240	         9.33634e+57
          1472.02870	         9.14920e+57
          1472.83500	         9.68374e+57
          1473.64130	         9.70033e+57
          1474.44760	         9.10803e+57
          1475.25390	         8.46742e+57
          1476.06020	         9.15538e+57
          1476.86650	         8.61824e+57
          1477.67280	         8.47006e+57
          1478.47910	         8.06456e+57
          1479.28540	         6.93139e+57
          1480.09170	         8.56978e+57
          1480.89800	         9.43662e+57
          1481.70430	         9.65450e+57
          1482.51060	         8.87629e+57
          1483.31690	         8.35525e+57
          1484.12320	         8.10812e+57
          1484.92950	         8.04631e+57
          1485.73580	         8.29651e+57
          1486.54210	         8.13911e+57
          1487.34840	         8.33308e+57
          1488.15470	         7.71936e+57
          1488.96100	         8.15523e+57
          1489.76730	         9.20868e+57
