#sample_496_stacked_spectrum_rest_UV-bands_median_H-alpha_noDC.txt
#median Lum: 1.65471e+42
#Rest-frame wavelength (A) | Luminosity (erg/s/A)
#
          1110.00000	         0.00000e+00
          1110.80630	        -3.34852e+59
          1111.61260	         8.38994e+58
          1112.41890	         2.68983e+59
          1113.22520	         1.80164e+59
          1114.03150	        -3.49924e+58
          1114.83780	         7.38107e+58
          1115.64410	        -3.74757e+58
          1116.45040	         3.21995e+58
          1117.25670	        -8.10131e+58
          1118.06300	         1.97544e+58
          1118.86930	         7.66875e+58
          1119.67560	         4.87367e+58
          1120.48190	        -3.03665e+58
          1121.28820	        -1.41076e+59
          1122.09450	         3.07165e+58
          1122.90080	         3.80187e+58
          1123.70710	        -1.11221e+58
          1124.51340	         3.70151e+58
          1125.31970	        -4.11767e+58
          1126.12600	         6.69015e+57
          1126.93230	        -1.88470e+58
          1127.73860	        -4.25664e+58
          1128.54490	        -2.79428e+58
          1129.35120	        -6.54900e+57
          1130.15750	        -4.10772e+58
          1130.96380	        -2.45158e+58
          1131.77010	         5.43144e+58
          1132.57640	         6.34108e+58
          1133.38270	         5.10294e+58
          1134.18900	         4.31969e+58
          1134.99530	         3.09671e+58
          1135.80160	         2.86796e+58
          1136.60790	         2.29641e+58
          1137.41420	        -7.11009e+57
          1138.22050	         1.97368e+58
          1139.02680	         1.48626e+58
          1139.83310	         2.46350e+58
          1140.63940	         1.94570e+58
          1141.44570	        -1.56058e+58
          1142.25200	         7.80312e+57
          1143.05830	         4.12337e+58
          1143.86460	         3.54461e+58
          1144.67090	         3.17139e+58
          1145.47720	         3.00191e+58
          1146.28350	         1.85036e+58
          1147.08980	         9.71824e+57
          1147.89610	         2.22155e+57
          1148.70240	         1.63119e+58
          1149.50870	         2.90552e+58
          1150.31500	         1.41172e+58
          1151.12130	         1.18866e+58
          1151.92760	         4.19142e+57
          1152.73390	         5.78051e+57
          1153.54020	         6.60954e+57
          1154.34650	         2.04659e+58
          1155.15280	         2.60183e+58
          1155.95910	         1.03153e+58
          1156.76540	         8.91253e+57
          1157.57170	        -1.75512e+57
          1158.37800	        -1.24778e+58
          1159.18430	        -3.66159e+57
          1159.99060	         1.31175e+58
          1160.79690	         2.01831e+58
          1161.60320	         6.18783e+57
          1162.40950	         1.43003e+58
          1163.21580	         2.47913e+58
          1164.02210	         7.18130e+57
          1164.82840	         1.05459e+58
          1165.63470	         2.05597e+58
          1166.44100	         2.65021e+58
          1167.24730	         1.77999e+58
          1168.05360	         9.91909e+57
          1168.85990	         7.44957e+57
          1169.66620	         1.33818e+58
          1170.47250	         2.01023e+58
          1171.27880	         1.50584e+58
          1172.08510	         1.71151e+58
          1172.89140	         5.39898e+57
          1173.69770	         6.05468e+57
          1174.50400	         1.41514e+58
          1175.31030	         1.89749e+58
          1176.11660	         1.79257e+58
          1176.92290	         1.43410e+58
          1177.72920	         9.12026e+57
          1178.53550	         1.20891e+58
          1179.34180	         2.30967e+57
          1180.14810	         2.20564e+57
          1180.95440	         2.65866e+57
          1181.76070	         2.67680e+57
          1182.56700	         7.89493e+57
          1183.37330	         6.69548e+57
          1184.17960	         1.10150e+58
          1184.98590	         1.23999e+58
          1185.79220	         4.94418e+57
          1186.59850	         9.18187e+57
          1187.40480	         9.52658e+57
          1188.21110	         1.22422e+58
          1189.01740	         1.48240e+58
          1189.82370	         1.13895e+58
          1190.63000	         8.57684e+57
          1191.43630	         1.18611e+58
          1192.24260	         7.73057e+57
          1193.04890	         1.22344e+58
          1193.85520	         1.00892e+58
          1194.66150	         1.24499e+57
          1195.46780	         8.59282e+57
          1196.27410	         1.43319e+58
          1197.08040	         8.07497e+57
          1197.88670	         9.86620e+57
          1198.69300	         1.40137e+58
          1199.49930	         1.73640e+58
          1200.30560	         1.28525e+58
          1201.11190	         1.25494e+58
          1201.91820	         1.26577e+58
          1202.72450	         8.35433e+57
          1203.53080	         1.14791e+58
          1204.33710	         8.98710e+57
          1205.14340	         8.97408e+57
          1205.94970	         1.10860e+58
          1206.75600	         4.56837e+57
          1207.56230	         7.48186e+57
          1208.36860	         1.28822e+58
          1209.17490	         5.49668e+57
          1209.98120	         7.26493e+57
          1210.78750	         6.55342e+57
          1211.59380	         1.09942e+58
          1212.40010	         1.76395e+58
          1213.20640	         1.85574e+58
          1214.01270	         2.00958e+58
          1214.81900	         2.96814e+58
          1215.62530	         4.42402e+58
          1216.43160	         8.69890e+58
          1217.23790	         1.51245e+59
          1218.04420	         1.10945e+59
          1218.85050	         8.42411e+58
          1219.65680	         5.60090e+58
          1220.46310	         3.10572e+58
          1221.26940	         2.17961e+58
          1222.07570	         1.47770e+58
          1222.88200	         1.07306e+58
          1223.68830	         9.33403e+57
          1224.49460	         9.16162e+57
          1225.30090	         7.32042e+57
          1226.10720	         8.05572e+57
          1226.91350	         8.90014e+57
          1227.71980	         1.11268e+58
          1228.52610	         1.05080e+58
          1229.33240	         7.92085e+57
          1230.13870	         7.96833e+57
          1230.94500	         9.76145e+57
          1231.75130	         6.31914e+57
          1232.55760	         7.41455e+57
          1233.36390	         6.72295e+57
          1234.17020	         7.31351e+57
          1234.97650	         1.13333e+58
          1235.78280	         1.01380e+58
          1236.58910	         9.32433e+57
          1237.39540	         1.16687e+58
          1238.20170	         9.95645e+57
          1239.00800	         1.08345e+58
          1239.81430	         1.19669e+58
          1240.62060	         1.09073e+58
          1241.42690	         1.02917e+58
          1242.23320	         1.07279e+58
          1243.03950	         7.84306e+57
          1243.84580	         7.68677e+57
          1244.65210	         8.51716e+57
          1245.45840	         8.99188e+57
          1246.26470	         8.39953e+57
          1247.07100	         7.55431e+57
          1247.87730	         4.34101e+57
          1248.68360	         2.26637e+57
          1249.48990	         7.62882e+57
          1250.29620	         7.64515e+57
          1251.10250	         5.31604e+57
          1251.90880	         5.52382e+57
          1252.71510	         6.74967e+57
          1253.52140	         7.08517e+57
          1254.32770	         9.55031e+57
          1255.13400	         1.27220e+58
          1255.94030	         1.18335e+58
          1256.74660	         9.43896e+57
          1257.55290	         9.79105e+57
          1258.35920	         8.32534e+57
          1259.16550	         6.22068e+57
          1259.97180	         4.94644e+57
          1260.77810	         7.11178e+57
          1261.58440	         7.00110e+57
          1262.39070	         6.02748e+57
          1263.19700	         6.83169e+57
          1264.00330	         9.73487e+57
          1264.80960	         1.12138e+58
          1265.61590	         1.20510e+58
          1266.42220	         1.13884e+58
          1267.22850	         1.09411e+58
          1268.03480	         1.31097e+58
          1268.84110	         1.39337e+58
          1269.64740	         1.30003e+58
          1270.45370	         1.15071e+58
          1271.26000	         1.21342e+58
          1272.06630	         1.50696e+58
          1272.87260	         1.37010e+58
          1273.67890	         1.19276e+58
          1274.48520	         1.12210e+58
          1275.29150	         1.16649e+58
          1276.09780	         1.16052e+58
          1276.90410	         1.38713e+58
          1277.71040	         1.39383e+58
          1278.51670	         1.20007e+58
          1279.32300	         1.26643e+58
          1280.12930	         1.12921e+58
          1280.93560	         8.79166e+57
          1281.74190	         1.19109e+58
          1282.54820	         1.43556e+58
          1283.35450	         1.12687e+58
          1284.16080	         1.10292e+58
          1284.96710	         1.26963e+58
          1285.77340	         1.01474e+58
          1286.57970	         8.42328e+57
          1287.38600	         1.35577e+58
          1288.19230	         1.53855e+58
          1288.99860	         1.51322e+58
          1289.80490	         1.05503e+58
          1290.61120	         1.26775e+58
          1291.41750	         1.42238e+58
          1292.22380	         1.10499e+58
          1293.03010	         8.76538e+57
          1293.83640	         1.06072e+58
          1294.64270	         9.57160e+57
          1295.44900	         5.74674e+57
          1296.25530	         7.68667e+57
          1297.06160	         1.10695e+58
          1297.86790	         1.04119e+58
          1298.67420	         9.41242e+57
          1299.48050	         1.06611e+58
          1300.28680	         1.14996e+58
          1301.09310	         8.20873e+57
          1301.89940	         4.75601e+57
          1302.70570	         7.08279e+57
          1303.51200	         8.37597e+57
          1304.31830	         9.75625e+57
          1305.12460	         1.03276e+58
          1305.93090	         9.09153e+57
          1306.73720	         1.06015e+58
          1307.54350	         1.31916e+58
          1308.34980	         1.39816e+58
          1309.15610	         1.56309e+58
          1309.96240	         1.63950e+58
          1310.76870	         1.47544e+58
          1311.57500	         1.30728e+58
          1312.38130	         1.22219e+58
          1313.18760	         1.15548e+58
          1313.99390	         1.27804e+58
          1314.80020	         1.42566e+58
          1315.60650	         1.27275e+58
          1316.41280	         1.13245e+58
          1317.21910	         9.53475e+57
          1318.02540	         1.17337e+58
          1318.83170	         1.34342e+58
          1319.63800	         1.05143e+58
          1320.44430	         9.98438e+57
          1321.25060	         1.21618e+58
          1322.05690	         1.17317e+58
          1322.86320	         1.09715e+58
          1323.66950	         9.61174e+57
          1324.47580	         8.99922e+57
          1325.28210	         9.37490e+57
          1326.08840	         1.05743e+58
          1326.89470	         1.20616e+58
          1327.70100	         1.11397e+58
          1328.50730	         7.89327e+57
          1329.31360	         9.91718e+57
          1330.11990	         1.09263e+58
          1330.92620	         9.81738e+57
          1331.73250	         1.07047e+58
          1332.53880	         1.00274e+58
          1333.34510	         8.84763e+57
          1334.15140	         9.31949e+57
          1334.95770	         8.84903e+57
          1335.76400	         1.06863e+58
          1336.57030	         1.04807e+58
          1337.37660	         1.02340e+58
          1338.18290	         1.11373e+58
          1338.98920	         1.12115e+58
          1339.79550	         1.07031e+58
          1340.60180	         1.09637e+58
          1341.40810	         1.26625e+58
          1342.21440	         1.20747e+58
          1343.02070	         1.18266e+58
          1343.82700	         1.16906e+58
          1344.63330	         1.08083e+58
          1345.43960	         1.37881e+58
          1346.24590	         1.36642e+58
          1347.05220	         1.22576e+58
          1347.85850	         9.02947e+57
          1348.66480	         9.88117e+57
          1349.47110	         1.08171e+58
          1350.27740	         1.14444e+58
          1351.08370	         1.18021e+58
          1351.89000	         1.06091e+58
          1352.69630	         9.64795e+57
          1353.50260	         1.06077e+58
          1354.30890	         1.09445e+58
          1355.11520	         1.09084e+58
          1355.92150	         1.04928e+58
          1356.72780	         9.13640e+57
          1357.53410	         8.86750e+57
          1358.34040	         1.03550e+58
          1359.14670	         9.60827e+57
          1359.95300	         8.97071e+57
          1360.75930	         9.76956e+57
          1361.56560	         1.03271e+58
          1362.37190	         1.02750e+58
          1363.17820	         1.05651e+58
          1363.98450	         1.15261e+58
          1364.79080	         1.19303e+58
          1365.59710	         1.25421e+58
          1366.40340	         1.21250e+58
          1367.20970	         9.75839e+57
          1368.01600	         8.84509e+57
          1368.82230	         8.77638e+57
          1369.62860	         1.01786e+58
          1370.43490	         1.02729e+58
          1371.24120	         9.66891e+57
          1372.04750	         7.84052e+57
          1372.85380	         1.04614e+58
          1373.66010	         1.12233e+58
          1374.46640	         9.83614e+57
          1375.27270	         1.01960e+58
          1376.07900	         9.75056e+57
          1376.88530	         9.18255e+57
          1377.69160	         9.26591e+57
          1378.49790	         7.97880e+57
          1379.30420	         8.41829e+57
          1380.11050	         8.88111e+57
          1380.91680	         7.69676e+57
          1381.72310	         7.71440e+57
          1382.52940	         8.69843e+57
          1383.33570	         9.74563e+57
          1384.14200	         1.08139e+58
          1384.94830	         9.76781e+57
          1385.75460	         1.00473e+58
          1386.56090	         1.09631e+58
          1387.36720	         1.05620e+58
          1388.17350	         1.29824e+58
          1388.97980	         1.21956e+58
          1389.78610	         9.78914e+57
          1390.59240	         7.56738e+57
          1391.39870	         6.83381e+57
          1392.20500	         6.95094e+57
          1393.01130	         6.65549e+57
          1393.81760	         6.67523e+57
          1394.62390	         6.72022e+57
          1395.43020	         6.23179e+57
          1396.23650	         6.88922e+57
          1397.04280	         7.68752e+57
          1397.84910	         8.19210e+57
          1398.65540	         7.75112e+57
          1399.46170	         8.53848e+57
          1400.26800	         7.56770e+57
          1401.07430	         8.59073e+57
          1401.88060	         7.93863e+57
          1402.68690	         9.36608e+57
          1403.49320	         9.73651e+57
          1404.29950	         7.95206e+57
          1405.10580	         9.56193e+57
          1405.91210	         1.10303e+58
          1406.71840	         1.12178e+58
          1407.52470	         1.01935e+58
          1408.33100	         1.05421e+58
          1409.13730	         1.09170e+58
          1409.94360	         1.02099e+58
          1410.74990	         1.07946e+58
          1411.55620	         9.36036e+57
          1412.36250	         8.59286e+57
          1413.16880	         9.12553e+57
          1413.97510	         8.97184e+57
          1414.78140	         8.62091e+57
          1415.58770	         9.83310e+57
          1416.39400	         9.83091e+57
          1417.20030	         1.16783e+58
          1418.00660	         9.80375e+57
          1418.81290	         9.71277e+57
          1419.61920	         1.08663e+58
          1420.42550	         1.04160e+58
          1421.23180	         1.10228e+58
          1422.03810	         1.12940e+58
          1422.84440	         1.13122e+58
          1423.65070	         1.37462e+58
          1424.45700	         1.15411e+58
          1425.26330	         8.05011e+57
          1426.06960	         8.48678e+57
          1426.87590	         9.01959e+57
          1427.68220	         9.39517e+57
          1428.48850	         1.10861e+58
          1429.29480	         1.04025e+58
          1430.10110	         9.32395e+57
          1430.90740	         7.46904e+57
          1431.71370	         7.54392e+57
          1432.52000	         8.69675e+57
          1433.32630	         8.06148e+57
          1434.13260	         7.20766e+57
          1434.93890	         7.92715e+57
          1435.74520	         9.57446e+57
          1436.55150	         8.91302e+57
          1437.35780	         8.63025e+57
          1438.16410	         9.40855e+57
          1438.97040	         8.51643e+57
          1439.77670	         8.57816e+57
          1440.58300	         9.83297e+57
          1441.38930	         9.84932e+57
          1442.19560	         9.34672e+57
          1443.00190	         9.05965e+57
          1443.80820	         1.03186e+58
          1444.61450	         1.03825e+58
          1445.42080	         8.37190e+57
          1446.22710	         8.94393e+57
          1447.03340	         9.09588e+57
          1447.83970	         9.43096e+57
          1448.64600	         1.04740e+58
          1449.45230	         1.01538e+58
          1450.25860	         1.01375e+58
          1451.06490	         8.80931e+57
          1451.87120	         7.78066e+57
          1452.67750	         7.94777e+57
          1453.48380	         8.71438e+57
          1454.29010	         8.25411e+57
          1455.09640	         6.94166e+57
          1455.90270	         7.75058e+57
          1456.70900	         8.02412e+57
          1457.51530	         9.23545e+57
          1458.32160	         1.15192e+58
          1459.12790	         1.16129e+58
          1459.93420	         1.06118e+58
          1460.74050	         8.78055e+57
          1461.54680	         7.83871e+57
          1462.35310	         7.12851e+57
          1463.15940	         8.03378e+57
          1463.96570	         9.74034e+57
          1464.77200	         1.09073e+58
          1465.57830	         1.04853e+58
          1466.38460	         9.02636e+57
          1467.19090	         8.42220e+57
          1467.99720	         9.19698e+57
          1468.80350	         9.03797e+57
          1469.60980	         9.51799e+57
          1470.41610	         1.03264e+58
          1471.22240	         8.99956e+57
          1472.02870	         8.39596e+57
          1472.83500	         8.62209e+57
          1473.64130	         8.86260e+57
          1474.44760	         8.96945e+57
          1475.25390	         8.64166e+57
          1476.06020	         8.10498e+57
          1476.86650	         8.52303e+57
          1477.67280	         7.84714e+57
          1478.47910	         7.03463e+57
          1479.28540	         7.36993e+57
          1480.09170	         8.13930e+57
          1480.89800	         8.03561e+57
          1481.70430	         8.58997e+57
          1482.51060	         7.77569e+57
          1483.31690	         7.63379e+57
          1484.12320	         7.98338e+57
          1484.92950	         7.34686e+57
          1485.73580	         7.58431e+57
          1486.54210	         8.53156e+57
          1487.34840	         8.90924e+57
          1488.15470	         8.26012e+57
          1488.96100	         8.06177e+57
          1489.76730	         8.88119e+57
