#sample_474_stacked_spectrum_rest_UV-bands_median_H-alpha_noDC.txt
#median Lum: 1.73144e+42
#Rest-frame wavelength (A) | Luminosity (erg/s/A)
#
          1110.00000	         0.00000e+00
          1110.80630	        -8.95273e+58
          1111.61260	         1.80972e+58
          1112.41890	        -1.77049e+58
          1113.22520	         9.39531e+58
          1114.03150	        -1.32614e+58
          1114.83780	         1.28376e+59
          1115.64410	         9.34010e+58
          1116.45040	         1.02631e+59
          1117.25670	         1.11437e+59
          1118.06300	         1.18541e+57
          1118.86930	        -3.15942e+58
          1119.67560	         1.60324e+59
          1120.48190	         5.25546e+58
          1121.28820	        -1.24137e+59
          1122.09450	        -3.36745e+57
          1122.90080	        -5.80990e+58
          1123.70710	         2.83516e+58
          1124.51340	         7.03628e+58
          1125.31970	         1.98127e+58
          1126.12600	         9.13659e+57
          1126.93230	        -5.41367e+58
          1127.73860	        -6.13044e+58
          1128.54490	         2.29240e+57
          1129.35120	        -3.26289e+58
          1130.15750	        -3.27831e+58
          1130.96380	        -1.20186e+58
          1131.77010	         6.76095e+58
          1132.57640	         5.39604e+58
          1133.38270	        -1.31903e+58
          1134.18900	         1.74403e+58
          1134.99530	         7.39724e+57
          1135.80160	        -1.21239e+57
          1136.60790	         1.92611e+58
          1137.41420	        -2.91314e+57
          1138.22050	         3.69521e+58
          1139.02680	         3.64850e+58
          1139.83310	         2.61210e+58
          1140.63940	         2.44838e+58
          1141.44570	         5.35751e+56
          1142.25200	        -2.22238e+58
          1143.05830	         3.66230e+57
          1143.86460	         1.11302e+58
          1144.67090	         3.50677e+58
          1145.47720	         1.26485e+58
          1146.28350	         1.59673e+58
          1147.08980	         1.73084e+58
          1147.89610	         2.91649e+58
          1148.70240	         2.65574e+58
          1149.50870	         2.11324e+58
          1150.31500	         1.19568e+58
          1151.12130	         9.67562e+57
          1151.92760	         6.41555e+57
          1152.73390	         1.81201e+57
          1153.54020	         1.01726e+58
          1154.34650	         2.00800e+58
          1155.15280	         2.46322e+58
          1155.95910	         1.73110e+58
          1156.76540	         1.96686e+58
          1157.57170	         1.27223e+58
          1158.37800	         2.15328e+57
          1159.18430	        -1.52889e+57
          1159.99060	         7.22601e+57
          1160.79690	         5.35362e+57
          1161.60320	         1.32093e+58
          1162.40950	         1.73949e+58
          1163.21580	         2.26897e+58
          1164.02210	         1.17403e+58
          1164.82840	         1.97401e+58
          1165.63470	         2.71734e+58
          1166.44100	         2.97546e+58
          1167.24730	         1.88401e+58
          1168.05360	         7.99889e+57
          1168.85990	         5.86913e+57
          1169.66620	         7.32872e+57
          1170.47250	         1.25059e+58
          1171.27880	         8.36060e+57
          1172.08510	         4.44231e+57
          1172.89140	         4.96572e+57
          1173.69770	         1.21440e+58
          1174.50400	         1.79929e+58
          1175.31030	         1.93075e+58
          1176.11660	         2.02393e+58
          1176.92290	         1.36257e+58
          1177.72920	         7.40572e+57
          1178.53550	         8.15065e+57
          1179.34180	        -8.26001e+56
          1180.14810	         5.32687e+57
          1180.95440	         1.25290e+58
          1181.76070	         9.89821e+57
          1182.56700	         7.06382e+57
          1183.37330	         4.79829e+57
          1184.17960	         1.12198e+58
          1184.98590	         7.31369e+57
          1185.79220	         5.29533e+57
          1186.59850	         1.03422e+58
          1187.40480	         1.20258e+58
          1188.21110	         1.16418e+58
          1189.01740	         8.87144e+57
          1189.82370	         1.05117e+58
          1190.63000	         1.19040e+58
          1191.43630	         1.29062e+58
          1192.24260	         6.71052e+57
          1193.04890	         1.36621e+58
          1193.85520	         1.59594e+58
          1194.66150	         3.91050e+57
          1195.46780	         1.00617e+58
          1196.27410	         1.30695e+58
          1197.08040	         8.73417e+57
          1197.88670	         1.45546e+58
          1198.69300	         1.60758e+58
          1199.49930	         1.24836e+58
          1200.30560	         6.12078e+57
          1201.11190	         1.26089e+58
          1201.91820	         1.70079e+58
          1202.72450	         1.08249e+58
          1203.53080	         1.18848e+58
          1204.33710	         8.06140e+57
          1205.14340	         7.68336e+57
          1205.94970	         6.34315e+57
          1206.75600	         8.06886e+57
          1207.56230	         6.59851e+57
          1208.36860	         9.52004e+57
          1209.17490	         7.79340e+57
          1209.98120	         7.25117e+57
          1210.78750	         9.63609e+57
          1211.59380	         1.40064e+58
          1212.40010	         1.78390e+58
          1213.20640	         1.76725e+58
          1214.01270	         2.24728e+58
          1214.81900	         2.82550e+58
          1215.62530	         4.60830e+58
          1216.43160	         8.90282e+58
          1217.23790	         1.47958e+59
          1218.04420	         1.19113e+59
          1218.85050	         9.12749e+58
          1219.65680	         6.11694e+58
          1220.46310	         3.73512e+58
          1221.26940	         2.35055e+58
          1222.07570	         1.77158e+58
          1222.88200	         1.47118e+58
          1223.68830	         1.01638e+58
          1224.49460	         5.89942e+57
          1225.30090	         4.62862e+57
          1226.10720	         6.28053e+57
          1226.91350	         4.61636e+57
          1227.71980	         5.24739e+57
          1228.52610	         1.27112e+58
          1229.33240	         1.30446e+58
          1230.13870	         1.11270e+58
          1230.94500	         8.89465e+57
          1231.75130	         7.72717e+57
          1232.55760	         9.21371e+57
          1233.36390	         1.05044e+58
          1234.17020	         8.01054e+57
          1234.97650	         5.63179e+57
          1235.78280	         6.76485e+57
          1236.58910	         9.09544e+57
          1237.39540	         1.22892e+58
          1238.20170	         1.32780e+58
          1239.00800	         1.34385e+58
          1239.81430	         1.48495e+58
          1240.62060	         1.18730e+58
          1241.42690	         1.02655e+58
          1242.23320	         1.17900e+58
          1243.03950	         1.04568e+58
          1243.84580	         9.92878e+57
          1244.65210	         9.67255e+57
          1245.45840	         9.08656e+57
          1246.26470	         8.78118e+57
          1247.07100	         9.08491e+57
          1247.87730	         8.58208e+57
          1248.68360	         5.29554e+57
          1249.48990	         7.12008e+57
          1250.29620	         1.20298e+58
          1251.10250	         7.65703e+57
          1251.90880	         7.75934e+56
          1252.71510	         2.02703e+57
          1253.52140	         4.99243e+57
          1254.32770	         1.03875e+58
          1255.13400	         1.28072e+58
          1255.94030	         1.22859e+58
          1256.74660	         1.29007e+58
          1257.55290	         1.25644e+58
          1258.35920	         1.04273e+58
          1259.16550	         7.43379e+57
          1259.97180	         5.96016e+57
          1260.77810	         8.32203e+57
          1261.58440	         1.35582e+58
          1262.39070	         1.09298e+58
          1263.19700	         9.31890e+57
          1264.00330	         9.85443e+57
          1264.80960	         1.07041e+58
          1265.61590	         1.22137e+58
          1266.42220	         1.29943e+58
          1267.22850	         1.15597e+58
          1268.03480	         1.36109e+58
          1268.84110	         1.50916e+58
          1269.64740	         1.24133e+58
          1270.45370	         1.24074e+58
          1271.26000	         1.22687e+58
          1272.06630	         1.21651e+58
          1272.87260	         1.01284e+58
          1273.67890	         1.15311e+58
          1274.48520	         1.32982e+58
          1275.29150	         1.09296e+58
          1276.09780	         9.31558e+57
          1276.90410	         1.17980e+58
          1277.71040	         1.24209e+58
          1278.51670	         1.24762e+58
          1279.32300	         1.22358e+58
          1280.12930	         1.26911e+58
          1280.93560	         1.12779e+58
          1281.74190	         1.09449e+58
          1282.54820	         1.22848e+58
          1283.35450	         1.26524e+58
          1284.16080	         1.19354e+58
          1284.96710	         1.32908e+58
          1285.77340	         1.15421e+58
          1286.57970	         1.09898e+58
          1287.38600	         1.45018e+58
          1288.19230	         1.80517e+58
          1288.99860	         1.66476e+58
          1289.80490	         1.11725e+58
          1290.61120	         1.09883e+58
          1291.41750	         1.45228e+58
          1292.22380	         1.40833e+58
          1293.03010	         9.61034e+57
          1293.83640	         8.36864e+57
          1294.64270	         7.01420e+57
          1295.44900	         6.54276e+57
          1296.25530	         6.27596e+57
          1297.06160	         8.91452e+57
          1297.86790	         1.05489e+58
          1298.67420	         1.01385e+58
          1299.48050	         1.05560e+58
          1300.28680	         1.23550e+58
          1301.09310	         9.97543e+57
          1301.89940	         4.15049e+57
          1302.70570	         4.64098e+57
          1303.51200	         7.04605e+57
          1304.31830	         1.02400e+58
          1305.12460	         1.11128e+58
          1305.93090	         1.00383e+58
          1306.73720	         1.09102e+58
          1307.54350	         1.43453e+58
          1308.34980	         1.47971e+58
          1309.15610	         1.58781e+58
          1309.96240	         1.74992e+58
          1310.76870	         1.41131e+58
          1311.57500	         1.18907e+58
          1312.38130	         1.17759e+58
          1313.18760	         1.49563e+58
          1313.99390	         1.63888e+58
          1314.80020	         1.58408e+58
          1315.60650	         1.43059e+58
          1316.41280	         1.16861e+58
          1317.21910	         1.01162e+58
          1318.02540	         1.09662e+58
          1318.83170	         1.17657e+58
          1319.63800	         1.12879e+58
          1320.44430	         1.02531e+58
          1321.25060	         1.13494e+58
          1322.05690	         1.17578e+58
          1322.86320	         1.14832e+58
          1323.66950	         1.07231e+58
          1324.47580	         9.03660e+57
          1325.28210	         9.78708e+57
          1326.08840	         1.18549e+58
          1326.89470	         1.16202e+58
          1327.70100	         9.03044e+57
          1328.50730	         7.86417e+57
          1329.31360	         1.15138e+58
          1330.11990	         1.17330e+58
          1330.92620	         9.70031e+57
          1331.73250	         1.17153e+58
          1332.53880	         1.01429e+58
          1333.34510	         8.40058e+57
          1334.15140	         8.47080e+57
          1334.95770	         9.53915e+57
          1335.76400	         1.12797e+58
          1336.57030	         1.14755e+58
          1337.37660	         9.90351e+57
          1338.18290	         9.55592e+57
          1338.98920	         1.11290e+58
          1339.79550	         1.12786e+58
          1340.60180	         1.17799e+58
          1341.40810	         1.31924e+58
          1342.21440	         1.17067e+58
          1343.02070	         1.12344e+58
          1343.82700	         1.29288e+58
          1344.63330	         1.22347e+58
          1345.43960	         1.22049e+58
          1346.24590	         1.13735e+58
          1347.05220	         1.24760e+58
          1347.85850	         1.11890e+58
          1348.66480	         1.01297e+58
          1349.47110	         1.11457e+58
          1350.27740	         1.16561e+58
          1351.08370	         1.15560e+58
          1351.89000	         1.16612e+58
          1352.69630	         1.05952e+58
          1353.50260	         1.07754e+58
          1354.30890	         1.22323e+58
          1355.11520	         1.13028e+58
          1355.92150	         1.06957e+58
          1356.72780	         9.47011e+57
          1357.53410	         9.35229e+57
          1358.34040	         1.06667e+58
          1359.14670	         1.09781e+58
          1359.95300	         1.05324e+58
          1360.75930	         1.10097e+58
          1361.56560	         1.01877e+58
          1362.37190	         9.90943e+57
          1363.17820	         1.04931e+58
          1363.98450	         1.04970e+58
          1364.79080	         1.20173e+58
          1365.59710	         1.24485e+58
          1366.40340	         9.96851e+57
          1367.20970	         9.94674e+57
          1368.01600	         1.00793e+58
          1368.82230	         1.06331e+58
          1369.62860	         1.08993e+58
          1370.43490	         7.77838e+57
          1371.24120	         8.27916e+57
          1372.04750	         1.00907e+58
          1372.85380	         1.12623e+58
          1373.66010	         9.86378e+57
          1374.46640	         9.94365e+57
          1375.27270	         1.18858e+58
          1376.07900	         9.89103e+57
          1376.88530	         9.33962e+57
          1377.69160	         8.51015e+57
          1378.49790	         6.99297e+57
          1379.30420	         7.55326e+57
          1380.11050	         9.61746e+57
          1380.91680	         8.34824e+57
          1381.72310	         6.87834e+57
          1382.52940	         6.94290e+57
          1383.33570	         8.10381e+57
          1384.14200	         9.72131e+57
          1384.94830	         1.07617e+58
          1385.75460	         1.08089e+58
          1386.56090	         1.10643e+58
          1387.36720	         1.12565e+58
          1388.17350	         1.33914e+58
          1388.97980	         1.18819e+58
          1389.78610	         9.59182e+57
          1390.59240	         8.94107e+57
          1391.39870	         8.18476e+57
          1392.20500	         7.98604e+57
          1393.01130	         7.60734e+57
          1393.81760	         7.93914e+57
          1394.62390	         8.05636e+57
          1395.43020	         7.40618e+57
          1396.23650	         6.45834e+57
          1397.04280	         7.19011e+57
          1397.84910	         9.37531e+57
          1398.65540	         8.33718e+57
          1399.46170	         8.11942e+57
          1400.26800	         7.53587e+57
          1401.07430	         6.47178e+57
          1401.88060	         6.96152e+57
          1402.68690	         9.40726e+57
          1403.49320	         1.01969e+58
          1404.29950	         9.25890e+57
          1405.10580	         9.44984e+57
          1405.91210	         1.08510e+58
          1406.71840	         1.09080e+58
          1407.52470	         1.01589e+58
          1408.33100	         1.04856e+58
          1409.13730	         1.27011e+58
          1409.94360	         1.25719e+58
          1410.74990	         1.19714e+58
          1411.55620	         1.05654e+58
          1412.36250	         8.31233e+57
          1413.16880	         8.64396e+57
          1413.97510	         8.72030e+57
          1414.78140	         9.09951e+57
          1415.58770	         1.02192e+58
          1416.39400	         1.06397e+58
          1417.20030	         1.15241e+58
          1418.00660	         1.10102e+58
          1418.81290	         9.94943e+57
          1419.61920	         1.08188e+58
          1420.42550	         1.26816e+58
          1421.23180	         1.26549e+58
          1422.03810	         1.11263e+58
          1422.84440	         1.09073e+58
          1423.65070	         1.23877e+58
          1424.45700	         1.18343e+58
          1425.26330	         9.24999e+57
          1426.06960	         8.23098e+57
          1426.87590	         8.98297e+57
          1427.68220	         9.46334e+57
          1428.48850	         1.00577e+58
          1429.29480	         9.95928e+57
          1430.10110	         9.48471e+57
          1430.90740	         8.70266e+57
          1431.71370	         7.80759e+57
          1432.52000	         8.18404e+57
          1433.32630	         8.68873e+57
          1434.13260	         8.59464e+57
          1434.93890	         8.56831e+57
          1435.74520	         9.29327e+57
          1436.55150	         1.00185e+58
          1437.35780	         9.14969e+57
          1438.16410	         9.05936e+57
          1438.97040	         8.54992e+57
          1439.77670	         9.11042e+57
          1440.58300	         9.69333e+57
          1441.38930	         8.99218e+57
          1442.19560	         8.84786e+57
          1443.00190	         9.68691e+57
          1443.80820	         1.04173e+58
          1444.61450	         9.74044e+57
          1445.42080	         8.80887e+57
          1446.22710	         1.06401e+58
          1447.03340	         1.12988e+58
          1447.83970	         1.07080e+58
          1448.64600	         1.04125e+58
          1449.45230	         1.00924e+58
          1450.25860	         1.06499e+58
          1451.06490	         9.87465e+57
          1451.87120	         8.42921e+57
          1452.67750	         7.45503e+57
          1453.48380	         8.35702e+57
          1454.29010	         8.12781e+57
          1455.09640	         8.16227e+57
          1455.90270	         8.70747e+57
          1456.70900	         8.06193e+57
          1457.51530	         8.39790e+57
          1458.32160	         1.20013e+58
          1459.12790	         1.24778e+58
          1459.93420	         9.95128e+57
          1460.74050	         7.61526e+57
          1461.54680	         8.65567e+57
          1462.35310	         8.37250e+57
          1463.15940	         1.00542e+58
          1463.96570	         1.10454e+58
          1464.77200	         1.10617e+58
          1465.57830	         1.05655e+58
          1466.38460	         1.00772e+58
          1467.19090	         8.76477e+57
          1467.99720	         8.09079e+57
          1468.80350	         1.00066e+58
          1469.60980	         1.05791e+58
          1470.41610	         9.80514e+57
          1471.22240	         8.62494e+57
          1472.02870	         8.96629e+57
          1472.83500	         8.92904e+57
          1473.64130	         9.06434e+57
          1474.44760	         8.93325e+57
          1475.25390	         8.65431e+57
          1476.06020	         8.39839e+57
          1476.86650	         8.13044e+57
          1477.67280	         7.47228e+57
          1478.47910	         6.76754e+57
          1479.28540	         7.14066e+57
          1480.09170	         8.80398e+57
          1480.89800	         9.86628e+57
          1481.70430	         9.25022e+57
          1482.51060	         7.83244e+57
          1483.31690	         7.50091e+57
          1484.12320	         7.45364e+57
          1484.92950	         7.26152e+57
          1485.73580	         8.01750e+57
          1486.54210	         9.02513e+57
          1487.34840	         9.29650e+57
          1488.15470	         8.64049e+57
          1488.96100	         9.13191e+57
          1489.76730	         9.32467e+57
