#sample_406_stacked_spectrum_rest_UV-bands_median_H-alpha_noDC.txt
#median Lum: 1.71476e+42
#Rest-frame wavelength (A) | Luminosity (erg/s/A)
#
          1110.00000	         0.00000e+00
          1110.80630	        -1.29016e+59
          1111.61260	        -1.17078e+59
          1112.41890	         1.98538e+59
          1113.22520	         1.65496e+58
          1114.03150	        -2.33813e+59
          1114.83780	         2.20484e+59
          1115.64410	        -1.16788e+58
          1116.45040	         1.70919e+59
          1117.25670	        -3.33677e+58
          1118.06300	        -8.26892e+58
          1118.86930	        -1.52017e+59
          1119.67560	         1.66924e+58
          1120.48190	        -2.31894e+58
          1121.28820	        -1.03245e+59
          1122.09450	        -3.61242e+58
          1122.90080	         2.34777e+58
          1123.70710	         4.86728e+58
          1124.51340	         3.53038e+58
          1125.31970	         4.59435e+58
          1126.12600	        -2.89278e+58
          1126.93230	        -3.24890e+58
          1127.73860	        -5.49874e+58
          1128.54490	         2.70684e+58
          1129.35120	         1.91020e+58
          1130.15750	        -9.32414e+57
          1130.96380	        -5.57275e+57
          1131.77010	         7.65257e+58
          1132.57640	         1.95012e+58
          1133.38270	         6.95795e+57
          1134.18900	         7.29376e+56
          1134.99530	         2.15248e+58
          1135.80160	         2.21394e+58
          1136.60790	         1.71525e+58
          1137.41420	        -1.76527e+58
          1138.22050	         4.44919e+58
          1139.02680	         3.90512e+58
          1139.83310	         2.23366e+58
          1140.63940	         1.66472e+58
          1141.44570	        -3.38055e+58
          1142.25200	        -9.34689e+57
          1143.05830	         1.58790e+58
          1143.86460	         3.38906e+58
          1144.67090	         3.42136e+58
          1145.47720	         3.54411e+57
          1146.28350	         2.05141e+58
          1147.08980	         1.02292e+58
          1147.89610	         1.33467e+58
          1148.70240	         2.73566e+58
          1149.50870	         2.79458e+58
          1150.31500	         1.87108e+58
          1151.12130	         3.45097e+57
          1151.92760	         4.73305e+57
          1152.73390	         9.78042e+57
          1153.54020	         5.30826e+57
          1154.34650	         2.31451e+58
          1155.15280	         1.34599e+58
          1155.95910	         3.00007e+57
          1156.76540	         4.24269e+57
          1157.57170	         1.63461e+57
          1158.37800	         7.40881e+57
          1159.18430	        -2.47759e+57
          1159.99060	         5.92487e+57
          1160.79690	         9.83486e+57
          1161.60320	         8.75287e+57
          1162.40950	         1.51362e+58
          1163.21580	         1.43009e+58
          1164.02210	         2.02109e+58
          1164.82840	         8.97231e+57
          1165.63470	         1.88290e+58
          1166.44100	         2.37608e+58
          1167.24730	         1.96985e+58
          1168.05360	         1.10561e+58
          1168.85990	        -5.45320e+56
          1169.66620	         9.74560e+57
          1170.47250	         1.25846e+58
          1171.27880	         1.59933e+58
          1172.08510	         1.75996e+58
          1172.89140	         6.04795e+57
          1173.69770	         1.13533e+57
          1174.50400	         1.04765e+58
          1175.31030	         1.60725e+58
          1176.11660	         1.90854e+58
          1176.92290	         1.76143e+58
          1177.72920	         1.09008e+58
          1178.53550	        -4.68973e+56
          1179.34180	         3.23251e+57
          1180.14810	         8.46353e+57
          1180.95440	         4.49033e+57
          1181.76070	         5.04965e+57
          1182.56700	         8.74480e+57
          1183.37330	         6.19637e+57
          1184.17960	         1.16207e+58
          1184.98590	         1.21644e+58
          1185.79220	         7.46307e+57
          1186.59850	         9.36295e+57
          1187.40480	         1.22427e+58
          1188.21110	         1.68387e+58
          1189.01740	         1.19441e+58
          1189.82370	         1.32942e+58
          1190.63000	         1.52851e+58
          1191.43630	         1.57580e+58
          1192.24260	         1.18347e+58
          1193.04890	         1.59095e+58
          1193.85520	         8.66265e+57
          1194.66150	         1.91533e+57
          1195.46780	         1.30992e+58
          1196.27410	         1.74451e+58
          1197.08040	         1.13083e+58
          1197.88670	         1.45076e+58
          1198.69300	         1.57413e+58
          1199.49930	         1.71529e+58
          1200.30560	         1.21604e+58
          1201.11190	         8.53475e+57
          1201.91820	         1.17560e+58
          1202.72450	         1.09199e+58
          1203.53080	         1.30134e+58
          1204.33710	         6.68337e+57
          1205.14340	         5.60266e+57
          1205.94970	         7.76882e+57
          1206.75600	         1.10750e+58
          1207.56230	         7.05230e+57
          1208.36860	         1.01163e+58
          1209.17490	         9.86829e+57
          1209.98120	         1.05360e+58
          1210.78750	         1.10942e+58
          1211.59380	         1.11442e+58
          1212.40010	         1.61013e+58
          1213.20640	         1.78305e+58
          1214.01270	         1.91708e+58
          1214.81900	         2.52328e+58
          1215.62530	         4.41888e+58
          1216.43160	         9.17901e+58
          1217.23790	         1.53394e+59
          1218.04420	         1.13772e+59
          1218.85050	         8.57973e+58
          1219.65680	         5.79688e+58
          1220.46310	         3.45794e+58
          1221.26940	         2.26698e+58
          1222.07570	         1.67023e+58
          1222.88200	         1.27520e+58
          1223.68830	         1.13648e+58
          1224.49460	         6.67880e+57
          1225.30090	         4.29063e+57
          1226.10720	         7.02776e+57
          1226.91350	         7.97796e+57
          1227.71980	         9.98563e+57
          1228.52610	         1.43336e+58
          1229.33240	         1.54371e+58
          1230.13870	         1.32461e+58
          1230.94500	         7.25930e+57
          1231.75130	         7.57912e+57
          1232.55760	         7.22658e+57
          1233.36390	         7.85584e+57
          1234.17020	         9.42644e+57
          1234.97650	         9.48401e+57
          1235.78280	         8.61190e+57
          1236.58910	         7.10423e+57
          1237.39540	         7.73147e+57
          1238.20170	         8.86500e+57
          1239.00800	         1.18465e+58
          1239.81430	         1.55654e+58
          1240.62060	         9.90413e+57
          1241.42690	         7.75204e+57
          1242.23320	         1.14376e+58
          1243.03950	         8.03263e+57
          1243.84580	         6.93192e+57
          1244.65210	         9.81628e+57
          1245.45840	         1.30310e+58
          1246.26470	         9.00913e+57
          1247.07100	         5.18056e+57
          1247.87730	         7.45935e+57
          1248.68360	         4.24080e+57
          1249.48990	         4.99100e+57
          1250.29620	         7.07885e+57
          1251.10250	         8.51471e+57
          1251.90880	         6.41470e+57
          1252.71510	         4.22947e+57
          1253.52140	         8.48833e+57
          1254.32770	         1.18898e+58
          1255.13400	         1.34594e+58
          1255.94030	         1.03110e+58
          1256.74660	         9.47073e+57
          1257.55290	         1.09669e+58
          1258.35920	         7.90528e+57
          1259.16550	         6.39029e+57
          1259.97180	         4.73353e+57
          1260.77810	         9.04866e+57
          1261.58440	         1.24094e+58
          1262.39070	         7.14874e+57
          1263.19700	         7.24082e+57
          1264.00330	         8.98530e+57
          1264.80960	         1.12544e+58
          1265.61590	         1.46231e+58
          1266.42220	         1.29868e+58
          1267.22850	         1.04850e+58
          1268.03480	         1.45107e+58
          1268.84110	         1.53371e+58
          1269.64740	         1.39530e+58
          1270.45370	         1.26668e+58
          1271.26000	         1.10852e+58
          1272.06630	         1.38618e+58
          1272.87260	         1.18976e+58
          1273.67890	         1.36034e+58
          1274.48520	         1.45120e+58
          1275.29150	         1.30847e+58
          1276.09780	         1.41152e+58
          1276.90410	         1.70983e+58
          1277.71040	         1.40366e+58
          1278.51670	         1.08644e+58
          1279.32300	         1.45485e+58
          1280.12930	         1.29314e+58
          1280.93560	         9.35514e+57
          1281.74190	         1.06939e+58
          1282.54820	         1.33152e+58
          1283.35450	         1.11116e+58
          1284.16080	         1.18383e+58
          1284.96710	         1.42191e+58
          1285.77340	         1.16275e+58
          1286.57970	         1.04271e+58
          1287.38600	         1.51431e+58
          1288.19230	         1.73537e+58
          1288.99860	         1.47797e+58
          1289.80490	         1.16067e+58
          1290.61120	         1.38403e+58
          1291.41750	         1.25316e+58
          1292.22380	         9.81256e+57
          1293.03010	         8.80354e+57
          1293.83640	         9.73455e+57
          1294.64270	         8.97312e+57
          1295.44900	         6.71484e+57
          1296.25530	         7.44807e+57
          1297.06160	         1.07082e+58
          1297.86790	         1.03171e+58
          1298.67420	         8.98311e+57
          1299.48050	         1.04349e+58
          1300.28680	         1.08319e+58
          1301.09310	         7.44022e+57
          1301.89940	         5.26300e+57
          1302.70570	         7.22586e+57
          1303.51200	         7.88144e+57
          1304.31830	         1.02612e+58
          1305.12460	         1.22282e+58
          1305.93090	         1.18594e+58
          1306.73720	         1.24224e+58
          1307.54350	         1.41951e+58
          1308.34980	         1.48533e+58
          1309.15610	         1.37985e+58
          1309.96240	         1.32131e+58
          1310.76870	         1.27236e+58
          1311.57500	         1.33033e+58
          1312.38130	         1.22585e+58
          1313.18760	         1.50296e+58
          1313.99390	         1.65095e+58
          1314.80020	         1.51889e+58
          1315.60650	         1.50150e+58
          1316.41280	         1.31242e+58
          1317.21910	         9.89027e+57
          1318.02540	         1.32658e+58
          1318.83170	         1.41172e+58
          1319.63800	         1.21562e+58
          1320.44430	         1.15211e+58
          1321.25060	         1.26323e+58
          1322.05690	         1.27175e+58
          1322.86320	         1.19007e+58
          1323.66950	         1.15964e+58
          1324.47580	         9.35781e+57
          1325.28210	         1.02820e+58
          1326.08840	         1.20643e+58
          1326.89470	         1.16221e+58
          1327.70100	         9.23311e+57
          1328.50730	         8.02223e+57
          1329.31360	         9.50369e+57
          1330.11990	         9.39815e+57
          1330.92620	         9.40160e+57
          1331.73250	         1.04906e+58
          1332.53880	         9.73349e+57
          1333.34510	         9.76676e+57
          1334.15140	         9.24604e+57
          1334.95770	         9.73009e+57
          1335.76400	         1.16654e+58
          1336.57030	         1.17771e+58
          1337.37660	         1.14220e+58
          1338.18290	         1.18103e+58
          1338.98920	         1.16700e+58
          1339.79550	         1.07044e+58
          1340.60180	         1.15177e+58
          1341.40810	         1.42841e+58
          1342.21440	         1.21888e+58
          1343.02070	         1.18929e+58
          1343.82700	         1.29095e+58
          1344.63330	         1.52973e+58
          1345.43960	         1.43364e+58
          1346.24590	         9.73158e+57
          1347.05220	         1.13613e+58
          1347.85850	         1.00203e+58
          1348.66480	         1.00483e+58
          1349.47110	         1.13881e+58
          1350.27740	         1.18337e+58
          1351.08370	         1.18818e+58
          1351.89000	         1.02109e+58
          1352.69630	         1.06421e+58
          1353.50260	         1.15684e+58
          1354.30890	         1.17524e+58
          1355.11520	         1.13039e+58
          1355.92150	         1.00641e+58
          1356.72780	         9.86799e+57
          1357.53410	         1.05301e+58
          1358.34040	         1.04060e+58
          1359.14670	         1.04337e+58
          1359.95300	         1.16638e+58
          1360.75930	         1.11958e+58
          1361.56560	         1.12407e+58
          1362.37190	         1.29465e+58
          1363.17820	         1.22969e+58
          1363.98450	         1.22574e+58
          1364.79080	         1.11224e+58
          1365.59710	         1.08701e+58
          1366.40340	         1.25014e+58
          1367.20970	         1.17561e+58
          1368.01600	         9.14867e+57
          1368.82230	         8.57505e+57
          1369.62860	         1.05550e+58
          1370.43490	         1.00134e+58
          1371.24120	         9.06333e+57
          1372.04750	         9.13592e+57
          1372.85380	         1.03187e+58
          1373.66010	         1.06676e+58
          1374.46640	         1.03333e+58
          1375.27270	         9.94903e+57
          1376.07900	         1.04879e+58
          1376.88530	         1.01013e+58
          1377.69160	         9.42114e+57
          1378.49790	         7.54349e+57
          1379.30420	         7.22777e+57
          1380.11050	         9.11839e+57
          1380.91680	         9.19442e+57
          1381.72310	         6.90860e+57
          1382.52940	         6.57510e+57
          1383.33570	         8.19432e+57
          1384.14200	         9.29468e+57
          1384.94830	         9.46028e+57
          1385.75460	         8.81850e+57
          1386.56090	         1.01168e+58
          1387.36720	         1.22439e+58
          1388.17350	         1.44642e+58
          1388.97980	         1.14418e+58
          1389.78610	         9.76237e+57
          1390.59240	         9.01168e+57
          1391.39870	         7.93086e+57
          1392.20500	         8.94062e+57
          1393.01130	         7.70806e+57
          1393.81760	         6.40635e+57
          1394.62390	         6.69525e+57
          1395.43020	         6.88826e+57
          1396.23650	         7.02909e+57
          1397.04280	         8.00379e+57
          1397.84910	         8.49029e+57
          1398.65540	         8.66243e+57
          1399.46170	         8.50328e+57
          1400.26800	         6.54333e+57
          1401.07430	         6.63443e+57
          1401.88060	         7.71152e+57
          1402.68690	         9.13868e+57
          1403.49320	         1.06515e+58
          1404.29950	         9.81931e+57
          1405.10580	         1.02512e+58
          1405.91210	         1.08540e+58
          1406.71840	         1.05426e+58
          1407.52470	         1.04102e+58
          1408.33100	         1.02163e+58
          1409.13730	         1.16297e+58
          1409.94360	         1.26261e+58
          1410.74990	         1.24313e+58
          1411.55620	         1.07671e+58
          1412.36250	         8.63405e+57
          1413.16880	         8.04445e+57
          1413.97510	         8.10174e+57
          1414.78140	         8.35067e+57
          1415.58770	         8.85908e+57
          1416.39400	         1.02473e+58
          1417.20030	         9.30052e+57
          1418.00660	         7.87360e+57
          1418.81290	         9.24551e+57
          1419.61920	         1.08523e+58
          1420.42550	         1.24230e+58
          1421.23180	         1.44042e+58
          1422.03810	         1.27175e+58
          1422.84440	         1.14196e+58
          1423.65070	         1.27895e+58
          1424.45700	         1.09399e+58
          1425.26330	         9.00978e+57
          1426.06960	         9.94666e+57
          1426.87590	         1.04028e+58
          1427.68220	         1.00140e+58
          1428.48850	         1.18578e+58
          1429.29480	         1.18942e+58
          1430.10110	         1.01623e+58
          1430.90740	         8.97900e+57
          1431.71370	         9.19666e+57
          1432.52000	         8.29588e+57
          1433.32630	         7.24454e+57
          1434.13260	         8.47871e+57
          1434.93890	         8.08576e+57
          1435.74520	         8.70538e+57
          1436.55150	         9.13859e+57
          1437.35780	         8.84963e+57
          1438.16410	         8.66156e+57
          1438.97040	         8.90325e+57
          1439.77670	         9.26460e+57
          1440.58300	         9.38124e+57
          1441.38930	         9.10908e+57
          1442.19560	         9.93021e+57
          1443.00190	         9.70345e+57
          1443.80820	         1.01064e+58
          1444.61450	         9.42738e+57
          1445.42080	         9.22403e+57
          1446.22710	         1.13698e+58
          1447.03340	         1.06258e+58
          1447.83970	         1.03725e+58
          1448.64600	         1.08529e+58
          1449.45230	         9.88192e+57
          1450.25860	         9.68051e+57
          1451.06490	         1.02292e+58
          1451.87120	         8.02195e+57
          1452.67750	         7.08135e+57
          1453.48380	         8.20196e+57
          1454.29010	         7.43360e+57
          1455.09640	         7.71268e+57
          1455.90270	         9.35194e+57
          1456.70900	         9.37934e+57
          1457.51530	         9.01605e+57
          1458.32160	         1.05263e+58
          1459.12790	         1.16810e+58
          1459.93420	         9.96163e+57
          1460.74050	         7.99161e+57
          1461.54680	         8.23814e+57
          1462.35310	         7.15041e+57
          1463.15940	         9.54158e+57
          1463.96570	         1.28964e+58
          1464.77200	         1.29777e+58
          1465.57830	         1.01573e+58
          1466.38460	         8.58761e+57
          1467.19090	         9.00813e+57
          1467.99720	         8.53003e+57
          1468.80350	         9.33180e+57
          1469.60980	         1.09538e+58
          1470.41610	         1.15511e+58
          1471.22240	         1.01405e+58
          1472.02870	         9.86476e+57
          1472.83500	         9.17653e+57
          1473.64130	         1.02259e+58
          1474.44760	         9.78266e+57
          1475.25390	         8.53753e+57
          1476.06020	         8.17465e+57
          1476.86650	         8.40584e+57
          1477.67280	         8.60211e+57
          1478.47910	         7.33252e+57
          1479.28540	         7.30481e+57
          1480.09170	         8.17650e+57
          1480.89800	         7.51772e+57
          1481.70430	         8.19703e+57
          1482.51060	         8.32970e+57
          1483.31690	         7.23305e+57
          1484.12320	         7.80877e+57
          1484.92950	         7.91645e+57
          1485.73580	         8.13448e+57
          1486.54210	         8.88258e+57
          1487.34840	         8.25770e+57
          1488.15470	         8.08260e+57
          1488.96100	         8.91163e+57
          1489.76730	         8.93287e+57
