#sample_277_stacked_spectrum_rest_UV-bands_median_H-alpha_noDC.txt
#median Lum: 1.68586e+42
#Rest-frame wavelength (A) | Luminosity (erg/s/A)
#
          1110.00000	         0.00000e+00
          1110.80630	         4.57796e+59
          1111.61260	        -4.71565e+58
          1112.41890	         3.69186e+58
          1113.22520	         2.20895e+59
          1114.03150	        -1.90503e+59
          1114.83780	         2.65588e+59
          1115.64410	         1.43021e+59
          1116.45040	        -1.67346e+59
          1117.25670	        -2.26690e+58
          1118.06300	         1.75443e+59
          1118.86930	         3.82141e+58
          1119.67560	         4.17098e+58
          1120.48190	         8.46769e+58
          1121.28820	        -6.67003e+58
          1122.09450	        -7.90246e+58
          1122.90080	        -1.93820e+58
          1123.70710	         1.52134e+59
          1124.51340	         1.50861e+59
          1125.31970	         1.18521e+58
          1126.12600	         4.32865e+58
          1126.93230	        -2.29447e+58
          1127.73860	        -4.07837e+57
          1128.54490	         2.41272e+58
          1129.35120	         6.90678e+57
          1130.15750	        -1.57060e+58
          1130.96380	        -4.34817e+58
          1131.77010	         5.34789e+58
          1132.57640	         4.16186e+58
          1133.38270	         1.67459e+58
          1134.18900	         2.04587e+57
          1134.99530	         3.93528e+57
          1135.80160	         1.55543e+58
          1136.60790	         2.89980e+58
          1137.41420	        -1.12665e+57
          1138.22050	         3.16900e+58
          1139.02680	         1.36743e+58
          1139.83310	         3.72055e+58
          1140.63940	         3.78344e+58
          1141.44570	         9.59466e+57
          1142.25200	        -5.14631e+57
          1143.05830	         1.07581e+58
          1143.86460	         1.33751e+58
          1144.67090	         1.98062e+58
          1145.47720	         1.20512e+58
          1146.28350	         1.21103e+58
          1147.08980	         9.57262e+57
          1147.89610	         2.10688e+58
          1148.70240	         1.36756e+58
          1149.50870	         1.77011e+58
          1150.31500	         1.23028e+58
          1151.12130	         1.23274e+58
          1151.92760	         1.26450e+58
          1152.73390	         1.27508e+58
          1153.54020	         1.24213e+58
          1154.34650	         2.94483e+58
          1155.15280	         2.40125e+58
          1155.95910	         9.08285e+57
          1156.76540	         1.37326e+58
          1157.57170	         2.28058e+57
          1158.37800	        -4.79874e+56
          1159.18430	         5.75483e+56
          1159.99060	         2.08219e+58
          1160.79690	         1.74516e+58
          1161.60320	         1.47028e+58
          1162.40950	         1.42244e+58
          1163.21580	         1.27669e+58
          1164.02210	         9.37072e+57
          1164.82840	         5.70856e+57
          1165.63470	         1.96461e+58
          1166.44100	         2.70336e+58
          1167.24730	         1.43447e+58
          1168.05360	         7.06532e+57
          1168.85990	         4.22572e+57
          1169.66620	        -3.83316e+57
          1170.47250	         1.22318e+58
          1171.27880	         1.23214e+58
          1172.08510	         1.24148e+58
          1172.89140	         1.38632e+58
          1173.69770	         6.75053e+57
          1174.50400	         1.51530e+58
          1175.31030	         1.76545e+58
          1176.11660	         1.32546e+58
          1176.92290	         1.29211e+58
          1177.72920	         6.29603e+57
          1178.53550	         5.71963e+57
          1179.34180	         3.47855e+57
          1180.14810	         6.02175e+57
          1180.95440	         1.29592e+58
          1181.76070	         8.50647e+57
          1182.56700	         5.89357e+57
          1183.37330	         1.05971e+58
          1184.17960	         1.69269e+58
          1184.98590	         1.34570e+58
          1185.79220	         9.71539e+57
          1186.59850	         1.08823e+58
          1187.40480	         1.08733e+58
          1188.21110	         1.16370e+58
          1189.01740	         1.10496e+58
          1189.82370	         9.81987e+57
          1190.63000	         1.11157e+58
          1191.43630	         1.71585e+58
          1192.24260	         1.19107e+58
          1193.04890	         1.09259e+58
          1193.85520	         1.18219e+58
          1194.66150	         5.00956e+57
          1195.46780	         8.69036e+57
          1196.27410	         1.18048e+58
          1197.08040	         1.28746e+58
          1197.88670	         1.70241e+58
          1198.69300	         1.66061e+58
          1199.49930	         1.28549e+58
          1200.30560	         8.40168e+57
          1201.11190	         1.03912e+58
          1201.91820	         9.44546e+57
          1202.72450	         8.36195e+57
          1203.53080	         1.60409e+58
          1204.33710	         4.82635e+57
          1205.14340	         5.80420e+57
          1205.94970	         5.00421e+57
          1206.75600	         3.82472e+57
          1207.56230	         5.09089e+57
          1208.36860	         6.17825e+57
          1209.17490	         6.72154e+57
          1209.98120	         8.82003e+57
          1210.78750	         7.71473e+57
          1211.59380	         1.15635e+58
          1212.40010	         1.74567e+58
          1213.20640	         1.82357e+58
          1214.01270	         1.88326e+58
          1214.81900	         2.46990e+58
          1215.62530	         4.63911e+58
          1216.43160	         9.31178e+58
          1217.23790	         1.50074e+59
          1218.04420	         1.17417e+59
          1218.85050	         8.68381e+58
          1219.65680	         5.90251e+58
          1220.46310	         3.47096e+58
          1221.26940	         1.84974e+58
          1222.07570	         1.05747e+58
          1222.88200	         1.01351e+58
          1223.68830	         1.09209e+58
          1224.49460	         9.33504e+57
          1225.30090	         7.88943e+57
          1226.10720	         8.53859e+57
          1226.91350	         5.96125e+57
          1227.71980	         8.50270e+57
          1228.52610	         9.01798e+57
          1229.33240	         5.82185e+57
          1230.13870	         9.76988e+57
          1230.94500	         9.83364e+57
          1231.75130	         6.99529e+57
          1232.55760	         8.14570e+57
          1233.36390	         6.23025e+57
          1234.17020	         6.10505e+57
          1234.97650	         7.28752e+57
          1235.78280	         1.06547e+58
          1236.58910	         9.61916e+57
          1237.39540	         1.06639e+58
          1238.20170	         1.24963e+58
          1239.00800	         1.12477e+58
          1239.81430	         1.32853e+58
          1240.62060	         1.22806e+58
          1241.42690	         1.07266e+58
          1242.23320	         1.21122e+58
          1243.03950	         8.63094e+57
          1243.84580	         6.82942e+57
          1244.65210	         7.89107e+57
          1245.45840	         9.02577e+57
          1246.26470	         9.12145e+57
          1247.07100	         7.30194e+57
          1247.87730	         5.88354e+57
          1248.68360	         2.50256e+57
          1249.48990	         7.63525e+57
          1250.29620	         1.41737e+58
          1251.10250	         8.85136e+57
          1251.90880	         6.37811e+57
          1252.71510	         4.08349e+57
          1253.52140	         4.29590e+57
          1254.32770	         8.25116e+57
          1255.13400	         1.33212e+58
          1255.94030	         1.26949e+58
          1256.74660	         1.16010e+58
          1257.55290	         1.25445e+58
          1258.35920	         8.83669e+57
          1259.16550	         5.52707e+57
          1259.97180	         4.84501e+57
          1260.77810	         7.84558e+57
          1261.58440	         8.92809e+57
          1262.39070	         7.05289e+57
          1263.19700	         9.38138e+57
          1264.00330	         9.49563e+57
          1264.80960	         1.07641e+58
          1265.61590	         1.36074e+58
          1266.42220	         1.25008e+58
          1267.22850	         9.78535e+57
          1268.03480	         1.33942e+58
          1268.84110	         1.53007e+58
          1269.64740	         1.45384e+58
          1270.45370	         1.48205e+58
          1271.26000	         1.06674e+58
          1272.06630	         8.57298e+57
          1272.87260	         1.04521e+58
          1273.67890	         1.19809e+58
          1274.48520	         1.19538e+58
          1275.29150	         1.20276e+58
          1276.09780	         1.26676e+58
          1276.90410	         1.57032e+58
          1277.71040	         1.51276e+58
          1278.51670	         1.36766e+58
          1279.32300	         1.38596e+58
          1280.12930	         1.11491e+58
          1280.93560	         1.19698e+58
          1281.74190	         1.35940e+58
          1282.54820	         1.39800e+58
          1283.35450	         1.29503e+58
          1284.16080	         1.28547e+58
          1284.96710	         1.22809e+58
          1285.77340	         9.83158e+57
          1286.57970	         1.05786e+58
          1287.38600	         1.38874e+58
          1288.19230	         1.51185e+58
          1288.99860	         1.57761e+58
          1289.80490	         1.18642e+58
          1290.61120	         1.20861e+58
          1291.41750	         1.52467e+58
          1292.22380	         1.16098e+58
          1293.03010	         1.08740e+58
          1293.83640	         1.34889e+58
          1294.64270	         1.24228e+58
          1295.44900	         8.98883e+57
          1296.25530	         7.68811e+57
          1297.06160	         9.08270e+57
          1297.86790	         1.10789e+58
          1298.67420	         9.92254e+57
          1299.48050	         9.59984e+57
          1300.28680	         1.10589e+58
          1301.09310	         8.62157e+57
          1301.89940	         4.64601e+57
          1302.70570	         6.75968e+57
          1303.51200	         7.40314e+57
          1304.31830	         9.15245e+57
          1305.12460	         1.07659e+58
          1305.93090	         1.09287e+58
          1306.73720	         1.16405e+58
          1307.54350	         1.37216e+58
          1308.34980	         1.45894e+58
          1309.15610	         1.37241e+58
          1309.96240	         1.36441e+58
          1310.76870	         1.24852e+58
          1311.57500	         1.14576e+58
          1312.38130	         8.76011e+57
          1313.18760	         1.12970e+58
          1313.99390	         1.59383e+58
          1314.80020	         1.67681e+58
          1315.60650	         1.52448e+58
          1316.41280	         1.32445e+58
          1317.21910	         1.29396e+58
          1318.02540	         1.09479e+58
          1318.83170	         1.22112e+58
          1319.63800	         1.23146e+58
          1320.44430	         1.06160e+58
          1321.25060	         1.26715e+58
          1322.05690	         1.30138e+58
          1322.86320	         1.15937e+58
          1323.66950	         1.11569e+58
          1324.47580	         9.68828e+57
          1325.28210	         1.01872e+58
          1326.08840	         1.14394e+58
          1326.89470	         1.24083e+58
          1327.70100	         1.12630e+58
          1328.50730	         8.80798e+57
          1329.31360	         8.83631e+57
          1330.11990	         9.54973e+57
          1330.92620	         9.00555e+57
          1331.73250	         1.12132e+58
          1332.53880	         1.07396e+58
          1333.34510	         1.00957e+58
          1334.15140	         9.11097e+57
          1334.95770	         8.09536e+57
          1335.76400	         1.02156e+58
          1336.57030	         1.11777e+58
          1337.37660	         1.06560e+58
          1338.18290	         1.18260e+58
          1338.98920	         1.16348e+58
          1339.79550	         1.05771e+58
          1340.60180	         9.68968e+57
          1341.40810	         1.15130e+58
          1342.21440	         1.18003e+58
          1343.02070	         1.14758e+58
          1343.82700	         1.26292e+58
          1344.63330	         1.16663e+58
          1345.43960	         1.19919e+58
          1346.24590	         1.07977e+58
          1347.05220	         1.08497e+58
          1347.85850	         1.13753e+58
          1348.66480	         1.34822e+58
          1349.47110	         1.49825e+58
          1350.27740	         1.24290e+58
          1351.08370	         1.17209e+58
          1351.89000	         1.26595e+58
          1352.69630	         1.35004e+58
          1353.50260	         1.13735e+58
          1354.30890	         1.20555e+58
          1355.11520	         1.23324e+58
          1355.92150	         1.17051e+58
          1356.72780	         1.08797e+58
          1357.53410	         1.04985e+58
          1358.34040	         1.16013e+58
          1359.14670	         1.11937e+58
          1359.95300	         1.16227e+58
          1360.75930	         1.23318e+58
          1361.56560	         1.15316e+58
          1362.37190	         1.21334e+58
          1363.17820	         1.27220e+58
          1363.98450	         1.35931e+58
          1364.79080	         1.37409e+58
          1365.59710	         1.20552e+58
          1366.40340	         1.05845e+58
          1367.20970	         9.95381e+57
          1368.01600	         1.00458e+58
          1368.82230	         1.03876e+58
          1369.62860	         1.11364e+58
          1370.43490	         9.20125e+57
          1371.24120	         8.11442e+57
          1372.04750	         8.90270e+57
          1372.85380	         1.14393e+58
          1373.66010	         1.18074e+58
          1374.46640	         1.10228e+58
          1375.27270	         1.07314e+58
          1376.07900	         9.18338e+57
          1376.88530	         9.49339e+57
          1377.69160	         9.47517e+57
          1378.49790	         7.37461e+57
          1379.30420	         7.58948e+57
          1380.11050	         9.34059e+57
          1380.91680	         7.39186e+57
          1381.72310	         6.98370e+57
          1382.52940	         7.93149e+57
          1383.33570	         7.91017e+57
          1384.14200	         9.51509e+57
          1384.94830	         9.45688e+57
          1385.75460	         9.98620e+57
          1386.56090	         1.14321e+58
          1387.36720	         1.07352e+58
          1388.17350	         1.41899e+58
          1388.97980	         1.25378e+58
          1389.78610	         9.40492e+57
          1390.59240	         9.97849e+57
          1391.39870	         8.82169e+57
          1392.20500	         7.83197e+57
          1393.01130	         7.68543e+57
          1393.81760	         8.41463e+57
          1394.62390	         7.54669e+57
          1395.43020	         6.26584e+57
          1396.23650	         7.06757e+57
          1397.04280	         6.88960e+57
          1397.84910	         9.57634e+57
          1398.65540	         9.74136e+57
          1399.46170	         1.02803e+58
          1400.26800	         8.41427e+57
          1401.07430	         8.09673e+57
          1401.88060	         8.78801e+57
          1402.68690	         9.10887e+57
          1403.49320	         1.00879e+58
          1404.29950	         9.64131e+57
          1405.10580	         9.30362e+57
          1405.91210	         1.06385e+58
          1406.71840	         1.17597e+58
          1407.52470	         1.11527e+58
          1408.33100	         1.03199e+58
          1409.13730	         1.16329e+58
          1409.94360	         1.10705e+58
          1410.74990	         1.03579e+58
          1411.55620	         1.07282e+58
          1412.36250	         8.85323e+57
          1413.16880	         7.96155e+57
          1413.97510	         9.09413e+57
          1414.78140	         1.05015e+58
          1415.58770	         1.16763e+58
          1416.39400	         1.12630e+58
          1417.20030	         1.14600e+58
          1418.00660	         1.04612e+58
          1418.81290	         1.01810e+58
          1419.61920	         1.09783e+58
          1420.42550	         1.17105e+58
          1421.23180	         1.26553e+58
          1422.03810	         1.14462e+58
          1422.84440	         1.02081e+58
          1423.65070	         1.17891e+58
          1424.45700	         1.08624e+58
          1425.26330	         9.24576e+57
          1426.06960	         8.76286e+57
          1426.87590	         9.69211e+57
          1427.68220	         9.98812e+57
          1428.48850	         1.04119e+58
          1429.29480	         1.08840e+58
          1430.10110	         9.77586e+57
          1430.90740	         9.22241e+57
          1431.71370	         8.85249e+57
          1432.52000	         7.88484e+57
          1433.32630	         7.67171e+57
          1434.13260	         8.41579e+57
          1434.93890	         8.87630e+57
          1435.74520	         9.34578e+57
          1436.55150	         9.23610e+57
          1437.35780	         8.20741e+57
          1438.16410	         8.28263e+57
          1438.97040	         8.22029e+57
          1439.77670	         8.30925e+57
          1440.58300	         9.81766e+57
          1441.38930	         1.03158e+58
          1442.19560	         1.02694e+58
          1443.00190	         9.40027e+57
          1443.80820	         9.73704e+57
          1444.61450	         1.07120e+58
          1445.42080	         1.01066e+58
          1446.22710	         1.11067e+58
          1447.03340	         1.07826e+58
          1447.83970	         1.14556e+58
          1448.64600	         1.11845e+58
          1449.45230	         1.10657e+58
          1450.25860	         1.06485e+58
          1451.06490	         9.71423e+57
          1451.87120	         8.01650e+57
          1452.67750	         7.40328e+57
          1453.48380	         9.01028e+57
          1454.29010	         9.60055e+57
          1455.09640	         8.96863e+57
          1455.90270	         8.76322e+57
          1456.70900	         9.36707e+57
          1457.51530	         1.08404e+58
          1458.32160	         1.21748e+58
          1459.12790	         1.16424e+58
          1459.93420	         1.01627e+58
          1460.74050	         8.90130e+57
          1461.54680	         9.16482e+57
          1462.35310	         8.70709e+57
          1463.15940	         8.83480e+57
          1463.96570	         1.10451e+58
          1464.77200	         1.19285e+58
          1465.57830	         1.11436e+58
          1466.38460	         8.76549e+57
          1467.19090	         8.48552e+57
          1467.99720	         9.85444e+57
          1468.80350	         9.67314e+57
          1469.60980	         9.00097e+57
          1470.41610	         1.14982e+58
          1471.22240	         1.11312e+58
          1472.02870	         9.73035e+57
          1472.83500	         1.06283e+58
          1473.64130	         9.94693e+57
          1474.44760	         9.98847e+57
          1475.25390	         9.72336e+57
          1476.06020	         7.71515e+57
          1476.86650	         7.83849e+57
          1477.67280	         8.55291e+57
          1478.47910	         7.84074e+57
          1479.28540	         7.82444e+57
          1480.09170	         9.00163e+57
          1480.89800	         8.75737e+57
          1481.70430	         8.36286e+57
          1482.51060	         8.43019e+57
          1483.31690	         8.62050e+57
          1484.12320	         7.06064e+57
          1484.92950	         7.26464e+57
          1485.73580	         8.30421e+57
          1486.54210	         8.80745e+57
          1487.34840	         8.00556e+57
          1488.15470	         8.26142e+57
          1488.96100	         9.57955e+57
          1489.76730	         8.71622e+57
