#sample_263_stacked_spectrum_rest_UV-bands_median_H-alpha_noDC.txt
#median Lum: 1.71106e+42
#Rest-frame wavelength (A) | Luminosity (erg/s/A)
#
          1110.00000	         0.00000e+00
          1110.80630	         4.06631e+58
          1111.61260	         9.68923e+58
          1112.41890	         1.09982e+59
          1113.22520	         8.83593e+56
          1114.03150	        -1.18222e+59
          1114.83780	         1.32614e+59
          1115.64410	        -1.19766e+59
          1116.45040	        -1.37025e+59
          1117.25670	        -1.77699e+58
          1118.06300	         9.13928e+57
          1118.86930	         8.04045e+57
          1119.67560	         1.66212e+59
          1120.48190	         4.88049e+58
          1121.28820	        -1.17242e+59
          1122.09450	         4.07894e+58
          1122.90080	         5.65405e+58
          1123.70710	         9.87225e+58
          1124.51340	         1.53074e+59
          1125.31970	         2.98830e+58
          1126.12600	         1.74858e+58
          1126.93230	        -1.32744e+58
          1127.73860	        -4.66298e+58
          1128.54490	        -3.20563e+58
          1129.35120	        -7.84164e+57
          1130.15750	        -2.71474e+58
          1130.96380	        -1.76395e+58
          1131.77010	         4.80271e+58
          1132.57640	         4.12480e+58
          1133.38270	         4.06454e+58
          1134.18900	         1.30975e+58
          1134.99530	         2.62997e+58
          1135.80160	         1.97475e+58
          1136.60790	        -6.97885e+56
          1137.41420	         9.54754e+57
          1138.22050	         3.63916e+58
          1139.02680	         1.91080e+58
          1139.83310	         1.26732e+58
          1140.63940	         1.22496e+58
          1141.44570	         1.94660e+58
          1142.25200	         1.97792e+58
          1143.05830	         2.31156e+58
          1143.86460	         6.65635e+57
          1144.67090	         3.30656e+58
          1145.47720	         3.00070e+58
          1146.28350	         1.87306e+58
          1147.08980	         2.83245e+58
          1147.89610	         1.83547e+58
          1148.70240	         1.56105e+58
          1149.50870	         2.71402e+58
          1150.31500	         8.27147e+57
          1151.12130	        -5.15640e+57
          1151.92760	         7.03181e+56
          1152.73390	         2.87521e+57
          1153.54020	        -1.16925e+57
          1154.34650	         2.22380e+58
          1155.15280	         1.99117e+58
          1155.95910	         1.48143e+58
          1156.76540	         1.82550e+58
          1157.57170	        -6.38327e+56
          1158.37800	        -8.23006e+57
          1159.18430	        -5.12639e+57
          1159.99060	         6.65211e+57
          1160.79690	         1.96149e+57
          1161.60320	         1.12617e+58
          1162.40950	         1.77637e+58
          1163.21580	         9.98965e+57
          1164.02210	         2.03441e+58
          1164.82840	         1.29572e+58
          1165.63470	         1.45802e+58
          1166.44100	         2.01168e+58
          1167.24730	         1.31908e+58
          1168.05360	         4.98670e+57
          1168.85990	        -1.01047e+57
          1169.66620	        -5.12118e+56
          1170.47250	         1.28085e+58
          1171.27880	         1.02436e+58
          1172.08510	         5.87362e+57
          1172.89140	         6.42451e+57
          1173.69770	         1.20933e+58
          1174.50400	         1.36072e+58
          1175.31030	         1.85134e+58
          1176.11660	         1.88202e+58
          1176.92290	         1.65688e+58
          1177.72920	         1.47802e+58
          1178.53550	         1.00573e+58
          1179.34180	         1.29529e+57
          1180.14810	         4.48754e+57
          1180.95440	         7.22956e+57
          1181.76070	         4.38059e+57
          1182.56700	         6.70292e+57
          1183.37330	         5.57513e+57
          1184.17960	         1.29530e+58
          1184.98590	         1.32480e+58
          1185.79220	         1.03561e+58
          1186.59850	         9.47101e+57
          1187.40480	         1.18761e+58
          1188.21110	         1.75487e+58
          1189.01740	         9.19094e+57
          1189.82370	         1.64486e+58
          1190.63000	         1.51044e+58
          1191.43630	         1.30621e+58
          1192.24260	         9.91243e+57
          1193.04890	         1.32597e+58
          1193.85520	         1.53843e+58
          1194.66150	         6.99278e+57
          1195.46780	         9.87593e+57
          1196.27410	         1.45441e+58
          1197.08040	         1.16628e+58
          1197.88670	         1.40799e+58
          1198.69300	         1.37600e+58
          1199.49930	         1.39887e+58
          1200.30560	         1.24407e+58
          1201.11190	         7.21625e+57
          1201.91820	         6.88206e+57
          1202.72450	         9.34259e+57
          1203.53080	         1.60821e+58
          1204.33710	         8.07031e+57
          1205.14340	         9.82455e+57
          1205.94970	         7.58084e+57
          1206.75600	         6.61234e+57
          1207.56230	         3.53784e+57
          1208.36860	         2.00242e+57
          1209.17490	         7.87045e+57
          1209.98120	         8.47577e+57
          1210.78750	         1.02149e+58
          1211.59380	         1.29168e+58
          1212.40010	         1.87865e+58
          1213.20640	         1.77874e+58
          1214.01270	         1.91145e+58
          1214.81900	         2.62298e+58
          1215.62530	         4.61579e+58
          1216.43160	         9.17558e+58
          1217.23790	         1.52815e+59
          1218.04420	         1.16322e+59
          1218.85050	         8.75361e+58
          1219.65680	         5.78994e+58
          1220.46310	         3.35884e+58
          1221.26940	         2.29258e+58
          1222.07570	         1.26980e+58
          1222.88200	         1.04669e+58
          1223.68830	         1.07748e+58
          1224.49460	         8.38425e+57
          1225.30090	         7.66792e+57
          1226.10720	         7.15766e+57
          1226.91350	         5.14516e+57
          1227.71980	         6.81219e+57
          1228.52610	         1.11194e+58
          1229.33240	         9.76645e+57
          1230.13870	         9.72405e+57
          1230.94500	         6.95683e+57
          1231.75130	         5.21762e+57
          1232.55760	         8.15632e+57
          1233.36390	         9.99019e+57
          1234.17020	         8.02061e+57
          1234.97650	         8.39450e+57
          1235.78280	         7.72628e+57
          1236.58910	         7.88376e+57
          1237.39540	         9.36950e+57
          1238.20170	         8.20764e+57
          1239.00800	         8.24242e+57
          1239.81430	         1.25654e+58
          1240.62060	         1.24934e+58
          1241.42690	         1.04892e+58
          1242.23320	         1.11170e+58
          1243.03950	         9.27669e+57
          1243.84580	         8.00017e+57
          1244.65210	         7.69373e+57
          1245.45840	         7.89073e+57
          1246.26470	         1.04833e+58
          1247.07100	         9.47244e+57
          1247.87730	         7.76726e+57
          1248.68360	         4.83790e+57
          1249.48990	         7.79332e+57
          1250.29620	         1.48553e+58
          1251.10250	         1.08123e+58
          1251.90880	         6.17967e+57
          1252.71510	         6.08963e+57
          1253.52140	         8.31616e+57
          1254.32770	         9.63932e+57
          1255.13400	         1.29796e+58
          1255.94030	         1.05623e+58
          1256.74660	         8.56438e+57
          1257.55290	         9.67396e+57
          1258.35920	         8.62477e+57
          1259.16550	         6.57077e+57
          1259.97180	         5.63490e+57
          1260.77810	         8.88458e+57
          1261.58440	         1.03695e+58
          1262.39070	         7.41700e+57
          1263.19700	         6.27109e+57
          1264.00330	         9.85926e+57
          1264.80960	         1.06426e+58
          1265.61590	         1.00403e+58
          1266.42220	         1.23052e+58
          1267.22850	         1.00684e+58
          1268.03480	         1.29916e+58
          1268.84110	         1.41645e+58
          1269.64740	         1.16686e+58
          1270.45370	         1.26121e+58
          1271.26000	         1.36472e+58
          1272.06630	         1.34250e+58
          1272.87260	         1.11158e+58
          1273.67890	         1.21170e+58
          1274.48520	         1.43634e+58
          1275.29150	         1.24225e+58
          1276.09780	         1.23042e+58
          1276.90410	         1.47723e+58
          1277.71040	         1.36457e+58
          1278.51670	         1.16346e+58
          1279.32300	         1.34003e+58
          1280.12930	         1.46849e+58
          1280.93560	         1.18013e+58
          1281.74190	         1.34062e+58
          1282.54820	         1.50726e+58
          1283.35450	         1.29775e+58
          1284.16080	         1.19911e+58
          1284.96710	         1.46153e+58
          1285.77340	         1.28208e+58
          1286.57970	         1.03246e+58
          1287.38600	         1.49930e+58
          1288.19230	         1.65008e+58
          1288.99860	         1.45163e+58
          1289.80490	         1.30852e+58
          1290.61120	         1.38840e+58
          1291.41750	         1.47634e+58
          1292.22380	         1.11189e+58
          1293.03010	         9.16007e+57
          1293.83640	         1.10592e+58
          1294.64270	         1.07232e+58
          1295.44900	         7.80384e+57
          1296.25530	         7.57393e+57
          1297.06160	         1.11941e+58
          1297.86790	         1.31830e+58
          1298.67420	         9.78604e+57
          1299.48050	         9.98919e+57
          1300.28680	         1.16671e+58
          1301.09310	         8.95874e+57
          1301.89940	         5.42450e+57
          1302.70570	         7.49134e+57
          1303.51200	         9.00088e+57
          1304.31830	         9.80638e+57
          1305.12460	         1.16195e+58
          1305.93090	         1.32392e+58
          1306.73720	         1.36652e+58
          1307.54350	         1.35981e+58
          1308.34980	         1.46371e+58
          1309.15610	         1.44980e+58
          1309.96240	         1.40318e+58
          1310.76870	         1.43178e+58
          1311.57500	         1.44881e+58
          1312.38130	         1.25275e+58
          1313.18760	         1.23288e+58
          1313.99390	         1.60420e+58
          1314.80020	         1.78220e+58
          1315.60650	         1.58930e+58
          1316.41280	         1.39244e+58
          1317.21910	         1.06663e+58
          1318.02540	         1.14996e+58
          1318.83170	         1.26679e+58
          1319.63800	         1.25787e+58
          1320.44430	         1.21883e+58
          1321.25060	         1.24400e+58
          1322.05690	         1.22900e+58
          1322.86320	         1.19874e+58
          1323.66950	         1.13329e+58
          1324.47580	         1.08367e+58
          1325.28210	         1.03347e+58
          1326.08840	         1.15516e+58
          1326.89470	         1.24650e+58
          1327.70100	         1.06542e+58
          1328.50730	         9.42212e+57
          1329.31360	         1.03733e+58
          1330.11990	         1.05901e+58
          1330.92620	         1.03073e+58
          1331.73250	         1.03379e+58
          1332.53880	         1.01931e+58
          1333.34510	         9.22124e+57
          1334.15140	         9.11185e+57
          1334.95770	         8.26855e+57
          1335.76400	         9.33786e+57
          1336.57030	         1.14476e+58
          1337.37660	         1.14524e+58
          1338.18290	         1.22306e+58
          1338.98920	         1.15319e+58
          1339.79550	         1.02297e+58
          1340.60180	         1.15284e+58
          1341.40810	         1.27659e+58
          1342.21440	         1.25998e+58
          1343.02070	         1.39793e+58
          1343.82700	         1.31158e+58
          1344.63330	         1.20909e+58
          1345.43960	         1.10090e+58
          1346.24590	         8.55607e+57
          1347.05220	         1.17329e+58
          1347.85850	         1.08697e+58
          1348.66480	         1.15873e+58
          1349.47110	         1.36823e+58
          1350.27740	         1.19783e+58
          1351.08370	         1.14753e+58
          1351.89000	         1.13663e+58
          1352.69630	         1.15231e+58
          1353.50260	         1.12531e+58
          1354.30890	         1.17205e+58
          1355.11520	         1.17835e+58
          1355.92150	         1.01101e+58
          1356.72780	         8.93195e+57
          1357.53410	         9.23774e+57
          1358.34040	         1.15705e+58
          1359.14670	         1.10692e+58
          1359.95300	         1.02359e+58
          1360.75930	         1.04460e+58
          1361.56560	         1.04634e+58
          1362.37190	         1.07926e+58
          1363.17820	         1.12300e+58
          1363.98450	         1.08299e+58
          1364.79080	         1.20639e+58
          1365.59710	         1.35255e+58
          1366.40340	         1.29866e+58
          1367.20970	         9.57713e+57
          1368.01600	         8.59944e+57
          1368.82230	         9.70405e+57
          1369.62860	         1.08634e+58
          1370.43490	         1.04229e+58
          1371.24120	         1.01003e+58
          1372.04750	         8.52094e+57
          1372.85380	         9.17348e+57
          1373.66010	         1.01766e+58
          1374.46640	         1.07679e+58
          1375.27270	         1.12094e+58
          1376.07900	         9.05166e+57
          1376.88530	         8.27134e+57
          1377.69160	         8.31013e+57
          1378.49790	         7.98380e+57
          1379.30420	         9.12149e+57
          1380.11050	         9.66118e+57
          1380.91680	         8.32357e+57
          1381.72310	         7.01668e+57
          1382.52940	         6.99168e+57
          1383.33570	         7.89689e+57
          1384.14200	         1.05963e+58
          1384.94830	         1.26818e+58
          1385.75460	         1.25081e+58
          1386.56090	         1.11878e+58
          1387.36720	         1.23871e+58
          1388.17350	         1.44700e+58
          1388.97980	         1.10357e+58
          1389.78610	         8.46012e+57
          1390.59240	         9.21903e+57
          1391.39870	         8.43573e+57
          1392.20500	         7.94145e+57
          1393.01130	         7.88644e+57
          1393.81760	         8.18173e+57
          1394.62390	         8.01976e+57
          1395.43020	         6.72398e+57
          1396.23650	         7.05618e+57
          1397.04280	         7.48211e+57
          1397.84910	         8.56985e+57
          1398.65540	         8.27703e+57
          1399.46170	         8.70549e+57
          1400.26800	         8.58794e+57
          1401.07430	         8.12430e+57
          1401.88060	         7.93835e+57
          1402.68690	         9.17467e+57
          1403.49320	         9.70248e+57
          1404.29950	         1.00282e+58
          1405.10580	         1.03446e+58
          1405.91210	         1.04999e+58
          1406.71840	         1.03255e+58
          1407.52470	         9.41463e+57
          1408.33100	         1.02725e+58
          1409.13730	         1.21284e+58
          1409.94360	         1.21746e+58
          1410.74990	         1.15254e+58
          1411.55620	         1.00873e+58
          1412.36250	         9.04815e+57
          1413.16880	         9.64563e+57
          1413.97510	         9.36886e+57
          1414.78140	         8.89438e+57
          1415.58770	         1.10072e+58
          1416.39400	         1.05868e+58
          1417.20030	         1.03542e+58
          1418.00660	         9.87972e+57
          1418.81290	         9.47249e+57
          1419.61920	         9.70401e+57
          1420.42550	         1.27612e+58
          1421.23180	         1.47466e+58
          1422.03810	         1.28618e+58
          1422.84440	         9.89237e+57
          1423.65070	         1.15466e+58
          1424.45700	         1.07607e+58
          1425.26330	         8.48334e+57
          1426.06960	         8.45633e+57
          1426.87590	         9.34268e+57
          1427.68220	         9.94390e+57
          1428.48850	         9.97165e+57
          1429.29480	         9.22044e+57
          1430.10110	         8.87354e+57
          1430.90740	         7.98555e+57
          1431.71370	         8.67624e+57
          1432.52000	         7.92678e+57
          1433.32630	         6.84035e+57
          1434.13260	         7.91665e+57
          1434.93890	         8.72712e+57
          1435.74520	         9.23723e+57
          1436.55150	         9.74050e+57
          1437.35780	         9.00739e+57
          1438.16410	         8.43001e+57
          1438.97040	         9.44165e+57
          1439.77670	         9.56494e+57
          1440.58300	         9.24576e+57
          1441.38930	         9.02899e+57
          1442.19560	         9.66675e+57
          1443.00190	         1.06481e+58
          1443.80820	         1.04170e+58
          1444.61450	         8.35244e+57
          1445.42080	         7.83604e+57
          1446.22710	         1.00469e+58
          1447.03340	         1.03464e+58
          1447.83970	         1.14280e+58
          1448.64600	         1.12793e+58
          1449.45230	         1.00422e+58
          1450.25860	         1.06413e+58
          1451.06490	         1.00259e+58
          1451.87120	         7.60466e+57
          1452.67750	         6.85953e+57
          1453.48380	         8.81699e+57
          1454.29010	         8.10141e+57
          1455.09640	         7.57162e+57
          1455.90270	         8.69041e+57
          1456.70900	         7.75839e+57
          1457.51530	         9.12914e+57
          1458.32160	         1.22897e+58
          1459.12790	         1.17734e+58
          1459.93420	         1.07134e+58
          1460.74050	         9.04993e+57
          1461.54680	         9.36200e+57
          1462.35310	         9.33600e+57
          1463.15940	         1.04203e+58
          1463.96570	         1.14115e+58
          1464.77200	         1.24756e+58
          1465.57830	         1.21714e+58
          1466.38460	         9.71676e+57
          1467.19090	         8.51931e+57
          1467.99720	         8.52429e+57
          1468.80350	         8.50333e+57
          1469.60980	         9.68880e+57
          1470.41610	         1.04936e+58
          1471.22240	         9.97581e+57
          1472.02870	         1.02252e+58
          1472.83500	         1.04148e+58
          1473.64130	         1.02352e+58
          1474.44760	         9.87866e+57
          1475.25390	         8.78004e+57
          1476.06020	         8.64686e+57
          1476.86650	         9.00700e+57
          1477.67280	         7.77719e+57
          1478.47910	         6.85695e+57
          1479.28540	         7.75141e+57
          1480.09170	         7.92774e+57
          1480.89800	         8.50459e+57
          1481.70430	         8.11283e+57
          1482.51060	         7.55314e+57
          1483.31690	         8.24539e+57
          1484.12320	         7.99645e+57
          1484.92950	         7.27021e+57
          1485.73580	         8.20951e+57
          1486.54210	         7.95094e+57
          1487.34840	         7.65224e+57
          1488.15470	         8.34665e+57
          1488.96100	         8.61983e+57
          1489.76730	         8.50529e+57
