#sample_139_stacked_spectrum_rest_UV-bands_median_H-alpha_noDC.txt
#median Lum: 1.71717e+42
#Rest-frame wavelength (A) | Luminosity (erg/s/A)
#
          1110.00000	         0.00000e+00
          1110.80630	        -1.08341e+59
          1111.61260	         4.54422e+59
          1112.41890	         6.88736e+58
          1113.22520	         9.21223e+58
          1114.03150	        -7.14140e+58
          1114.83780	         2.46812e+59
          1115.64410	         4.64754e+58
          1116.45040	         7.27645e+58
          1117.25670	        -8.37201e+57
          1118.06300	         1.58103e+59
          1118.86930	         1.33590e+59
          1119.67560	         1.72987e+59
          1120.48190	         1.86267e+58
          1121.28820	        -1.42171e+59
          1122.09450	         1.98064e+58
          1122.90080	         6.40530e+58
          1123.70710	         8.05659e+58
          1124.51340	         5.81696e+58
          1125.31970	         3.33708e+58
          1126.12600	         3.54042e+58
          1126.93230	        -5.17426e+58
          1127.73860	        -1.00671e+59
          1128.54490	         2.57725e+57
          1129.35120	         3.91680e+58
          1130.15750	        -1.16774e+58
          1130.96380	        -2.05373e+58
          1131.77010	         2.73524e+58
          1132.57640	         3.98694e+58
          1133.38270	        -7.85310e+57
          1134.18900	         7.99486e+57
          1134.99530	         1.56685e+58
          1135.80160	         7.91409e+57
          1136.60790	         2.79577e+58
          1137.41420	         2.71638e+58
          1138.22050	         4.69559e+58
          1139.02680	         4.08105e+58
          1139.83310	         4.05866e+58
          1140.63940	         2.76582e+58
          1141.44570	        -9.85774e+57
          1142.25200	         3.98026e+57
          1143.05830	         2.70624e+58
          1143.86460	         1.72282e+58
          1144.67090	         1.20542e+58
          1145.47720	         8.86375e+57
          1146.28350	         1.07770e+58
          1147.08980	         3.99629e+57
          1147.89610	         6.06217e+57
          1148.70240	         2.18599e+58
          1149.50870	         3.19167e+58
          1150.31500	         1.16173e+58
          1151.12130	         2.30313e+57
          1151.92760	        -2.80172e+57
          1152.73390	         2.97558e+57
          1153.54020	         2.85187e+57
          1154.34650	         2.52327e+58
          1155.15280	         2.15304e+58
          1155.95910	         7.18245e+57
          1156.76540	         4.90599e+57
          1157.57170	        -9.68620e+57
          1158.37800	        -2.20797e+57
          1159.18430	        -1.03096e+58
          1159.99060	         6.24348e+57
          1160.79690	         1.31129e+58
          1161.60320	         1.63102e+58
          1162.40950	         2.16614e+58
          1163.21580	         8.18285e+57
          1164.02210	         1.30747e+58
          1164.82840	         6.22794e+57
          1165.63470	         1.92616e+58
          1166.44100	         3.54592e+58
          1167.24730	         2.22428e+58
          1168.05360	         5.45017e+57
          1168.85990	         1.22736e+58
          1169.66620	         5.75800e+57
          1170.47250	         2.50924e+57
          1171.27880	         1.11723e+58
          1172.08510	         1.63761e+58
          1172.89140	         8.57710e+57
          1173.69770	         5.25333e+57
          1174.50400	         1.17350e+58
          1175.31030	         1.88752e+58
          1176.11660	         1.76095e+58
          1176.92290	         1.55184e+58
          1177.72920	         9.58083e+57
          1178.53550	         7.45172e+57
          1179.34180	         5.71838e+57
          1180.14810	         3.67868e+57
          1180.95440	         5.09721e+57
          1181.76070	         4.73527e+57
          1182.56700	         8.59315e+57
          1183.37330	         8.83636e+57
          1184.17960	         1.14771e+58
          1184.98590	         1.02788e+58
          1185.79220	         8.41690e+57
          1186.59850	         1.51213e+58
          1187.40480	         1.19720e+58
          1188.21110	         1.28759e+58
          1189.01740	         9.05544e+57
          1189.82370	         1.05760e+58
          1190.63000	         1.50472e+58
          1191.43630	         1.78866e+58
          1192.24260	         1.48575e+58
          1193.04890	         1.08521e+58
          1193.85520	         7.81159e+57
          1194.66150	         5.40735e+57
          1195.46780	         7.49101e+57
          1196.27410	         1.35928e+58
          1197.08040	         8.22307e+57
          1197.88670	         1.24350e+58
          1198.69300	         1.60137e+58
          1199.49930	         1.58980e+58
          1200.30560	         1.05200e+58
          1201.11190	         7.88709e+57
          1201.91820	         1.19334e+58
          1202.72450	         8.48237e+57
          1203.53080	         1.62213e+58
          1204.33710	         8.57401e+57
          1205.14340	         6.58276e+57
          1205.94970	         6.13427e+57
          1206.75600	         8.46832e+57
          1207.56230	         8.73101e+57
          1208.36860	         1.20686e+58
          1209.17490	         6.68232e+57
          1209.98120	         5.17195e+57
          1210.78750	         8.82435e+57
          1211.59380	         1.45867e+58
          1212.40010	         1.87963e+58
          1213.20640	         2.06216e+58
          1214.01270	         2.05949e+58
          1214.81900	         2.52166e+58
          1215.62530	         4.43935e+58
          1216.43160	         8.68377e+58
          1217.23790	         1.52448e+59
          1218.04420	         1.19130e+59
          1218.85050	         9.34004e+58
          1219.65680	         6.07261e+58
          1220.46310	         3.32614e+58
          1221.26940	         2.22022e+58
          1222.07570	         1.54634e+58
          1222.88200	         1.30502e+58
          1223.68830	         1.11124e+58
          1224.49460	         9.98789e+57
          1225.30090	         6.42419e+57
          1226.10720	         7.36845e+57
          1226.91350	         9.58117e+57
          1227.71980	         9.44225e+57
          1228.52610	         1.06066e+58
          1229.33240	         9.76624e+57
          1230.13870	         9.98933e+57
          1230.94500	         9.76419e+57
          1231.75130	         7.56109e+57
          1232.55760	         8.02846e+57
          1233.36390	         9.83913e+57
          1234.17020	         8.45310e+57
          1234.97650	         7.20741e+57
          1235.78280	         7.93916e+57
          1236.58910	         1.00502e+58
          1237.39540	         1.09599e+58
          1238.20170	         1.08723e+58
          1239.00800	         1.36118e+58
          1239.81430	         1.51496e+58
          1240.62060	         1.03826e+58
          1241.42690	         9.30930e+57
          1242.23320	         1.16194e+58
          1243.03950	         9.38683e+57
          1243.84580	         8.25322e+57
          1244.65210	         9.27158e+57
          1245.45840	         7.58905e+57
          1246.26470	         7.56353e+57
          1247.07100	         7.73500e+57
          1247.87730	         7.41308e+57
          1248.68360	         3.86152e+57
          1249.48990	         6.77068e+57
          1250.29620	         1.01576e+58
          1251.10250	         8.02902e+57
          1251.90880	         5.84391e+57
          1252.71510	         6.65039e+57
          1253.52140	         6.41858e+57
          1254.32770	         8.97115e+57
          1255.13400	         1.47287e+58
          1255.94030	         1.40147e+58
          1256.74660	         1.07179e+58
          1257.55290	         1.07646e+58
          1258.35920	         1.04884e+58
          1259.16550	         7.10155e+57
          1259.97180	         5.77278e+57
          1260.77810	         1.00029e+58
          1261.58440	         1.04732e+58
          1262.39070	         7.79048e+57
          1263.19700	         7.13660e+57
          1264.00330	         8.69052e+57
          1264.80960	         9.24597e+57
          1265.61590	         1.20660e+58
          1266.42220	         1.02361e+58
          1267.22850	         1.16319e+58
          1268.03480	         1.55972e+58
          1268.84110	         1.48914e+58
          1269.64740	         1.26409e+58
          1270.45370	         1.45662e+58
          1271.26000	         1.36731e+58
          1272.06630	         9.91373e+57
          1272.87260	         9.12136e+57
          1273.67890	         1.18199e+58
          1274.48520	         1.37720e+58
          1275.29150	         1.11934e+58
          1276.09780	         9.27583e+57
          1276.90410	         1.30327e+58
          1277.71040	         1.31164e+58
          1278.51670	         1.16735e+58
          1279.32300	         1.30739e+58
          1280.12930	         1.23332e+58
          1280.93560	         9.52754e+57
          1281.74190	         8.91449e+57
          1282.54820	         1.04165e+58
          1283.35450	         1.10874e+58
          1284.16080	         1.05202e+58
          1284.96710	         1.37320e+58
          1285.77340	         1.20652e+58
          1286.57970	         1.12355e+58
          1287.38600	         1.52479e+58
          1288.19230	         1.67028e+58
          1288.99860	         1.59874e+58
          1289.80490	         1.22434e+58
          1290.61120	         1.28056e+58
          1291.41750	         1.42350e+58
          1292.22380	         1.21226e+58
          1293.03010	         1.04510e+58
          1293.83640	         9.12625e+57
          1294.64270	         8.66569e+57
          1295.44900	         7.12883e+57
          1296.25530	         6.99007e+57
          1297.06160	         7.43688e+57
          1297.86790	         8.43104e+57
          1298.67420	         6.95927e+57
          1299.48050	         6.00973e+57
          1300.28680	         8.34110e+57
          1301.09310	         7.88085e+57
          1301.89940	         4.73025e+57
          1302.70570	         7.21015e+57
          1303.51200	         9.10278e+57
          1304.31830	         1.00732e+58
          1305.12460	         1.14248e+58
          1305.93090	         1.13454e+58
          1306.73720	         1.30942e+58
          1307.54350	         1.52830e+58
          1308.34980	         1.65629e+58
          1309.15610	         1.71345e+58
          1309.96240	         1.52112e+58
          1310.76870	         1.28930e+58
          1311.57500	         1.21127e+58
          1312.38130	         1.01993e+58
          1313.18760	         1.47212e+58
          1313.99390	         1.86512e+58
          1314.80020	         1.63331e+58
          1315.60650	         1.39922e+58
          1316.41280	         1.36748e+58
          1317.21910	         1.18534e+58
          1318.02540	         1.27799e+58
          1318.83170	         1.36802e+58
          1319.63800	         1.15777e+58
          1320.44430	         1.08789e+58
          1321.25060	         1.18076e+58
          1322.05690	         1.30099e+58
          1322.86320	         1.37373e+58
          1323.66950	         1.23591e+58
          1324.47580	         9.45677e+57
          1325.28210	         1.04938e+58
          1326.08840	         1.16582e+58
          1326.89470	         1.25017e+58
          1327.70100	         1.11514e+58
          1328.50730	         7.60998e+57
          1329.31360	         9.73301e+57
          1330.11990	         1.04612e+58
          1330.92620	         9.58758e+57
          1331.73250	         1.09040e+58
          1332.53880	         1.11661e+58
          1333.34510	         8.86378e+57
          1334.15140	         8.17302e+57
          1334.95770	         7.96040e+57
          1335.76400	         9.66410e+57
          1336.57030	         1.09964e+58
          1337.37660	         9.68554e+57
          1338.18290	         1.06321e+58
          1338.98920	         1.17444e+58
          1339.79550	         1.15940e+58
          1340.60180	         1.28215e+58
          1341.40810	         1.35531e+58
          1342.21440	         1.17264e+58
          1343.02070	         1.43810e+58
          1343.82700	         1.52428e+58
          1344.63330	         1.30639e+58
          1345.43960	         1.38419e+58
          1346.24590	         1.11138e+58
          1347.05220	         1.16824e+58
          1347.85850	         1.08055e+58
          1348.66480	         1.20758e+58
          1349.47110	         1.31743e+58
          1350.27740	         1.11969e+58
          1351.08370	         1.11851e+58
          1351.89000	         1.03527e+58
          1352.69630	         1.08213e+58
          1353.50260	         1.10348e+58
          1354.30890	         1.11175e+58
          1355.11520	         1.23995e+58
          1355.92150	         1.21615e+58
          1356.72780	         1.06970e+58
          1357.53410	         9.91337e+57
          1358.34040	         1.02224e+58
          1359.14670	         1.02045e+58
          1359.95300	         9.66091e+57
          1360.75930	         1.02457e+58
          1361.56560	         1.04011e+58
          1362.37190	         1.08243e+58
          1363.17820	         1.09239e+58
          1363.98450	         1.25685e+58
          1364.79080	         1.38668e+58
          1365.59710	         1.35994e+58
          1366.40340	         1.20851e+58
          1367.20970	         9.16314e+57
          1368.01600	         8.08910e+57
          1368.82230	         9.55654e+57
          1369.62860	         9.91243e+57
          1370.43490	         8.50935e+57
          1371.24120	         9.56039e+57
          1372.04750	         1.00608e+58
          1372.85380	         1.16582e+58
          1373.66010	         1.28885e+58
          1374.46640	         1.14510e+58
          1375.27270	         1.12651e+58
          1376.07900	         9.59487e+57
          1376.88530	         8.33641e+57
          1377.69160	         9.45352e+57
          1378.49790	         8.34350e+57
          1379.30420	         7.43100e+57
          1380.11050	         7.88181e+57
          1380.91680	         7.35686e+57
          1381.72310	         7.89461e+57
          1382.52940	         8.94842e+57
          1383.33570	         8.27052e+57
          1384.14200	         9.16257e+57
          1384.94830	         1.12901e+58
          1385.75460	         1.20669e+58
          1386.56090	         1.10631e+58
          1387.36720	         1.15525e+58
          1388.17350	         1.31917e+58
          1388.97980	         1.18996e+58
          1389.78610	         9.00222e+57
          1390.59240	         8.58640e+57
          1391.39870	         7.82015e+57
          1392.20500	         6.91286e+57
          1393.01130	         7.40745e+57
          1393.81760	         8.64808e+57
          1394.62390	         9.08042e+57
          1395.43020	         6.89782e+57
          1396.23650	         6.70012e+57
          1397.04280	         7.15027e+57
          1397.84910	         7.86653e+57
          1398.65540	         8.62950e+57
          1399.46170	         8.91560e+57
          1400.26800	         7.61634e+57
          1401.07430	         6.48980e+57
          1401.88060	         7.83327e+57
          1402.68690	         1.02817e+58
          1403.49320	         1.06312e+58
          1404.29950	         8.74363e+57
          1405.10580	         1.00774e+58
          1405.91210	         1.14066e+58
          1406.71840	         1.13078e+58
          1407.52470	         1.05169e+58
          1408.33100	         9.17749e+57
          1409.13730	         1.08901e+58
          1409.94360	         1.14351e+58
          1410.74990	         1.19620e+58
          1411.55620	         1.13522e+58
          1412.36250	         9.52084e+57
          1413.16880	         8.68889e+57
          1413.97510	         8.82831e+57
          1414.78140	         9.67340e+57
          1415.58770	         1.10693e+58
          1416.39400	         1.14740e+58
          1417.20030	         1.24920e+58
          1418.00660	         1.21822e+58
          1418.81290	         1.12437e+58
          1419.61920	         1.14914e+58
          1420.42550	         1.28962e+58
          1421.23180	         1.38312e+58
          1422.03810	         1.21305e+58
          1422.84440	         1.01520e+58
          1423.65070	         1.15481e+58
          1424.45700	         1.14387e+58
          1425.26330	         9.97890e+57
          1426.06960	         9.91103e+57
          1426.87590	         1.05723e+58
          1427.68220	         9.89986e+57
          1428.48850	         1.14085e+58
          1429.29480	         1.16439e+58
          1430.10110	         1.03177e+58
          1430.90740	         8.76057e+57
          1431.71370	         8.75574e+57
          1432.52000	         9.34435e+57
          1433.32630	         7.94927e+57
          1434.13260	         7.65983e+57
          1434.93890	         7.42434e+57
          1435.74520	         8.97296e+57
          1436.55150	         1.00657e+58
          1437.35780	         9.93587e+57
          1438.16410	         8.10376e+57
          1438.97040	         8.65005e+57
          1439.77670	         9.52297e+57
          1440.58300	         8.85098e+57
          1441.38930	         8.99760e+57
          1442.19560	         9.51698e+57
          1443.00190	         9.94044e+57
          1443.80820	         1.16180e+58
          1444.61450	         1.13522e+58
          1445.42080	         8.79229e+57
          1446.22710	         1.00964e+58
          1447.03340	         9.88439e+57
          1447.83970	         1.03535e+58
          1448.64600	         1.08939e+58
          1449.45230	         1.02196e+58
          1450.25860	         9.25629e+57
          1451.06490	         7.75750e+57
          1451.87120	         7.30588e+57
          1452.67750	         6.98011e+57
          1453.48380	         7.91784e+57
          1454.29010	         7.89597e+57
          1455.09640	         7.93446e+57
          1455.90270	         8.86254e+57
          1456.70900	         9.51561e+57
          1457.51530	         1.05435e+58
          1458.32160	         1.22983e+58
          1459.12790	         1.11743e+58
          1459.93420	         9.40509e+57
          1460.74050	         8.23930e+57
          1461.54680	         8.52202e+57
          1462.35310	         9.27715e+57
          1463.15940	         1.00191e+58
          1463.96570	         1.04778e+58
          1464.77200	         1.17471e+58
          1465.57830	         1.03111e+58
          1466.38460	         8.42859e+57
          1467.19090	         8.70334e+57
          1467.99720	         9.02780e+57
          1468.80350	         9.19248e+57
          1469.60980	         1.08490e+58
          1470.41610	         1.03886e+58
          1471.22240	         9.37379e+57
          1472.02870	         9.16662e+57
          1472.83500	         9.16106e+57
          1473.64130	         9.72066e+57
          1474.44760	         1.02906e+58
          1475.25390	         9.45069e+57
          1476.06020	         8.80898e+57
          1476.86650	         8.38353e+57
          1477.67280	         7.66815e+57
          1478.47910	         6.98082e+57
          1479.28540	         6.87920e+57
          1480.09170	         8.09456e+57
          1480.89800	         8.19598e+57
          1481.70430	         8.35718e+57
          1482.51060	         8.80801e+57
          1483.31690	         8.25479e+57
          1484.12320	         7.69495e+57
          1484.92950	         7.89851e+57
          1485.73580	         9.04598e+57
          1486.54210	         9.28150e+57
          1487.34840	         9.00861e+57
          1488.15470	         8.44216e+57
          1488.96100	         8.84753e+57
          1489.76730	         9.48830e+57
