#sample_213_stacked_spectrum_rest_UV-bands_median_H-alpha_noDC.txt
#median Lum: 1.66760e+42
#Rest-frame wavelength (A) | Luminosity (erg/s/A)
#
          1110.00000	         0.00000e+00
          1110.80630	        -2.46783e+59
          1111.61260	         1.70737e+59
          1112.41890	         1.92348e+59
          1113.22520	         3.89605e+58
          1114.03150	        -1.01563e+59
          1114.83780	         2.72914e+59
          1115.64410	         2.37158e+59
          1116.45040	         3.15714e+59
          1117.25670	        -3.87567e+56
          1118.06300	         5.65490e+58
          1118.86930	        -8.46847e+58
          1119.67560	         2.68578e+58
          1120.48190	         2.36201e+58
          1121.28820	        -1.80763e+59
          1122.09450	        -2.16979e+58
          1122.90080	         4.88636e+58
          1123.70710	         6.42812e+58
          1124.51340	         5.12424e+58
          1125.31970	        -2.92738e+58
          1126.12600	         9.98030e+57
          1126.93230	        -5.14119e+58
          1127.73860	        -6.91735e+58
          1128.54490	         1.43400e+58
          1129.35120	         7.68126e+57
          1130.15750	         1.60361e+58
          1130.96380	        -1.50273e+58
          1131.77010	         6.36592e+58
          1132.57640	         5.69051e+58
          1133.38270	         3.30264e+58
          1134.18900	        -1.60312e+57
          1134.99530	        -1.69806e+58
          1135.80160	         3.93922e+58
          1136.60790	         3.37908e+58
          1137.41420	         9.41099e+57
          1138.22050	         2.75241e+58
          1139.02680	         3.94245e+58
          1139.83310	         3.23152e+58
          1140.63940	         2.50772e+58
          1141.44570	        -2.87112e+56
          1142.25200	         1.97124e+58
          1143.05830	         1.99194e+58
          1143.86460	         1.95062e+58
          1144.67090	         1.18249e+58
          1145.47720	         9.68664e+57
          1146.28350	         7.23448e+57
          1147.08980	         9.38972e+57
          1147.89610	         1.96883e+58
          1148.70240	         3.72853e+58
          1149.50870	         2.59617e+58
          1150.31500	         1.11657e+58
          1151.12130	         1.06932e+58
          1151.92760	         2.16991e+57
          1152.73390	        -1.36491e+57
          1153.54020	         2.22867e+57
          1154.34650	         2.21843e+58
          1155.15280	         2.83679e+58
          1155.95910	         1.19796e+58
          1156.76540	         3.78363e+57
          1157.57170	        -9.09569e+57
          1158.37800	        -1.71539e+56
          1159.18430	         4.67356e+57
          1159.99060	         9.80435e+57
          1160.79690	         8.39777e+57
          1161.60320	         5.95985e+57
          1162.40950	         1.13932e+58
          1163.21580	         2.01184e+58
          1164.02210	         1.35522e+58
          1164.82840	         1.41576e+58
          1165.63470	         1.49449e+58
          1166.44100	         3.01234e+58
          1167.24730	         1.23386e+58
          1168.05360	         3.48651e+57
          1168.85990	         1.32574e+57
          1169.66620	         3.90349e+56
          1170.47250	         1.02470e+58
          1171.27880	         1.53121e+58
          1172.08510	         1.38900e+58
          1172.89140	         9.13120e+57
          1173.69770	         1.48071e+57
          1174.50400	         5.23218e+57
          1175.31030	         1.39985e+58
          1176.11660	         1.78766e+58
          1176.92290	         1.03504e+58
          1177.72920	         1.06353e+58
          1178.53550	         8.46105e+57
          1179.34180	         1.25230e+58
          1180.14810	         1.36202e+58
          1180.95440	         8.00702e+57
          1181.76070	         4.53381e+57
          1182.56700	         9.65585e+57
          1183.37330	         8.89475e+57
          1184.17960	         9.64026e+57
          1184.98590	         1.00380e+58
          1185.79220	         1.49972e+57
          1186.59850	         1.00763e+58
          1187.40480	         1.15005e+58
          1188.21110	         1.76866e+58
          1189.01740	         8.69433e+57
          1189.82370	         8.41421e+57
          1190.63000	         9.82834e+57
          1191.43630	         1.20282e+58
          1192.24260	         7.95926e+57
          1193.04890	         1.22407e+58
          1193.85520	         1.25122e+58
          1194.66150	         4.11607e+57
          1195.46780	         6.30365e+57
          1196.27410	         1.24995e+58
          1197.08040	         8.99897e+57
          1197.88670	         1.21914e+58
          1198.69300	         1.45678e+58
          1199.49930	         1.34795e+58
          1200.30560	         1.18426e+58
          1201.11190	         8.02880e+57
          1201.91820	         1.00851e+58
          1202.72450	         1.03203e+58
          1203.53080	         1.52787e+58
          1204.33710	         1.10417e+58
          1205.14340	         1.00956e+58
          1205.94970	         6.41881e+57
          1206.75600	         6.71761e+57
          1207.56230	         4.70068e+57
          1208.36860	         9.05562e+57
          1209.17490	         6.12911e+57
          1209.98120	         4.70330e+57
          1210.78750	         1.26408e+58
          1211.59380	         1.33668e+58
          1212.40010	         1.87370e+58
          1213.20640	         1.91790e+58
          1214.01270	         1.63348e+58
          1214.81900	         2.26136e+58
          1215.62530	         4.55416e+58
          1216.43160	         9.03249e+58
          1217.23790	         1.49591e+59
          1218.04420	         1.16594e+59
          1218.85050	         8.65418e+58
          1219.65680	         5.47831e+58
          1220.46310	         2.92752e+58
          1221.26940	         2.46286e+58
          1222.07570	         1.58417e+58
          1222.88200	         1.16505e+58
          1223.68830	         1.06669e+58
          1224.49460	         5.02715e+57
          1225.30090	         3.62298e+57
          1226.10720	         7.37894e+57
          1226.91350	         8.21369e+57
          1227.71980	         1.05163e+58
          1228.52610	         1.31516e+58
          1229.33240	         1.10597e+58
          1230.13870	         8.52258e+57
          1230.94500	         7.75356e+57
          1231.75130	         5.35563e+57
          1232.55760	         8.56515e+57
          1233.36390	         8.00634e+57
          1234.17020	         6.33605e+57
          1234.97650	         5.95466e+57
          1235.78280	         7.46101e+57
          1236.58910	         8.92591e+57
          1237.39540	         1.22859e+58
          1238.20170	         1.30056e+58
          1239.00800	         1.22902e+58
          1239.81430	         1.34527e+58
          1240.62060	         1.14453e+58
          1241.42690	         8.13435e+57
          1242.23320	         9.98874e+57
          1243.03950	         9.73921e+57
          1243.84580	         1.00376e+58
          1244.65210	         1.01479e+58
          1245.45840	         8.99916e+57
          1246.26470	         6.91803e+57
          1247.07100	         6.43867e+57
          1247.87730	         4.02021e+57
          1248.68360	         5.91350e+57
          1249.48990	         8.06038e+57
          1250.29620	         1.00336e+58
          1251.10250	         6.85156e+57
          1251.90880	         5.42341e+57
          1252.71510	         5.41283e+57
          1253.52140	         8.34746e+57
          1254.32770	         1.02142e+58
          1255.13400	         1.15568e+58
          1255.94030	         1.03360e+58
          1256.74660	         1.11482e+58
          1257.55290	         1.22433e+58
          1258.35920	         8.28799e+57
          1259.16550	         6.27698e+57
          1259.97180	         6.09572e+57
          1260.77810	         9.56463e+57
          1261.58440	         1.15531e+58
          1262.39070	         6.41573e+57
          1263.19700	         6.13348e+57
          1264.00330	         8.54703e+57
          1264.80960	         1.04793e+58
          1265.61590	         1.28759e+58
          1266.42220	         1.26769e+58
          1267.22850	         1.18940e+58
          1268.03480	         1.40162e+58
          1268.84110	         1.56988e+58
          1269.64740	         1.16742e+58
          1270.45370	         1.25584e+58
          1271.26000	         1.29279e+58
          1272.06630	         1.01804e+58
          1272.87260	         1.17033e+58
          1273.67890	         1.35384e+58
          1274.48520	         1.07808e+58
          1275.29150	         1.17052e+58
          1276.09780	         1.03328e+58
          1276.90410	         1.39881e+58
          1277.71040	         1.32066e+58
          1278.51670	         1.21662e+58
          1279.32300	         1.43826e+58
          1280.12930	         1.29087e+58
          1280.93560	         1.16570e+58
          1281.74190	         1.19202e+58
          1282.54820	         1.23861e+58
          1283.35450	         1.02934e+58
          1284.16080	         9.30178e+57
          1284.96710	         1.02608e+58
          1285.77340	         1.11949e+58
          1286.57970	         9.75473e+57
          1287.38600	         1.25012e+58
          1288.19230	         1.47649e+58
          1288.99860	         1.20925e+58
          1289.80490	         1.12642e+58
          1290.61120	         1.39515e+58
          1291.41750	         1.26377e+58
          1292.22380	         1.12675e+58
          1293.03010	         1.04661e+58
          1293.83640	         1.20570e+58
          1294.64270	         1.08848e+58
          1295.44900	         5.65144e+57
          1296.25530	         6.19544e+57
          1297.06160	         8.65697e+57
          1297.86790	         9.09983e+57
          1298.67420	         9.18403e+57
          1299.48050	         9.96580e+57
          1300.28680	         1.07934e+58
          1301.09310	         7.69730e+57
          1301.89940	         3.08082e+57
          1302.70570	         4.87352e+57
          1303.51200	         7.58348e+57
          1304.31830	         1.12929e+58
          1305.12460	         1.12703e+58
          1305.93090	         1.04527e+58
          1306.73720	         1.16998e+58
          1307.54350	         1.40564e+58
          1308.34980	         1.55650e+58
          1309.15610	         1.45884e+58
          1309.96240	         1.48547e+58
          1310.76870	         1.47272e+58
          1311.57500	         9.74239e+57
          1312.38130	         9.40707e+57
          1313.18760	         1.33024e+58
          1313.99390	         1.47803e+58
          1314.80020	         1.68790e+58
          1315.60650	         1.64110e+58
          1316.41280	         1.20718e+58
          1317.21910	         1.17226e+58
          1318.02540	         1.24574e+58
          1318.83170	         1.17471e+58
          1319.63800	         1.27996e+58
          1320.44430	         1.12558e+58
          1321.25060	         1.09733e+58
          1322.05690	         1.22413e+58
          1322.86320	         1.29338e+58
          1323.66950	         1.22215e+58
          1324.47580	         1.06345e+58
          1325.28210	         1.08007e+58
          1326.08840	         1.21006e+58
          1326.89470	         1.26385e+58
          1327.70100	         9.57231e+57
          1328.50730	         8.11283e+57
          1329.31360	         9.43220e+57
          1330.11990	         7.95489e+57
          1330.92620	         8.44573e+57
          1331.73250	         1.11693e+58
          1332.53880	         1.06953e+58
          1333.34510	         9.06337e+57
          1334.15140	         8.21725e+57
          1334.95770	         8.45670e+57
          1335.76400	         1.02597e+58
          1336.57030	         1.07590e+58
          1337.37660	         9.44124e+57
          1338.18290	         1.02655e+58
          1338.98920	         1.20845e+58
          1339.79550	         1.20460e+58
          1340.60180	         1.18589e+58
          1341.40810	         1.25768e+58
          1342.21440	         1.04474e+58
          1343.02070	         1.13094e+58
          1343.82700	         1.28063e+58
          1344.63330	         1.23727e+58
          1345.43960	         1.38059e+58
          1346.24590	         1.19170e+58
          1347.05220	         1.07986e+58
          1347.85850	         1.12259e+58
          1348.66480	         1.13187e+58
          1349.47110	         1.11395e+58
          1350.27740	         1.08145e+58
          1351.08370	         1.14283e+58
          1351.89000	         1.14316e+58
          1352.69630	         1.20682e+58
          1353.50260	         1.18713e+58
          1354.30890	         1.19948e+58
          1355.11520	         1.21003e+58
          1355.92150	         1.09845e+58
          1356.72780	         9.98080e+57
          1357.53410	         1.00893e+58
          1358.34040	         1.00106e+58
          1359.14670	         1.04193e+58
          1359.95300	         1.16825e+58
          1360.75930	         1.10747e+58
          1361.56560	         1.06681e+58
          1362.37190	         1.04037e+58
          1363.17820	         9.62788e+57
          1363.98450	         1.06207e+58
          1364.79080	         1.17943e+58
          1365.59710	         1.26604e+58
          1366.40340	         1.16313e+58
          1367.20970	         9.80577e+57
          1368.01600	         8.81182e+57
          1368.82230	         8.41353e+57
          1369.62860	         1.06114e+58
          1370.43490	         9.05086e+57
          1371.24120	         9.12696e+57
          1372.04750	         9.89181e+57
          1372.85380	         1.08107e+58
          1373.66010	         1.12241e+58
          1374.46640	         1.13873e+58
          1375.27270	         1.11074e+58
          1376.07900	         8.90653e+57
          1376.88530	         7.73496e+57
          1377.69160	         7.74309e+57
          1378.49790	         7.08911e+57
          1379.30420	         6.59431e+57
          1380.11050	         7.08446e+57
          1380.91680	         8.14517e+57
          1381.72310	         7.96798e+57
          1382.52940	         7.60978e+57
          1383.33570	         7.73594e+57
          1384.14200	         1.10322e+58
          1384.94830	         1.24370e+58
          1385.75460	         1.11715e+58
          1386.56090	         9.50896e+57
          1387.36720	         9.71056e+57
          1388.17350	         1.19549e+58
          1388.97980	         9.93241e+57
          1389.78610	         8.03203e+57
          1390.59240	         7.61125e+57
          1391.39870	         6.77513e+57
          1392.20500	         6.70992e+57
          1393.01130	         5.33147e+57
          1393.81760	         5.49299e+57
          1394.62390	         7.55511e+57
          1395.43020	         7.01461e+57
          1396.23650	         7.18306e+57
          1397.04280	         7.57632e+57
          1397.84910	         9.68943e+57
          1398.65540	         9.67279e+57
          1399.46170	         9.94973e+57
          1400.26800	         8.30319e+57
          1401.07430	         8.62659e+57
          1401.88060	         9.67762e+57
          1402.68690	         9.11495e+57
          1403.49320	         9.05106e+57
          1404.29950	         9.82654e+57
          1405.10580	         1.03579e+58
          1405.91210	         1.02761e+58
          1406.71840	         9.10979e+57
          1407.52470	         9.32180e+57
          1408.33100	         1.05237e+58
          1409.13730	         1.08170e+58
          1409.94360	         1.06158e+58
          1410.74990	         1.09605e+58
          1411.55620	         1.00038e+58
          1412.36250	         9.21915e+57
          1413.16880	         9.09100e+57
          1413.97510	         8.02038e+57
          1414.78140	         9.83272e+57
          1415.58770	         1.15245e+58
          1416.39400	         1.07856e+58
          1417.20030	         1.06355e+58
          1418.00660	         1.00599e+58
          1418.81290	         1.11883e+58
          1419.61920	         1.00670e+58
          1420.42550	         1.09851e+58
          1421.23180	         1.46876e+58
          1422.03810	         1.13435e+58
          1422.84440	         9.44365e+57
          1423.65070	         1.26640e+58
          1424.45700	         1.12367e+58
          1425.26330	         8.64122e+57
          1426.06960	         8.72550e+57
          1426.87590	         9.52199e+57
          1427.68220	         9.74174e+57
          1428.48850	         9.33200e+57
          1429.29480	         9.57981e+57
          1430.10110	         8.83900e+57
          1430.90740	         7.97713e+57
          1431.71370	         9.02314e+57
          1432.52000	         8.74915e+57
          1433.32630	         7.10178e+57
          1434.13260	         7.85250e+57
          1434.93890	         8.30527e+57
          1435.74520	         8.90990e+57
          1436.55150	         9.92995e+57
          1437.35780	         9.34194e+57
          1438.16410	         9.43243e+57
          1438.97040	         9.33028e+57
          1439.77670	         9.22983e+57
          1440.58300	         9.41819e+57
          1441.38930	         9.38912e+57
          1442.19560	         9.26375e+57
          1443.00190	         9.44263e+57
          1443.80820	         1.11434e+58
          1444.61450	         1.03288e+58
          1445.42080	         9.65730e+57
          1446.22710	         1.06830e+58
          1447.03340	         9.18742e+57
          1447.83970	         1.06167e+58
          1448.64600	         1.10599e+58
          1449.45230	         1.01140e+58
          1450.25860	         9.73443e+57
          1451.06490	         9.31871e+57
          1451.87120	         8.47752e+57
          1452.67750	         7.87654e+57
          1453.48380	         8.35076e+57
          1454.29010	         7.58604e+57
          1455.09640	         7.89972e+57
          1455.90270	         8.79758e+57
          1456.70900	         8.55314e+57
          1457.51530	         8.49754e+57
          1458.32160	         1.05789e+58
          1459.12790	         1.10216e+58
          1459.93420	         9.59040e+57
          1460.74050	         7.58124e+57
          1461.54680	         7.25878e+57
          1462.35310	         8.22621e+57
          1463.15940	         9.22324e+57
          1463.96570	         9.62792e+57
          1464.77200	         9.79521e+57
          1465.57830	         9.76802e+57
          1466.38460	         9.77104e+57
          1467.19090	         8.08543e+57
          1467.99720	         9.02068e+57
          1468.80350	         8.70500e+57
          1469.60980	         9.04710e+57
          1470.41610	         9.93606e+57
          1471.22240	         8.06609e+57
          1472.02870	         8.93587e+57
          1472.83500	         9.87683e+57
          1473.64130	         9.48673e+57
          1474.44760	         9.25877e+57
          1475.25390	         9.19485e+57
          1476.06020	         8.49358e+57
          1476.86650	         7.88443e+57
          1477.67280	         7.62823e+57
          1478.47910	         7.20580e+57
          1479.28540	         7.04012e+57
          1480.09170	         8.16304e+57
          1480.89800	         7.67940e+57
          1481.70430	         8.86354e+57
          1482.51060	         9.10904e+57
          1483.31690	         7.56298e+57
          1484.12320	         8.11445e+57
          1484.92950	         8.42692e+57
          1485.73580	         8.17794e+57
          1486.54210	         9.33089e+57
          1487.34840	         1.05779e+58
          1488.15470	         9.96704e+57
          1488.96100	         8.81576e+57
          1489.76730	         8.38411e+57
