#sample_319_stacked_spectrum_rest_UV-bands_median_H-alpha_noDC.txt
#median Lum: 1.69250e+42
#Rest-frame wavelength (A) | Luminosity (erg/s/A)
#
          1110.00000	         0.00000e+00
          1110.80630	        -1.37433e+59
          1111.61260	        -2.83319e+58
          1112.41890	         2.06401e+59
          1113.22520	        -2.24980e+59
          1114.03150	        -1.91706e+59
          1114.83780	         1.34023e+59
          1115.64410	         1.03788e+59
          1116.45040	         1.29869e+59
          1117.25670	         4.12613e+58
          1118.06300	         3.11479e+59
          1118.86930	         9.83791e+58
          1119.67560	         1.88986e+59
          1120.48190	         7.46498e+58
          1121.28820	        -2.38875e+58
          1122.09450	        -9.56692e+57
          1122.90080	         5.06279e+58
          1123.70710	         9.09371e+58
          1124.51340	         7.67181e+58
          1125.31970	         2.93356e+58
          1126.12600	         1.74174e+58
          1126.93230	        -3.62163e+58
          1127.73860	         3.35839e+56
          1128.54490	        -7.33876e+57
          1129.35120	         1.80714e+58
          1130.15750	         3.12438e+58
          1130.96380	        -1.36683e+58
          1131.77010	         2.43096e+58
          1132.57640	         3.88387e+58
          1133.38270	         2.57791e+58
          1134.18900	         1.50100e+58
          1134.99530	         3.47836e+58
          1135.80160	        -6.73538e+57
          1136.60790	         1.79329e+57
          1137.41420	        -1.29401e+58
          1138.22050	         2.80064e+58
          1139.02680	         2.80861e+58
          1139.83310	         1.26855e+58
          1140.63940	         1.86487e+58
          1141.44570	        -1.49046e+58
          1142.25200	         1.10590e+58
          1143.05830	         3.68216e+58
          1143.86460	         3.93992e+58
          1144.67090	         2.19313e+58
          1145.47720	         1.36037e+58
          1146.28350	         1.36786e+58
          1147.08980	         1.17641e+58
          1147.89610	         1.24090e+58
          1148.70240	         2.59022e+58
          1149.50870	         2.11094e+58
          1150.31500	         1.48351e+58
          1151.12130	         1.74621e+58
          1151.92760	         2.20904e+57
          1152.73390	         1.89292e+57
          1153.54020	         6.44515e+57
          1154.34650	         2.46259e+58
          1155.15280	         1.47034e+58
          1155.95910	         1.41207e+58
          1156.76540	         1.31937e+58
          1157.57170	         3.70529e+57
          1158.37800	        -7.79467e+57
          1159.18430	        -4.72275e+57
          1159.99060	         7.89553e+57
          1160.79690	         1.74936e+57
          1161.60320	         2.26059e+58
          1162.40950	         1.49293e+58
          1163.21580	         1.49852e+58
          1164.02210	         1.67530e+58
          1164.82840	         8.23252e+57
          1165.63470	         1.80372e+58
          1166.44100	         3.16920e+58
          1167.24730	         2.56579e+58
          1168.05360	         1.70726e+58
          1168.85990	         5.28447e+57
          1169.66620	         9.27080e+56
          1170.47250	         1.30562e+58
          1171.27880	         2.39784e+58
          1172.08510	         2.23520e+58
          1172.89140	         1.14844e+58
          1173.69770	         1.06738e+58
          1174.50400	         1.29065e+58
          1175.31030	         1.54559e+58
          1176.11660	         1.40138e+58
          1176.92290	         1.63843e+58
          1177.72920	         1.26961e+58
          1178.53550	         8.95899e+57
          1179.34180	         6.44027e+57
          1180.14810	         1.01607e+58
          1180.95440	         1.41185e+58
          1181.76070	         9.33390e+57
          1182.56700	         1.29384e+58
          1183.37330	         9.89032e+57
          1184.17960	         1.06427e+58
          1184.98590	         1.06774e+58
          1185.79220	         8.86239e+57
          1186.59850	         1.18148e+58
          1187.40480	         1.03111e+58
          1188.21110	         1.68257e+58
          1189.01740	         9.12442e+57
          1189.82370	         1.01139e+58
          1190.63000	         1.38031e+58
          1191.43630	         1.63495e+58
          1192.24260	         1.19064e+58
          1193.04890	         1.27685e+58
          1193.85520	         1.45816e+58
          1194.66150	         1.02364e+58
          1195.46780	         1.02142e+58
          1196.27410	         1.42057e+58
          1197.08040	         1.15288e+58
          1197.88670	         1.43604e+58
          1198.69300	         1.59926e+58
          1199.49930	         1.99932e+58
          1200.30560	         1.67406e+58
          1201.11190	         1.48098e+58
          1201.91820	         1.22314e+58
          1202.72450	         9.58491e+57
          1203.53080	         1.62371e+58
          1204.33710	         8.96872e+57
          1205.14340	         6.44267e+57
          1205.94970	         3.88491e+57
          1206.75600	         8.17158e+57
          1207.56230	         6.31058e+57
          1208.36860	         9.19280e+57
          1209.17490	         5.60908e+57
          1209.98120	         9.24641e+57
          1210.78750	         9.95668e+57
          1211.59380	         1.44107e+58
          1212.40010	         1.91333e+58
          1213.20640	         1.90585e+58
          1214.01270	         1.67351e+58
          1214.81900	         2.47838e+58
          1215.62530	         4.41173e+58
          1216.43160	         9.14888e+58
          1217.23790	         1.56039e+59
          1218.04420	         1.19183e+59
          1218.85050	         8.78770e+58
          1219.65680	         5.76694e+58
          1220.46310	         3.30542e+58
          1221.26940	         2.17689e+58
          1222.07570	         1.40249e+58
          1222.88200	         8.20344e+57
          1223.68830	         6.67953e+57
          1224.49460	         7.70521e+57
          1225.30090	         7.88050e+57
          1226.10720	         8.64995e+57
          1226.91350	         7.46906e+57
          1227.71980	         1.08297e+58
          1228.52610	         1.54335e+58
          1229.33240	         1.15995e+58
          1230.13870	         1.14866e+58
          1230.94500	         8.20851e+57
          1231.75130	         4.51281e+57
          1232.55760	         1.07335e+58
          1233.36390	         1.11241e+58
          1234.17020	         8.60604e+57
          1234.97650	         4.89594e+57
          1235.78280	         5.98846e+57
          1236.58910	         1.01871e+58
          1237.39540	         1.24241e+58
          1238.20170	         1.30128e+58
          1239.00800	         1.57895e+58
          1239.81430	         1.61570e+58
          1240.62060	         9.93838e+57
          1241.42690	         8.94363e+57
          1242.23320	         1.23245e+58
          1243.03950	         1.01360e+58
          1243.84580	         8.18451e+57
          1244.65210	         9.58935e+57
          1245.45840	         1.10739e+58
          1246.26470	         8.55729e+57
          1247.07100	         8.51513e+57
          1247.87730	         9.12922e+57
          1248.68360	         4.62689e+57
          1249.48990	         3.78546e+57
          1250.29620	         8.52815e+57
          1251.10250	         9.09852e+57
          1251.90880	         6.33086e+57
          1252.71510	         6.71939e+57
          1253.52140	         7.11873e+57
          1254.32770	         8.71864e+57
          1255.13400	         1.40727e+58
          1255.94030	         1.17810e+58
          1256.74660	         9.60310e+57
          1257.55290	         9.59121e+57
          1258.35920	         8.09571e+57
          1259.16550	         6.50720e+57
          1259.97180	         4.35095e+57
          1260.77810	         6.80244e+57
          1261.58440	         8.97448e+57
          1262.39070	         7.91610e+57
          1263.19700	         8.01114e+57
          1264.00330	         1.04697e+58
          1264.80960	         1.13150e+58
          1265.61590	         1.32433e+58
          1266.42220	         1.28142e+58
          1267.22850	         1.04574e+58
          1268.03480	         1.37219e+58
          1268.84110	         1.64154e+58
          1269.64740	         1.37280e+58
          1270.45370	         1.32213e+58
          1271.26000	         1.23232e+58
          1272.06630	         1.17308e+58
          1272.87260	         1.06994e+58
          1273.67890	         1.03099e+58
          1274.48520	         1.06717e+58
          1275.29150	         1.37088e+58
          1276.09780	         1.35432e+58
          1276.90410	         1.39148e+58
          1277.71040	         1.13287e+58
          1278.51670	         1.16511e+58
          1279.32300	         1.41513e+58
          1280.12930	         1.18777e+58
          1280.93560	         1.01927e+58
          1281.74190	         1.12055e+58
          1282.54820	         1.16570e+58
          1283.35450	         1.20297e+58
          1284.16080	         1.14289e+58
          1284.96710	         1.36991e+58
          1285.77340	         1.40296e+58
          1286.57970	         1.33695e+58
          1287.38600	         1.50808e+58
          1288.19230	         1.77891e+58
          1288.99860	         1.78234e+58
          1289.80490	         1.23254e+58
          1290.61120	         1.25895e+58
          1291.41750	         1.45586e+58
          1292.22380	         1.25194e+58
          1293.03010	         1.06787e+58
          1293.83640	         1.01860e+58
          1294.64270	         1.00813e+58
          1295.44900	         7.88076e+57
          1296.25530	         7.65004e+57
          1297.06160	         9.09097e+57
          1297.86790	         1.10003e+58
          1298.67420	         1.17783e+58
          1299.48050	         1.14893e+58
          1300.28680	         1.25191e+58
          1301.09310	         7.96594e+57
          1301.89940	         2.67707e+57
          1302.70570	         4.51808e+57
          1303.51200	         7.88987e+57
          1304.31830	         8.81356e+57
          1305.12460	         1.04648e+58
          1305.93090	         1.14914e+58
          1306.73720	         1.30656e+58
          1307.54350	         1.44611e+58
          1308.34980	         1.52878e+58
          1309.15610	         1.57093e+58
          1309.96240	         1.43926e+58
          1310.76870	         1.24458e+58
          1311.57500	         1.03200e+58
          1312.38130	         1.04176e+58
          1313.18760	         1.25933e+58
          1313.99390	         1.42503e+58
          1314.80020	         1.62055e+58
          1315.60650	         1.52992e+58
          1316.41280	         1.44581e+58
          1317.21910	         1.17785e+58
          1318.02540	         1.12516e+58
          1318.83170	         1.28916e+58
          1319.63800	         1.20617e+58
          1320.44430	         1.16133e+58
          1321.25060	         1.28848e+58
          1322.05690	         1.22771e+58
          1322.86320	         1.22327e+58
          1323.66950	         1.23727e+58
          1324.47580	         9.21339e+57
          1325.28210	         1.01865e+58
          1326.08840	         1.20715e+58
          1326.89470	         1.40370e+58
          1327.70100	         1.12822e+58
          1328.50730	         8.36402e+57
          1329.31360	         9.86412e+57
          1330.11990	         1.02460e+58
          1330.92620	         8.10359e+57
          1331.73250	         1.07820e+58
          1332.53880	         1.02740e+58
          1333.34510	         8.94142e+57
          1334.15140	         9.77633e+57
          1334.95770	         9.70068e+57
          1335.76400	         1.15602e+58
          1336.57030	         1.15080e+58
          1337.37660	         1.04741e+58
          1338.18290	         1.13222e+58
          1338.98920	         1.21928e+58
          1339.79550	         1.11729e+58
          1340.60180	         1.06880e+58
          1341.40810	         1.28201e+58
          1342.21440	         1.17336e+58
          1343.02070	         1.22828e+58
          1343.82700	         1.27057e+58
          1344.63330	         1.15441e+58
          1345.43960	         1.26716e+58
          1346.24590	         1.15386e+58
          1347.05220	         1.10096e+58
          1347.85850	         9.93358e+57
          1348.66480	         1.05235e+58
          1349.47110	         1.26050e+58
          1350.27740	         9.39551e+57
          1351.08370	         9.88083e+57
          1351.89000	         1.27813e+58
          1352.69630	         1.21259e+58
          1353.50260	         1.10197e+58
          1354.30890	         1.11874e+58
          1355.11520	         1.21794e+58
          1355.92150	         1.23006e+58
          1356.72780	         1.17063e+58
          1357.53410	         1.12951e+58
          1358.34040	         1.19593e+58
          1359.14670	         1.16106e+58
          1359.95300	         1.17914e+58
          1360.75930	         1.18609e+58
          1361.56560	         1.19981e+58
          1362.37190	         1.18084e+58
          1363.17820	         9.90476e+57
          1363.98450	         1.04045e+58
          1364.79080	         1.29449e+58
          1365.59710	         1.41948e+58
          1366.40340	         1.32469e+58
          1367.20970	         1.19131e+58
          1368.01600	         9.93011e+57
          1368.82230	         9.42393e+57
          1369.62860	         1.14988e+58
          1370.43490	         1.01151e+58
          1371.24120	         9.47203e+57
          1372.04750	         1.02450e+58
          1372.85380	         1.17860e+58
          1373.66010	         1.27750e+58
          1374.46640	         1.11561e+58
          1375.27270	         1.03425e+58
          1376.07900	         1.00141e+58
          1376.88530	         1.03795e+58
          1377.69160	         1.00805e+58
          1378.49790	         8.08498e+57
          1379.30420	         7.69865e+57
          1380.11050	         9.83255e+57
          1380.91680	         9.01156e+57
          1381.72310	         8.59830e+57
          1382.52940	         9.74424e+57
          1383.33570	         9.51902e+57
          1384.14200	         1.04290e+58
          1384.94830	         1.09524e+58
          1385.75460	         1.08290e+58
          1386.56090	         1.08743e+58
          1387.36720	         1.00249e+58
          1388.17350	         1.32965e+58
          1388.97980	         1.15172e+58
          1389.78610	         9.02240e+57
          1390.59240	         9.17968e+57
          1391.39870	         8.06143e+57
          1392.20500	         8.19771e+57
          1393.01130	         8.58845e+57
          1393.81760	         9.28342e+57
          1394.62390	         8.33336e+57
          1395.43020	         7.57315e+57
          1396.23650	         6.54578e+57
          1397.04280	         6.87401e+57
          1397.84910	         9.09219e+57
          1398.65540	         1.01787e+58
          1399.46170	         9.89371e+57
          1400.26800	         8.13178e+57
          1401.07430	         6.85824e+57
          1401.88060	         8.10216e+57
          1402.68690	         9.55793e+57
          1403.49320	         8.96299e+57
          1404.29950	         9.22617e+57
          1405.10580	         1.08678e+58
          1405.91210	         1.12786e+58
          1406.71840	         1.09879e+58
          1407.52470	         1.07410e+58
          1408.33100	         1.02331e+58
          1409.13730	         1.16429e+58
          1409.94360	         1.18915e+58
          1410.74990	         1.16897e+58
          1411.55620	         1.00628e+58
          1412.36250	         9.10367e+57
          1413.16880	         1.03102e+58
          1413.97510	         8.48655e+57
          1414.78140	         9.26089e+57
          1415.58770	         1.16395e+58
          1416.39400	         1.01767e+58
          1417.20030	         1.10766e+58
          1418.00660	         1.15605e+58
          1418.81290	         1.06786e+58
          1419.61920	         1.14124e+58
          1420.42550	         1.28265e+58
          1421.23180	         1.26254e+58
          1422.03810	         1.20697e+58
          1422.84440	         9.42612e+57
          1423.65070	         1.14584e+58
          1424.45700	         1.12803e+58
          1425.26330	         7.85273e+57
          1426.06960	         7.13601e+57
          1426.87590	         8.92794e+57
          1427.68220	         9.56193e+57
          1428.48850	         9.48489e+57
          1429.29480	         1.07073e+58
          1430.10110	         9.24273e+57
          1430.90740	         8.61017e+57
          1431.71370	         9.57455e+57
          1432.52000	         1.01217e+58
          1433.32630	         9.63081e+57
          1434.13260	         8.88112e+57
          1434.93890	         8.45840e+57
          1435.74520	         9.16606e+57
          1436.55150	         9.47018e+57
          1437.35780	         9.27430e+57
          1438.16410	         9.78637e+57
          1438.97040	         9.80840e+57
          1439.77670	         9.57566e+57
          1440.58300	         9.06791e+57
          1441.38930	         9.47596e+57
          1442.19560	         1.02636e+58
          1443.00190	         9.71561e+57
          1443.80820	         1.09044e+58
          1444.61450	         1.03656e+58
          1445.42080	         9.73327e+57
          1446.22710	         1.07795e+58
          1447.03340	         9.45450e+57
          1447.83970	         1.01633e+58
          1448.64600	         1.17661e+58
          1449.45230	         1.07913e+58
          1450.25860	         1.01002e+58
          1451.06490	         9.24462e+57
          1451.87120	         7.51134e+57
          1452.67750	         6.83624e+57
          1453.48380	         8.46403e+57
          1454.29010	         8.11710e+57
          1455.09640	         6.99277e+57
          1455.90270	         8.60996e+57
          1456.70900	         9.11787e+57
          1457.51530	         1.04381e+58
          1458.32160	         1.19052e+58
          1459.12790	         1.14762e+58
          1459.93420	         1.05201e+58
          1460.74050	         8.62955e+57
          1461.54680	         9.50282e+57
          1462.35310	         8.15126e+57
          1463.15940	         9.79514e+57
          1463.96570	         1.19735e+58
          1464.77200	         1.13849e+58
          1465.57830	         1.12808e+58
          1466.38460	         1.01574e+58
          1467.19090	         8.59190e+57
          1467.99720	         8.91251e+57
          1468.80350	         9.47616e+57
          1469.60980	         9.60499e+57
          1470.41610	         9.67267e+57
          1471.22240	         8.62806e+57
          1472.02870	         9.15008e+57
          1472.83500	         9.92037e+57
          1473.64130	         9.63881e+57
          1474.44760	         9.94388e+57
          1475.25390	         9.14580e+57
          1476.06020	         9.49280e+57
          1476.86650	         9.72194e+57
          1477.67280	         8.52023e+57
          1478.47910	         7.96537e+57
          1479.28540	         8.75174e+57
          1480.09170	         8.76683e+57
          1480.89800	         8.26846e+57
          1481.70430	         7.94152e+57
          1482.51060	         8.49832e+57
          1483.31690	         7.87289e+57
          1484.12320	         8.06037e+57
          1484.92950	         7.70548e+57
          1485.73580	         7.97842e+57
          1486.54210	         8.18938e+57
          1487.34840	         8.75764e+57
          1488.15470	         9.06807e+57
          1488.96100	         9.15911e+57
          1489.76730	         8.97218e+57
