#sample_160_stacked_spectrum_rest_UV-bands_median_H-alpha_noDC.txt
#median Lum: 1.65325e+42
#Rest-frame wavelength (A) | Luminosity (erg/s/A)
#
          1110.00000	         0.00000e+00
          1110.80630	         1.61848e+59
          1111.61260	         7.09680e+58
          1112.41890	         3.12524e+57
          1113.22520	        -6.23995e+58
          1114.03150	        -9.49057e+58
          1114.83780	         2.64908e+59
          1115.64410	         2.05984e+59
          1116.45040	         2.08780e+59
          1117.25670	        -4.03189e+58
          1118.06300	         2.31649e+59
          1118.86930	         1.90735e+58
          1119.67560	         9.47221e+58
          1120.48190	        -1.59259e+58
          1121.28820	        -1.14548e+59
          1122.09450	         5.51892e+58
          1122.90080	         9.97280e+58
          1123.70710	         7.24117e+58
          1124.51340	         1.39276e+59
          1125.31970	         7.54501e+58
          1126.12600	         1.89893e+58
          1126.93230	        -3.35217e+58
          1127.73860	        -4.02571e+58
          1128.54490	         2.50264e+58
          1129.35120	         3.28580e+58
          1130.15750	        -2.11965e+58
          1130.96380	        -1.90871e+58
          1131.77010	         3.42076e+58
          1132.57640	         4.34933e+58
          1133.38270	         2.74476e+58
          1134.18900	        -4.86183e+57
          1134.99530	        -4.24456e+57
          1135.80160	        -5.93715e+57
          1136.60790	         5.64251e+57
          1137.41420	        -1.11252e+57
          1138.22050	         4.25288e+58
          1139.02680	         2.13902e+58
          1139.83310	         1.66658e+58
          1140.63940	         1.76832e+58
          1141.44570	        -1.79217e+58
          1142.25200	         7.78110e+57
          1143.05830	         1.70715e+58
          1143.86460	         3.41927e+58
          1144.67090	         2.24688e+58
          1145.47720	         4.97753e+57
          1146.28350	         1.15975e+58
          1147.08980	         1.06977e+58
          1147.89610	         1.86159e+58
          1148.70240	         1.40891e+58
          1149.50870	         2.00105e+58
          1150.31500	         7.65063e+57
          1151.12130	         4.00895e+57
          1151.92760	         4.53555e+57
          1152.73390	         1.23029e+58
          1153.54020	         1.06962e+58
          1154.34650	         2.03183e+58
          1155.15280	         2.18548e+58
          1155.95910	         1.22069e+58
          1156.76540	         2.87861e+57
          1157.57170	        -3.41025e+56
          1158.37800	         7.69720e+56
          1159.18430	        -8.60129e+57
          1159.99060	         1.57271e+57
          1160.79690	         1.09423e+58
          1161.60320	         7.24896e+57
          1162.40950	         1.47566e+58
          1163.21580	         1.30963e+58
          1164.02210	         1.34564e+58
          1164.82840	         9.17486e+57
          1165.63470	         1.71703e+58
          1166.44100	         3.60930e+58
          1167.24730	         1.18356e+58
          1168.05360	         5.55724e+56
          1168.85990	        -2.46703e+57
          1169.66620	         4.82861e+57
          1170.47250	         1.15190e+58
          1171.27880	         1.65168e+58
          1172.08510	         1.88152e+58
          1172.89140	         1.37962e+58
          1173.69770	         6.16837e+57
          1174.50400	         6.63040e+57
          1175.31030	         1.19515e+58
          1176.11660	         1.45416e+58
          1176.92290	         1.44452e+58
          1177.72920	         1.32759e+58
          1178.53550	         6.96789e+57
          1179.34180	         5.69405e+57
          1180.14810	         1.19009e+58
          1180.95440	         1.02793e+58
          1181.76070	         6.02129e+57
          1182.56700	         6.38383e+57
          1183.37330	         7.85318e+57
          1184.17960	         1.07025e+58
          1184.98590	         8.18491e+57
          1185.79220	         8.62953e+57
          1186.59850	         1.08131e+58
          1187.40480	         1.34846e+58
          1188.21110	         1.43050e+58
          1189.01740	         1.42146e+58
          1189.82370	         1.46554e+58
          1190.63000	         1.03885e+58
          1191.43630	         1.12107e+58
          1192.24260	         9.98927e+57
          1193.04890	         1.54168e+58
          1193.85520	         1.24942e+58
          1194.66150	         6.44981e+57
          1195.46780	         1.26124e+58
          1196.27410	         1.47601e+58
          1197.08040	         9.00179e+57
          1197.88670	         1.45203e+58
          1198.69300	         2.03007e+58
          1199.49930	         1.78346e+58
          1200.30560	         9.52740e+57
          1201.11190	         8.99743e+57
          1201.91820	         1.07805e+58
          1202.72450	         1.16461e+58
          1203.53080	         1.34931e+58
          1204.33710	         9.76944e+57
          1205.14340	         8.39877e+57
          1205.94970	         7.85039e+57
          1206.75600	         6.85930e+57
          1207.56230	         4.50500e+57
          1208.36860	         8.14020e+57
          1209.17490	         6.80279e+57
          1209.98120	         6.13121e+57
          1210.78750	         7.60068e+57
          1211.59380	         1.11855e+58
          1212.40010	         1.84979e+58
          1213.20640	         2.07213e+58
          1214.01270	         2.09121e+58
          1214.81900	         2.50307e+58
          1215.62530	         4.12406e+58
          1216.43160	         8.14232e+58
          1217.23790	         1.40821e+59
          1218.04420	         1.14385e+59
          1218.85050	         8.30564e+58
          1219.65680	         5.66033e+58
          1220.46310	         3.17434e+58
          1221.26940	         1.90946e+58
          1222.07570	         1.38554e+58
          1222.88200	         1.07496e+58
          1223.68830	         1.10366e+58
          1224.49460	         8.24401e+57
          1225.30090	         5.95755e+57
          1226.10720	         5.76945e+57
          1226.91350	         5.41107e+57
          1227.71980	         9.08298e+57
          1228.52610	         9.80330e+57
          1229.33240	         8.97537e+57
          1230.13870	         7.56429e+57
          1230.94500	         7.04113e+57
          1231.75130	         5.65001e+57
          1232.55760	         7.84281e+57
          1233.36390	         9.09154e+57
          1234.17020	         7.95379e+57
          1234.97650	         5.47872e+57
          1235.78280	         8.19003e+57
          1236.58910	         1.00048e+58
          1237.39540	         1.14245e+58
          1238.20170	         1.14414e+58
          1239.00800	         1.19029e+58
          1239.81430	         1.44612e+58
          1240.62060	         1.00346e+58
          1241.42690	         8.78180e+57
          1242.23320	         1.08972e+58
          1243.03950	         9.05540e+57
          1243.84580	         1.00929e+58
          1244.65210	         1.46944e+58
          1245.45840	         1.57354e+58
          1246.26470	         1.13357e+58
          1247.07100	         6.30428e+57
          1247.87730	         5.82691e+57
          1248.68360	         5.02775e+57
          1249.48990	         4.28043e+57
          1250.29620	         8.90880e+57
          1251.10250	         7.43401e+57
          1251.90880	         4.76462e+57
          1252.71510	         5.15177e+57
          1253.52140	         5.32717e+57
          1254.32770	         1.10187e+58
          1255.13400	         1.42129e+58
          1255.94030	         1.19733e+58
          1256.74660	         9.79215e+57
          1257.55290	         1.10795e+58
          1258.35920	         8.26172e+57
          1259.16550	         3.71163e+57
          1259.97180	         5.52866e+57
          1260.77810	         7.40147e+57
          1261.58440	         1.07306e+58
          1262.39070	         1.00687e+58
          1263.19700	         9.56286e+57
          1264.00330	         9.09371e+57
          1264.80960	         1.07379e+58
          1265.61590	         1.49631e+58
          1266.42220	         1.38175e+58
          1267.22850	         1.16288e+58
          1268.03480	         1.43431e+58
          1268.84110	         1.38164e+58
          1269.64740	         1.19835e+58
          1270.45370	         1.32772e+58
          1271.26000	         1.25371e+58
          1272.06630	         1.38182e+58
          1272.87260	         1.35812e+58
          1273.67890	         1.11782e+58
          1274.48520	         1.18402e+58
          1275.29150	         1.33217e+58
          1276.09780	         1.18717e+58
          1276.90410	         1.46449e+58
          1277.71040	         1.26345e+58
          1278.51670	         1.10686e+58
          1279.32300	         1.24374e+58
          1280.12930	         1.27429e+58
          1280.93560	         1.07834e+58
          1281.74190	         1.15736e+58
          1282.54820	         1.22844e+58
          1283.35450	         1.04780e+58
          1284.16080	         1.15619e+58
          1284.96710	         1.36767e+58
          1285.77340	         1.12366e+58
          1286.57970	         1.02161e+58
          1287.38600	         1.41974e+58
          1288.19230	         1.80812e+58
          1288.99860	         1.43683e+58
          1289.80490	         1.16100e+58
          1290.61120	         1.43100e+58
          1291.41750	         1.52419e+58
          1292.22380	         1.24362e+58
          1293.03010	         1.00105e+58
          1293.83640	         1.05031e+58
          1294.64270	         9.82722e+57
          1295.44900	         7.34260e+57
          1296.25530	         7.12392e+57
          1297.06160	         9.03804e+57
          1297.86790	         1.13922e+58
          1298.67420	         1.09298e+58
          1299.48050	         1.05488e+58
          1300.28680	         1.03574e+58
          1301.09310	         7.09544e+57
          1301.89940	         4.06476e+57
          1302.70570	         5.51411e+57
          1303.51200	         7.87315e+57
          1304.31830	         1.03374e+58
          1305.12460	         1.04408e+58
          1305.93090	         1.18040e+58
          1306.73720	         1.36674e+58
          1307.54350	         1.50588e+58
          1308.34980	         1.63540e+58
          1309.15610	         1.83353e+58
          1309.96240	         1.97694e+58
          1310.76870	         1.73525e+58
          1311.57500	         1.20543e+58
          1312.38130	         1.03367e+58
          1313.18760	         1.24709e+58
          1313.99390	         1.71526e+58
          1314.80020	         1.67001e+58
          1315.60650	         1.62361e+58
          1316.41280	         1.46907e+58
          1317.21910	         1.27847e+58
          1318.02540	         1.17694e+58
          1318.83170	         1.32334e+58
          1319.63800	         1.29234e+58
          1320.44430	         9.34962e+57
          1321.25060	         1.01543e+58
          1322.05690	         1.20159e+58
          1322.86320	         1.32970e+58
          1323.66950	         1.29154e+58
          1324.47580	         1.02749e+58
          1325.28210	         1.08076e+58
          1326.08840	         1.10172e+58
          1326.89470	         1.24388e+58
          1327.70100	         1.24643e+58
          1328.50730	         9.86948e+57
          1329.31360	         1.14907e+58
          1330.11990	         1.17697e+58
          1330.92620	         9.20064e+57
          1331.73250	         9.41244e+57
          1332.53880	         1.05392e+58
          1333.34510	         9.97203e+57
          1334.15140	         9.08924e+57
          1334.95770	         8.84393e+57
          1335.76400	         1.09019e+58
          1336.57030	         1.14821e+58
          1337.37660	         1.00575e+58
          1338.18290	         9.83411e+57
          1338.98920	         9.66951e+57
          1339.79550	         1.06565e+58
          1340.60180	         1.19309e+58
          1341.40810	         1.27147e+58
          1342.21440	         1.13367e+58
          1343.02070	         1.16099e+58
          1343.82700	         1.36080e+58
          1344.63330	         1.43806e+58
          1345.43960	         1.38972e+58
          1346.24590	         9.42790e+57
          1347.05220	         1.07641e+58
          1347.85850	         1.03099e+58
          1348.66480	         1.02336e+58
          1349.47110	         1.28739e+58
          1350.27740	         1.38437e+58
          1351.08370	         1.21128e+58
          1351.89000	         1.14426e+58
          1352.69630	         1.11118e+58
          1353.50260	         1.16736e+58
          1354.30890	         1.20598e+58
          1355.11520	         1.21304e+58
          1355.92150	         1.18845e+58
          1356.72780	         1.04909e+58
          1357.53410	         1.03847e+58
          1358.34040	         1.06055e+58
          1359.14670	         1.05234e+58
          1359.95300	         1.07283e+58
          1360.75930	         1.11446e+58
          1361.56560	         1.04169e+58
          1362.37190	         1.08091e+58
          1363.17820	         9.83220e+57
          1363.98450	         1.11964e+58
          1364.79080	         1.16738e+58
          1365.59710	         1.16522e+58
          1366.40340	         1.04038e+58
          1367.20970	         8.60917e+57
          1368.01600	         8.78502e+57
          1368.82230	         9.50982e+57
          1369.62860	         1.01328e+58
          1370.43490	         9.53889e+57
          1371.24120	         8.75676e+57
          1372.04750	         8.62438e+57
          1372.85380	         1.21520e+58
          1373.66010	         1.22763e+58
          1374.46640	         1.14817e+58
          1375.27270	         1.21804e+58
          1376.07900	         1.04139e+58
          1376.88530	         9.80408e+57
          1377.69160	         8.90358e+57
          1378.49790	         7.23775e+57
          1379.30420	         7.79304e+57
          1380.11050	         9.25526e+57
          1380.91680	         8.29082e+57
          1381.72310	         8.05809e+57
          1382.52940	         7.95468e+57
          1383.33570	         9.07045e+57
          1384.14200	         1.01139e+58
          1384.94830	         1.07006e+58
          1385.75460	         1.04030e+58
          1386.56090	         9.38618e+57
          1387.36720	         1.05601e+58
          1388.17350	         1.28927e+58
          1388.97980	         1.09263e+58
          1389.78610	         8.88812e+57
          1390.59240	         9.04483e+57
          1391.39870	         7.76577e+57
          1392.20500	         7.62214e+57
          1393.01130	         7.66312e+57
          1393.81760	         7.20974e+57
          1394.62390	         7.23990e+57
          1395.43020	         5.98938e+57
          1396.23650	         7.29048e+57
          1397.04280	         8.59916e+57
          1397.84910	         1.01475e+58
          1398.65540	         9.46032e+57
          1399.46170	         9.16426e+57
          1400.26800	         8.52902e+57
          1401.07430	         7.68106e+57
          1401.88060	         8.00316e+57
          1402.68690	         9.84228e+57
          1403.49320	         1.09379e+58
          1404.29950	         1.03178e+58
          1405.10580	         1.15137e+58
          1405.91210	         1.22246e+58
          1406.71840	         1.03867e+58
          1407.52470	         1.04061e+58
          1408.33100	         1.00998e+58
          1409.13730	         1.07636e+58
          1409.94360	         1.25343e+58
          1410.74990	         1.12628e+58
          1411.55620	         1.06399e+58
          1412.36250	         9.58358e+57
          1413.16880	         9.68381e+57
          1413.97510	         8.49377e+57
          1414.78140	         9.08893e+57
          1415.58770	         1.22199e+58
          1416.39400	         1.09925e+58
          1417.20030	         1.03099e+58
          1418.00660	         1.01959e+58
          1418.81290	         1.14773e+58
          1419.61920	         1.07873e+58
          1420.42550	         1.30609e+58
          1421.23180	         1.52203e+58
          1422.03810	         1.25595e+58
          1422.84440	         1.10214e+58
          1423.65070	         1.12881e+58
          1424.45700	         1.19340e+58
          1425.26330	         8.70847e+57
          1426.06960	         7.09847e+57
          1426.87590	         9.30786e+57
          1427.68220	         9.92262e+57
          1428.48850	         1.08669e+58
          1429.29480	         1.00318e+58
          1430.10110	         9.64086e+57
          1430.90740	         8.90234e+57
          1431.71370	         9.12703e+57
          1432.52000	         8.71755e+57
          1433.32630	         7.84722e+57
          1434.13260	         7.58562e+57
          1434.93890	         8.17223e+57
          1435.74520	         9.24629e+57
          1436.55150	         9.98545e+57
          1437.35780	         9.44812e+57
          1438.16410	         9.48138e+57
          1438.97040	         9.17326e+57
          1439.77670	         9.19563e+57
          1440.58300	         9.47105e+57
          1441.38930	         8.77017e+57
          1442.19560	         9.42139e+57
          1443.00190	         9.51664e+57
          1443.80820	         1.05578e+58
          1444.61450	         1.00774e+58
          1445.42080	         7.49148e+57
          1446.22710	         9.06156e+57
          1447.03340	         1.07708e+58
          1447.83970	         1.12492e+58
          1448.64600	         1.01903e+58
          1449.45230	         1.00957e+58
          1450.25860	         1.03940e+58
          1451.06490	         8.99551e+57
          1451.87120	         8.46389e+57
          1452.67750	         8.14028e+57
          1453.48380	         8.52758e+57
          1454.29010	         7.69697e+57
          1455.09640	         6.64517e+57
          1455.90270	         8.25161e+57
          1456.70900	         8.90583e+57
          1457.51530	         9.71128e+57
          1458.32160	         1.13211e+58
          1459.12790	         1.10079e+58
          1459.93420	         9.57395e+57
          1460.74050	         7.17924e+57
          1461.54680	         6.70703e+57
          1462.35310	         7.56137e+57
          1463.15940	         8.27928e+57
          1463.96570	         1.01303e+58
          1464.77200	         1.01546e+58
          1465.57830	         1.02743e+58
          1466.38460	         9.69094e+57
          1467.19090	         8.81619e+57
          1467.99720	         8.96974e+57
          1468.80350	         9.61849e+57
          1469.60980	         9.74704e+57
          1470.41610	         1.05901e+58
          1471.22240	         9.27183e+57
          1472.02870	         8.99927e+57
          1472.83500	         9.40450e+57
          1473.64130	         9.49153e+57
          1474.44760	         9.65178e+57
          1475.25390	         8.63826e+57
          1476.06020	         9.32368e+57
          1476.86650	         8.94005e+57
          1477.67280	         7.87112e+57
          1478.47910	         7.10539e+57
          1479.28540	         7.41380e+57
          1480.09170	         8.76314e+57
          1480.89800	         8.80580e+57
          1481.70430	         9.07725e+57
          1482.51060	         8.89958e+57
          1483.31690	         7.87019e+57
          1484.12320	         6.82236e+57
          1484.92950	         7.44880e+57
          1485.73580	         7.72370e+57
          1486.54210	         8.69520e+57
          1487.34840	         8.43455e+57
          1488.15470	         7.46330e+57
          1488.96100	         8.10082e+57
          1489.76730	         9.06535e+57
