#sample_83_stacked_spectrum_rest_UV-bands_median_H-alpha_noDC.txt
#median Lum: 1.70692e+42
#Rest-frame wavelength (A) | Luminosity (erg/s/A)
#
          1110.00000	         0.00000e+00
          1110.80630	         3.12830e+59
          1111.61260	         3.62856e+59
          1112.41890	         1.12701e+59
          1113.22520	         2.31338e+58
          1114.03150	        -3.86902e+57
          1114.83780	         1.64027e+59
          1115.64410	        -4.73814e+58
          1116.45040	         1.13377e+59
          1117.25670	        -5.63016e+58
          1118.06300	        -4.89620e+58
          1118.86930	        -4.32115e+58
          1119.67560	         3.82828e+58
          1120.48190	        -6.91809e+58
          1121.28820	        -9.25888e+58
          1122.09450	        -1.80792e+58
          1122.90080	         3.93389e+58
          1123.70710	         9.10876e+58
          1124.51340	         8.90130e+58
          1125.31970	        -2.08515e+58
          1126.12600	        -6.87969e+57
          1126.93230	        -1.26050e+58
          1127.73860	        -4.81122e+58
          1128.54490	        -1.41563e+58
          1129.35120	         9.09866e+57
          1130.15750	        -3.46408e+58
          1130.96380	         8.15033e+57
          1131.77010	         6.41463e+58
          1132.57640	         3.26964e+58
          1133.38270	         2.27425e+58
          1134.18900	         2.40505e+58
          1134.99530	         8.62232e+57
          1135.80160	         2.21062e+58
          1136.60790	         1.70184e+58
          1137.41420	         4.31483e+57
          1138.22050	         3.91258e+58
          1139.02680	         3.53734e+58
          1139.83310	         1.73641e+58
          1140.63940	         1.76902e+58
          1141.44570	        -2.07292e+58
          1142.25200	        -7.10689e+57
          1143.05830	         1.49868e+58
          1143.86460	         4.28388e+57
          1144.67090	         2.78162e+58
          1145.47720	         3.60568e+58
          1146.28350	         1.58457e+58
          1147.08980	         9.55676e+57
          1147.89610	         8.17371e+57
          1148.70240	         1.11029e+58
          1149.50870	         3.27311e+58
          1150.31500	         1.70385e+58
          1151.12130	         1.13440e+57
          1151.92760	        -8.69942e+57
          1152.73390	        -6.22115e+57
          1153.54020	         1.22354e+56
          1154.34650	         2.25259e+58
          1155.15280	         2.84971e+58
          1155.95910	         1.58139e+58
          1156.76540	         9.05677e+57
          1157.57170	        -7.88350e+56
          1158.37800	         5.21363e+57
          1159.18430	         1.09120e+57
          1159.99060	         1.38905e+58
          1160.79690	         2.96341e+57
          1161.60320	         1.52277e+58
          1162.40950	         2.01427e+58
          1163.21580	         1.12399e+58
          1164.02210	         1.76634e+58
          1164.82840	         1.27932e+58
          1165.63470	         2.18784e+58
          1166.44100	         1.96013e+58
          1167.24730	         1.21173e+58
          1168.05360	         7.54623e+57
          1168.85990	         4.52363e+57
          1169.66620	         1.37052e+58
          1170.47250	         1.51411e+58
          1171.27880	         4.99513e+57
          1172.08510	         1.34570e+58
          1172.89140	         1.39881e+58
          1173.69770	         4.48406e+56
          1174.50400	         8.02593e+57
          1175.31030	         1.64323e+58
          1176.11660	         1.41230e+58
          1176.92290	         1.34726e+58
          1177.72920	         1.32888e+58
          1178.53550	         9.68006e+57
          1179.34180	         4.04760e+57
          1180.14810	         5.95949e+57
          1180.95440	         8.70428e+57
          1181.76070	         7.00030e+57
          1182.56700	         9.59713e+57
          1183.37330	         5.32375e+57
          1184.17960	         7.27263e+57
          1184.98590	         8.10466e+57
          1185.79220	         4.93919e+57
          1186.59850	         9.86135e+57
          1187.40480	         8.65735e+57
          1188.21110	         1.59303e+58
          1189.01740	         7.12093e+57
          1189.82370	         5.42749e+57
          1190.63000	         1.07359e+58
          1191.43630	         1.58714e+58
          1192.24260	         1.06179e+58
          1193.04890	         1.17688e+58
          1193.85520	         1.10360e+58
          1194.66150	         8.07947e+57
          1195.46780	         1.16363e+58
          1196.27410	         1.27999e+58
          1197.08040	         8.94125e+57
          1197.88670	         1.25098e+58
          1198.69300	         1.53491e+58
          1199.49930	         1.50151e+58
          1200.30560	         1.10079e+58
          1201.11190	         1.20210e+58
          1201.91820	         9.24614e+57
          1202.72450	         6.50786e+57
          1203.53080	         1.46536e+58
          1204.33710	         8.95806e+57
          1205.14340	         1.03265e+58
          1205.94970	         6.07013e+57
          1206.75600	         6.18576e+57
          1207.56230	         4.58741e+57
          1208.36860	         9.46877e+57
          1209.17490	         2.83112e+57
          1209.98120	         4.96029e+57
          1210.78750	         1.20041e+58
          1211.59380	         1.46378e+58
          1212.40010	         1.79324e+58
          1213.20640	         2.24284e+58
          1214.01270	         2.31535e+58
          1214.81900	         2.69607e+58
          1215.62530	         4.86752e+58
          1216.43160	         9.62597e+58
          1217.23790	         1.53742e+59
          1218.04420	         1.20071e+59
          1218.85050	         8.96781e+58
          1219.65680	         5.70377e+58
          1220.46310	         3.26684e+58
          1221.26940	         2.29467e+58
          1222.07570	         1.28858e+58
          1222.88200	         9.39437e+57
          1223.68830	         1.19278e+58
          1224.49460	         1.07624e+58
          1225.30090	         6.30427e+57
          1226.10720	         5.23729e+57
          1226.91350	         7.52787e+57
          1227.71980	         1.03868e+58
          1228.52610	         1.23084e+58
          1229.33240	         8.29041e+57
          1230.13870	         9.19626e+57
          1230.94500	         7.68643e+57
          1231.75130	         6.03022e+57
          1232.55760	         5.52508e+57
          1233.36390	         7.60065e+57
          1234.17020	         8.88150e+57
          1234.97650	         1.07024e+58
          1235.78280	         9.27973e+57
          1236.58910	         7.15075e+57
          1237.39540	         8.58108e+57
          1238.20170	         1.22505e+58
          1239.00800	         1.29747e+58
          1239.81430	         1.24927e+58
          1240.62060	         1.12628e+58
          1241.42690	         1.24574e+58
          1242.23320	         1.14560e+58
          1243.03950	         7.86455e+57
          1243.84580	         7.55743e+57
          1244.65210	         1.07843e+58
          1245.45840	         9.46536e+57
          1246.26470	         7.01057e+57
          1247.07100	         6.90795e+57
          1247.87730	         6.53121e+57
          1248.68360	         3.57101e+57
          1249.48990	         5.38816e+57
          1250.29620	         5.52244e+57
          1251.10250	         4.45831e+57
          1251.90880	         4.43590e+57
          1252.71510	         5.73115e+57
          1253.52140	         6.97724e+57
          1254.32770	         9.46292e+57
          1255.13400	         1.25545e+58
          1255.94030	         1.14309e+58
          1256.74660	         9.81988e+57
          1257.55290	         1.14504e+58
          1258.35920	         9.22180e+57
          1259.16550	         4.31166e+57
          1259.97180	         6.18139e+57
          1260.77810	         7.06654e+57
          1261.58440	         9.93019e+57
          1262.39070	         8.67865e+57
          1263.19700	         1.13258e+58
          1264.00330	         1.02347e+58
          1264.80960	         1.00453e+58
          1265.61590	         1.30156e+58
          1266.42220	         1.21500e+58
          1267.22850	         1.14569e+58
          1268.03480	         1.41303e+58
          1268.84110	         1.51126e+58
          1269.64740	         1.24535e+58
          1270.45370	         1.07178e+58
          1271.26000	         1.22763e+58
          1272.06630	         1.41619e+58
          1272.87260	         1.37031e+58
          1273.67890	         1.34807e+58
          1274.48520	         1.25007e+58
          1275.29150	         1.20145e+58
          1276.09780	         1.16283e+58
          1276.90410	         1.71458e+58
          1277.71040	         1.64922e+58
          1278.51670	         1.16967e+58
          1279.32300	         1.03314e+58
          1280.12930	         1.25993e+58
          1280.93560	         1.27614e+58
          1281.74190	         1.23630e+58
          1282.54820	         1.20189e+58
          1283.35450	         1.31412e+58
          1284.16080	         1.22085e+58
          1284.96710	         1.30733e+58
          1285.77340	         1.18184e+58
          1286.57970	         1.00334e+58
          1287.38600	         1.74015e+58
          1288.19230	         1.97651e+58
          1288.99860	         1.43788e+58
          1289.80490	         1.04678e+58
          1290.61120	         1.19052e+58
          1291.41750	         1.21035e+58
          1292.22380	         1.08706e+58
          1293.03010	         9.53238e+57
          1293.83640	         1.06498e+58
          1294.64270	         1.03250e+58
          1295.44900	         7.68027e+57
          1296.25530	         8.06818e+57
          1297.06160	         1.03369e+58
          1297.86790	         1.19404e+58
          1298.67420	         1.14064e+58
          1299.48050	         1.12109e+58
          1300.28680	         1.22693e+58
          1301.09310	         9.19581e+57
          1301.89940	         4.13226e+57
          1302.70570	         7.32626e+57
          1303.51200	         8.34450e+57
          1304.31830	         9.53045e+57
          1305.12460	         1.06230e+58
          1305.93090	         1.12887e+58
          1306.73720	         1.31258e+58
          1307.54350	         1.39142e+58
          1308.34980	         1.33110e+58
          1309.15610	         1.45430e+58
          1309.96240	         1.56222e+58
          1310.76870	         1.35661e+58
          1311.57500	         9.58841e+57
          1312.38130	         9.43793e+57
          1313.18760	         1.52442e+58
          1313.99390	         1.61236e+58
          1314.80020	         1.45089e+58
          1315.60650	         1.51455e+58
          1316.41280	         1.42549e+58
          1317.21910	         1.10166e+58
          1318.02540	         1.05809e+58
          1318.83170	         1.24991e+58
          1319.63800	         1.15594e+58
          1320.44430	         1.00918e+58
          1321.25060	         1.15023e+58
          1322.05690	         1.29182e+58
          1322.86320	         1.32192e+58
          1323.66950	         1.17162e+58
          1324.47580	         9.82057e+57
          1325.28210	         1.08255e+58
          1326.08840	         1.30832e+58
          1326.89470	         1.26455e+58
          1327.70100	         1.02175e+58
          1328.50730	         9.36012e+57
          1329.31360	         9.70159e+57
          1330.11990	         1.08464e+58
          1330.92620	         9.58307e+57
          1331.73250	         1.11209e+58
          1332.53880	         1.11916e+58
          1333.34510	         1.08730e+58
          1334.15140	         1.02215e+58
          1334.95770	         8.63605e+57
          1335.76400	         9.68162e+57
          1336.57030	         1.04878e+58
          1337.37660	         1.06219e+58
          1338.18290	         1.08906e+58
          1338.98920	         1.04050e+58
          1339.79550	         1.10341e+58
          1340.60180	         1.39512e+58
          1341.40810	         1.54639e+58
          1342.21440	         1.34916e+58
          1343.02070	         1.40097e+58
          1343.82700	         1.42466e+58
          1344.63330	         1.41804e+58
          1345.43960	         1.52916e+58
          1346.24590	         1.21401e+58
          1347.05220	         1.33626e+58
          1347.85850	         1.23553e+58
          1348.66480	         1.22865e+58
          1349.47110	         1.24825e+58
          1350.27740	         1.19954e+58
          1351.08370	         1.25742e+58
          1351.89000	         1.29288e+58
          1352.69630	         1.26037e+58
          1353.50260	         1.21853e+58
          1354.30890	         1.25954e+58
          1355.11520	         1.22182e+58
          1355.92150	         1.12164e+58
          1356.72780	         1.06359e+58
          1357.53410	         1.02791e+58
          1358.34040	         1.08158e+58
          1359.14670	         1.10607e+58
          1359.95300	         1.28094e+58
          1360.75930	         1.30491e+58
          1361.56560	         1.14018e+58
          1362.37190	         1.18224e+58
          1363.17820	         1.04854e+58
          1363.98450	         1.25392e+58
          1364.79080	         1.41956e+58
          1365.59710	         1.26291e+58
          1366.40340	         1.14435e+58
          1367.20970	         9.97898e+57
          1368.01600	         9.46542e+57
          1368.82230	         9.36873e+57
          1369.62860	         1.01430e+58
          1370.43490	         1.01713e+58
          1371.24120	         9.97347e+57
          1372.04750	         8.57282e+57
          1372.85380	         9.98350e+57
          1373.66010	         1.14030e+58
          1374.46640	         1.08275e+58
          1375.27270	         1.01610e+58
          1376.07900	         8.54776e+57
          1376.88530	         8.38970e+57
          1377.69160	         8.97976e+57
          1378.49790	         7.12645e+57
          1379.30420	         7.94679e+57
          1380.11050	         1.02846e+58
          1380.91680	         8.93641e+57
          1381.72310	         7.76626e+57
          1382.52940	         8.52611e+57
          1383.33570	         8.60556e+57
          1384.14200	         9.11683e+57
          1384.94830	         1.02938e+58
          1385.75460	         1.18652e+58
          1386.56090	         1.15887e+58
          1387.36720	         1.08343e+58
          1388.17350	         1.32061e+58
          1388.97980	         1.16898e+58
          1389.78610	         1.00928e+58
          1390.59240	         8.29384e+57
          1391.39870	         7.92942e+57
          1392.20500	         8.46226e+57
          1393.01130	         7.32209e+57
          1393.81760	         6.94912e+57
          1394.62390	         6.79808e+57
          1395.43020	         7.06343e+57
          1396.23650	         7.24500e+57
          1397.04280	         6.88762e+57
          1397.84910	         8.29682e+57
          1398.65540	         8.76578e+57
          1399.46170	         9.16188e+57
          1400.26800	         8.54189e+57
          1401.07430	         8.40632e+57
          1401.88060	         9.00846e+57
          1402.68690	         8.93520e+57
          1403.49320	         8.93970e+57
          1404.29950	         9.03105e+57
          1405.10580	         1.04317e+58
          1405.91210	         1.16227e+58
          1406.71840	         1.07253e+58
          1407.52470	         1.03710e+58
          1408.33100	         9.73374e+57
          1409.13730	         1.14197e+58
          1409.94360	         1.11180e+58
          1410.74990	         1.00713e+58
          1411.55620	         9.77288e+57
          1412.36250	         9.10990e+57
          1413.16880	         9.48665e+57
          1413.97510	         8.16722e+57
          1414.78140	         9.25338e+57
          1415.58770	         1.07395e+58
          1416.39400	         1.18020e+58
          1417.20030	         1.18250e+58
          1418.00660	         1.02931e+58
          1418.81290	         1.04731e+58
          1419.61920	         1.16056e+58
          1420.42550	         1.21455e+58
          1421.23180	         1.18788e+58
          1422.03810	         1.24929e+58
          1422.84440	         1.28653e+58
          1423.65070	         1.43762e+58
          1424.45700	         1.20096e+58
          1425.26330	         8.94585e+57
          1426.06960	         9.47363e+57
          1426.87590	         1.09538e+58
          1427.68220	         1.10768e+58
          1428.48850	         1.03756e+58
          1429.29480	         1.03546e+58
          1430.10110	         1.04435e+58
          1430.90740	         9.01809e+57
          1431.71370	         8.47663e+57
          1432.52000	         9.06597e+57
          1433.32630	         8.02310e+57
          1434.13260	         8.08193e+57
          1434.93890	         8.70423e+57
          1435.74520	         9.56200e+57
          1436.55150	         9.73924e+57
          1437.35780	         9.25806e+57
          1438.16410	         9.73329e+57
          1438.97040	         8.28946e+57
          1439.77670	         7.50505e+57
          1440.58300	         8.94016e+57
          1441.38930	         9.30992e+57
          1442.19560	         9.16222e+57
          1443.00190	         9.79972e+57
          1443.80820	         1.06098e+58
          1444.61450	         9.86845e+57
          1445.42080	         9.07660e+57
          1446.22710	         1.02753e+58
          1447.03340	         9.81020e+57
          1447.83970	         1.03693e+58
          1448.64600	         1.01450e+58
          1449.45230	         1.01482e+58
          1450.25860	         1.03068e+58
          1451.06490	         8.69643e+57
          1451.87120	         7.08974e+57
          1452.67750	         7.73735e+57
          1453.48380	         9.33489e+57
          1454.29010	         7.86016e+57
          1455.09640	         8.21715e+57
          1455.90270	         1.03073e+58
          1456.70900	         9.66160e+57
          1457.51530	         9.94646e+57
          1458.32160	         1.24322e+58
          1459.12790	         1.22862e+58
          1459.93420	         1.01390e+58
          1460.74050	         7.90465e+57
          1461.54680	         8.95653e+57
          1462.35310	         8.31652e+57
          1463.15940	         9.36237e+57
          1463.96570	         1.17072e+58
          1464.77200	         1.16750e+58
          1465.57830	         9.44628e+57
          1466.38460	         8.74897e+57
          1467.19090	         9.17717e+57
          1467.99720	         9.34324e+57
          1468.80350	         9.10182e+57
          1469.60980	         9.55374e+57
          1470.41610	         1.00836e+58
          1471.22240	         9.65766e+57
          1472.02870	         1.06769e+58
          1472.83500	         1.08645e+58
          1473.64130	         1.10440e+58
          1474.44760	         1.10510e+58
          1475.25390	         1.05805e+58
          1476.06020	         9.93146e+57
          1476.86650	         9.60492e+57
          1477.67280	         9.10262e+57
          1478.47910	         8.87136e+57
          1479.28540	         7.47891e+57
          1480.09170	         7.92782e+57
          1480.89800	         9.11282e+57
          1481.70430	         9.62307e+57
          1482.51060	         9.48192e+57
          1483.31690	         8.81636e+57
          1484.12320	         8.21656e+57
          1484.92950	         7.89234e+57
          1485.73580	         8.04568e+57
          1486.54210	         8.01057e+57
          1487.34840	         8.42526e+57
          1488.15470	         8.68836e+57
          1488.96100	         9.58060e+57
          1489.76730	         1.01881e+58
