#sample_429_stacked_spectrum_rest_UV-bands_median_H-alpha_noDC.txt
#median Lum: 1.69644e+42
#Rest-frame wavelength (A) | Luminosity (erg/s/A)
#
          1110.00000	         0.00000e+00
          1110.80630	        -5.33510e+58
          1111.61260	         1.36487e+58
          1112.41890	        -5.37729e+58
          1113.22520	         5.41525e+58
          1114.03150	        -1.50992e+59
          1114.83780	         3.59966e+59
          1115.64410	         3.93712e+59
          1116.45040	         4.64648e+59
          1117.25670	         1.21778e+59
          1118.06300	         1.09629e+59
          1118.86930	         8.17922e+58
          1119.67560	         9.08811e+58
          1120.48190	         1.46102e+58
          1121.28820	        -1.14687e+59
          1122.09450	         3.07593e+58
          1122.90080	         4.09459e+58
          1123.70710	         9.75688e+58
          1124.51340	         1.71255e+59
          1125.31970	        -3.09854e+57
          1126.12600	        -4.58393e+58
          1126.93230	        -3.61070e+58
          1127.73860	         1.15484e+58
          1128.54490	        -3.04446e+57
          1129.35120	        -9.96308e+57
          1130.15750	         3.68819e+57
          1130.96380	         1.53872e+58
          1131.77010	         6.27994e+58
          1132.57640	         4.19201e+58
          1133.38270	         4.98374e+58
          1134.18900	         3.72787e+58
          1134.99530	         9.11358e+57
          1135.80160	         3.22266e+58
          1136.60790	         2.58584e+58
          1137.41420	        -3.48872e+57
          1138.22050	         4.78809e+58
          1139.02680	         4.12073e+58
          1139.83310	         1.54723e+58
          1140.63940	         2.74444e+58
          1141.44570	        -7.65795e+57
          1142.25200	         1.61782e+58
          1143.05830	         3.25391e+58
          1143.86460	         4.50894e+58
          1144.67090	         3.90861e+58
          1145.47720	         1.98970e+58
          1146.28350	         1.68210e+58
          1147.08980	         2.46526e+58
          1147.89610	         2.02465e+58
          1148.70240	         1.35204e+58
          1149.50870	         1.82794e+58
          1150.31500	         5.30746e+57
          1151.12130	        -5.86658e+57
          1151.92760	        -3.43045e+57
          1152.73390	         9.01727e+57
          1153.54020	         9.80062e+57
          1154.34650	         2.82539e+58
          1155.15280	         2.11646e+58
          1155.95910	         6.53316e+57
          1156.76540	         5.12746e+57
          1157.57170	         2.96835e+57
          1158.37800	         2.97102e+57
          1159.18430	         2.07901e+57
          1159.99060	         2.12958e+56
          1160.79690	        -3.09711e+57
          1161.60320	         7.47021e+57
          1162.40950	         7.74142e+57
          1163.21580	         1.20090e+58
          1164.02210	         1.14144e+58
          1164.82840	         7.15681e+57
          1165.63470	         1.64765e+58
          1166.44100	         2.92194e+58
          1167.24730	         1.77674e+58
          1168.05360	         1.37549e+58
          1168.85990	         3.95716e+57
          1169.66620	         1.04053e+58
          1170.47250	         1.63336e+58
          1171.27880	         1.19564e+58
          1172.08510	         1.04842e+58
          1172.89140	         1.25816e+58
          1173.69770	         1.07208e+58
          1174.50400	         1.29209e+58
          1175.31030	         1.31146e+58
          1176.11660	         1.92509e+58
          1176.92290	         1.79129e+58
          1177.72920	         1.28067e+58
          1178.53550	         3.88763e+57
          1179.34180	         1.58600e+57
          1180.14810	         3.79364e+57
          1180.95440	         7.66175e+57
          1181.76070	         3.07185e+57
          1182.56700	         4.94540e+57
          1183.37330	         8.55763e+57
          1184.17960	         9.97942e+57
          1184.98590	         6.65895e+57
          1185.79220	         1.04360e+58
          1186.59850	         1.25313e+58
          1187.40480	         1.14912e+58
          1188.21110	         1.87118e+58
          1189.01740	         1.42580e+58
          1189.82370	         1.03906e+58
          1190.63000	         6.52242e+57
          1191.43630	         1.06448e+58
          1192.24260	         1.05631e+58
          1193.04890	         1.34510e+58
          1193.85520	         1.00007e+58
          1194.66150	         5.28193e+57
          1195.46780	         9.47633e+57
          1196.27410	         1.39278e+58
          1197.08040	         1.14311e+58
          1197.88670	         1.40122e+58
          1198.69300	         1.36322e+58
          1199.49930	         1.35669e+58
          1200.30560	         1.08439e+58
          1201.11190	         7.50147e+57
          1201.91820	         5.67313e+57
          1202.72450	         6.07115e+57
          1203.53080	         1.58628e+58
          1204.33710	         1.08603e+58
          1205.14340	         9.18275e+57
          1205.94970	         6.02245e+57
          1206.75600	         7.51734e+57
          1207.56230	         5.38448e+57
          1208.36860	         1.07582e+58
          1209.17490	         7.21835e+57
          1209.98120	         6.39450e+57
          1210.78750	         9.20461e+57
          1211.59380	         1.46908e+58
          1212.40010	         1.79190e+58
          1213.20640	         1.83610e+58
          1214.01270	         1.87801e+58
          1214.81900	         2.61250e+58
          1215.62530	         4.55104e+58
          1216.43160	         9.04098e+58
          1217.23790	         1.54720e+59
          1218.04420	         1.16692e+59
          1218.85050	         8.53846e+58
          1219.65680	         5.86530e+58
          1220.46310	         3.46920e+58
          1221.26940	         2.07895e+58
          1222.07570	         1.30427e+58
          1222.88200	         1.14052e+58
          1223.68830	         1.12183e+58
          1224.49460	         4.34780e+57
          1225.30090	         3.17571e+57
          1226.10720	         6.97643e+57
          1226.91350	         5.68144e+57
          1227.71980	         8.48703e+57
          1228.52610	         1.14163e+58
          1229.33240	         6.82804e+57
          1230.13870	         5.10811e+57
          1230.94500	         7.74133e+57
          1231.75130	         5.15886e+57
          1232.55760	         6.97188e+57
          1233.36390	         8.07256e+57
          1234.17020	         6.57636e+57
          1234.97650	         8.06561e+57
          1235.78280	         7.96045e+57
          1236.58910	         8.34232e+57
          1237.39540	         1.16959e+58
          1238.20170	         9.41731e+57
          1239.00800	         9.79540e+57
          1239.81430	         1.36510e+58
          1240.62060	         1.03919e+58
          1241.42690	         1.04659e+58
          1242.23320	         1.31745e+58
          1243.03950	         7.88850e+57
          1243.84580	         8.87762e+57
          1244.65210	         1.19240e+58
          1245.45840	         1.11436e+58
          1246.26470	         9.13146e+57
          1247.07100	         7.73181e+57
          1247.87730	         6.24315e+57
          1248.68360	         5.60183e+57
          1249.48990	         2.92377e+57
          1250.29620	         7.15416e+57
          1251.10250	         1.11950e+58
          1251.90880	         9.69015e+57
          1252.71510	         7.19189e+57
          1253.52140	         6.17805e+57
          1254.32770	         8.72453e+57
          1255.13400	         1.35507e+58
          1255.94030	         1.33340e+58
          1256.74660	         1.05270e+58
          1257.55290	         9.60901e+57
          1258.35920	         7.25431e+57
          1259.16550	         4.23512e+57
          1259.97180	         3.76352e+57
          1260.77810	         7.16964e+57
          1261.58440	         1.24634e+58
          1262.39070	         1.16631e+58
          1263.19700	         8.27848e+57
          1264.00330	         7.54005e+57
          1264.80960	         1.00368e+58
          1265.61590	         1.39308e+58
          1266.42220	         1.21898e+58
          1267.22850	         1.20524e+58
          1268.03480	         1.48994e+58
          1268.84110	         1.41694e+58
          1269.64740	         1.34674e+58
          1270.45370	         1.31907e+58
          1271.26000	         1.23248e+58
          1272.06630	         1.26694e+58
          1272.87260	         1.35033e+58
          1273.67890	         1.42507e+58
          1274.48520	         1.43470e+58
          1275.29150	         1.34954e+58
          1276.09780	         1.14317e+58
          1276.90410	         1.37150e+58
          1277.71040	         1.47897e+58
          1278.51670	         1.29939e+58
          1279.32300	         1.18142e+58
          1280.12930	         1.20227e+58
          1280.93560	         1.11996e+58
          1281.74190	         1.11544e+58
          1282.54820	         1.20373e+58
          1283.35450	         9.31543e+57
          1284.16080	         9.24625e+57
          1284.96710	         1.16545e+58
          1285.77340	         1.09676e+58
          1286.57970	         1.12553e+58
          1287.38600	         1.24168e+58
          1288.19230	         1.48523e+58
          1288.99860	         1.54050e+58
          1289.80490	         1.23159e+58
          1290.61120	         1.25684e+58
          1291.41750	         1.42498e+58
          1292.22380	         1.35073e+58
          1293.03010	         1.11720e+58
          1293.83640	         1.04956e+58
          1294.64270	         9.28272e+57
          1295.44900	         6.67146e+57
          1296.25530	         6.71245e+57
          1297.06160	         8.93137e+57
          1297.86790	         1.02714e+58
          1298.67420	         8.81240e+57
          1299.48050	         9.51331e+57
          1300.28680	         9.35708e+57
          1301.09310	         7.38447e+57
          1301.89940	         5.28303e+57
          1302.70570	         4.82557e+57
          1303.51200	         5.80975e+57
          1304.31830	         9.58962e+57
          1305.12460	         1.01897e+58
          1305.93090	         1.16742e+58
          1306.73720	         1.40631e+58
          1307.54350	         1.44846e+58
          1308.34980	         1.40889e+58
          1309.15610	         1.50802e+58
          1309.96240	         1.66240e+58
          1310.76870	         1.39502e+58
          1311.57500	         1.31468e+58
          1312.38130	         1.28169e+58
          1313.18760	         1.30845e+58
          1313.99390	         1.52625e+58
          1314.80020	         1.48353e+58
          1315.60650	         1.54993e+58
          1316.41280	         1.50038e+58
          1317.21910	         1.27030e+58
          1318.02540	         1.08297e+58
          1318.83170	         1.06352e+58
          1319.63800	         1.04130e+58
          1320.44430	         1.06556e+58
          1321.25060	         1.34444e+58
          1322.05690	         1.26412e+58
          1322.86320	         1.02939e+58
          1323.66950	         9.12639e+57
          1324.47580	         1.03056e+58
          1325.28210	         9.65105e+57
          1326.08840	         1.03563e+58
          1326.89470	         1.31302e+58
          1327.70100	         1.10047e+58
          1328.50730	         9.61690e+57
          1329.31360	         1.05704e+58
          1330.11990	         9.79058e+57
          1330.92620	         8.57536e+57
          1331.73250	         1.08497e+58
          1332.53880	         1.03451e+58
          1333.34510	         8.49390e+57
          1334.15140	         9.38263e+57
          1334.95770	         9.24933e+57
          1335.76400	         9.62056e+57
          1336.57030	         1.02363e+58
          1337.37660	         9.74670e+57
          1338.18290	         1.11538e+58
          1338.98920	         1.20243e+58
          1339.79550	         1.08505e+58
          1340.60180	         1.08808e+58
          1341.40810	         1.13102e+58
          1342.21440	         1.03947e+58
          1343.02070	         1.11491e+58
          1343.82700	         1.20575e+58
          1344.63330	         1.23298e+58
          1345.43960	         1.15170e+58
          1346.24590	         9.71247e+57
          1347.05220	         9.36816e+57
          1347.85850	         9.49366e+57
          1348.66480	         1.21368e+58
          1349.47110	         1.32541e+58
          1350.27740	         1.23713e+58
          1351.08370	         1.17408e+58
          1351.89000	         1.04171e+58
          1352.69630	         1.07044e+58
          1353.50260	         1.11987e+58
          1354.30890	         1.13856e+58
          1355.11520	         1.09486e+58
          1355.92150	         1.01208e+58
          1356.72780	         8.75084e+57
          1357.53410	         9.55666e+57
          1358.34040	         1.11838e+58
          1359.14670	         1.06683e+58
          1359.95300	         9.85016e+57
          1360.75930	         1.10368e+58
          1361.56560	         1.15643e+58
          1362.37190	         1.08618e+58
          1363.17820	         9.81160e+57
          1363.98450	         1.18649e+58
          1364.79080	         1.20885e+58
          1365.59710	         1.21496e+58
          1366.40340	         1.15040e+58
          1367.20970	         8.70179e+57
          1368.01600	         7.25087e+57
          1368.82230	         7.13184e+57
          1369.62860	         9.87951e+57
          1370.43490	         1.03731e+58
          1371.24120	         9.36657e+57
          1372.04750	         9.21167e+57
          1372.85380	         1.04206e+58
          1373.66010	         9.28161e+57
          1374.46640	         9.96192e+57
          1375.27270	         1.17806e+58
          1376.07900	         1.04827e+58
          1376.88530	         9.14219e+57
          1377.69160	         7.98283e+57
          1378.49790	         6.88346e+57
          1379.30420	         7.81789e+57
          1380.11050	         9.74939e+57
          1380.91680	         7.52085e+57
          1381.72310	         5.37079e+57
          1382.52940	         6.89382e+57
          1383.33570	         8.57867e+57
          1384.14200	         1.04214e+58
          1384.94830	         1.24035e+58
          1385.75460	         1.23285e+58
          1386.56090	         1.22652e+58
          1387.36720	         1.02835e+58
          1388.17350	         1.09920e+58
          1388.97980	         1.11642e+58
          1389.78610	         1.00067e+58
          1390.59240	         8.27913e+57
          1391.39870	         7.36397e+57
          1392.20500	         8.13326e+57
          1393.01130	         8.26376e+57
          1393.81760	         7.80546e+57
          1394.62390	         8.20781e+57
          1395.43020	         7.31652e+57
          1396.23650	         6.74823e+57
          1397.04280	         7.63642e+57
          1397.84910	         8.19879e+57
          1398.65540	         9.10326e+57
          1399.46170	         9.48437e+57
          1400.26800	         7.80933e+57
          1401.07430	         6.66651e+57
          1401.88060	         7.97647e+57
          1402.68690	         9.60045e+57
          1403.49320	         9.33092e+57
          1404.29950	         9.04739e+57
          1405.10580	         1.07878e+58
          1405.91210	         1.11056e+58
          1406.71840	         1.06303e+58
          1407.52470	         1.01724e+58
          1408.33100	         1.05292e+58
          1409.13730	         1.10411e+58
          1409.94360	         1.15467e+58
          1410.74990	         1.15230e+58
          1411.55620	         9.16026e+57
          1412.36250	         8.54668e+57
          1413.16880	         8.71321e+57
          1413.97510	         8.12190e+57
          1414.78140	         1.03570e+58
          1415.58770	         1.15712e+58
          1416.39400	         1.07708e+58
          1417.20030	         1.10516e+58
          1418.00660	         1.05455e+58
          1418.81290	         1.12569e+58
          1419.61920	         1.08311e+58
          1420.42550	         1.23756e+58
          1421.23180	         1.40408e+58
          1422.03810	         1.29410e+58
          1422.84440	         1.08064e+58
          1423.65070	         1.33874e+58
          1424.45700	         1.23520e+58
          1425.26330	         8.65297e+57
          1426.06960	         8.88448e+57
          1426.87590	         1.03842e+58
          1427.68220	         1.05840e+58
          1428.48850	         1.11389e+58
          1429.29480	         1.07726e+58
          1430.10110	         1.03785e+58
          1430.90740	         8.78657e+57
          1431.71370	         8.36051e+57
          1432.52000	         8.81881e+57
          1433.32630	         7.57813e+57
          1434.13260	         7.18294e+57
          1434.93890	         8.01370e+57
          1435.74520	         9.09770e+57
          1436.55150	         9.84021e+57
          1437.35780	         9.75272e+57
          1438.16410	         9.75346e+57
          1438.97040	         9.31029e+57
          1439.77670	         9.29710e+57
          1440.58300	         8.35657e+57
          1441.38930	         9.07036e+57
          1442.19560	         1.00797e+58
          1443.00190	         9.03932e+57
          1443.80820	         1.03911e+58
          1444.61450	         9.64774e+57
          1445.42080	         8.30076e+57
          1446.22710	         1.06753e+58
          1447.03340	         1.03092e+58
          1447.83970	         9.90363e+57
          1448.64600	         9.87649e+57
          1449.45230	         9.70419e+57
          1450.25860	         1.02819e+58
          1451.06490	         9.93923e+57
          1451.87120	         7.84354e+57
          1452.67750	         7.94774e+57
          1453.48380	         9.14800e+57
          1454.29010	         7.39310e+57
          1455.09640	         7.07081e+57
          1455.90270	         8.88394e+57
          1456.70900	         8.85787e+57
          1457.51530	         8.94085e+57
          1458.32160	         1.17402e+58
          1459.12790	         1.22931e+58
          1459.93420	         9.78825e+57
          1460.74050	         7.13473e+57
          1461.54680	         7.10612e+57
          1462.35310	         7.13890e+57
          1463.15940	         8.84979e+57
          1463.96570	         1.10098e+58
          1464.77200	         1.25517e+58
          1465.57830	         1.16108e+58
          1466.38460	         9.67979e+57
          1467.19090	         8.29584e+57
          1467.99720	         8.30593e+57
          1468.80350	         9.61387e+57
          1469.60980	         1.09509e+58
          1470.41610	         1.15995e+58
          1471.22240	         9.72915e+57
          1472.02870	         8.94405e+57
          1472.83500	         1.00469e+58
          1473.64130	         1.02844e+58
          1474.44760	         9.07826e+57
          1475.25390	         8.88473e+57
          1476.06020	         8.29295e+57
          1476.86650	         8.11088e+57
          1477.67280	         8.72994e+57
          1478.47910	         7.43171e+57
          1479.28540	         6.78576e+57
          1480.09170	         7.76912e+57
          1480.89800	         9.25416e+57
          1481.70430	         1.01994e+58
          1482.51060	         8.84973e+57
          1483.31690	         7.66893e+57
          1484.12320	         8.11018e+57
          1484.92950	         8.14127e+57
          1485.73580	         7.80242e+57
          1486.54210	         8.13990e+57
          1487.34840	         8.81021e+57
          1488.15470	         7.84189e+57
          1488.96100	         7.74099e+57
          1489.76730	         8.52200e+57
