#sample_362_stacked_spectrum_rest_UV-bands_median_H-alpha_noDC.txt
#median Lum: 1.69813e+42
#Rest-frame wavelength (A) | Luminosity (erg/s/A)
#
          1110.00000	         0.00000e+00
          1110.80630	        -2.40147e+59
          1111.61260	         2.84175e+59
          1112.41890	         1.30528e+59
          1113.22520	        -1.81307e+58
          1114.03150	        -1.21863e+59
          1114.83780	         1.17453e+59
          1115.64410	        -1.73484e+58
          1116.45040	         5.09360e+58
          1117.25670	        -1.35134e+59
          1118.06300	         1.02809e+59
          1118.86930	        -5.54796e+58
          1119.67560	         9.94800e+58
          1120.48190	         6.11967e+58
          1121.28820	        -1.77292e+59
          1122.09450	        -7.97815e+57
          1122.90080	         2.32008e+58
          1123.70710	         6.30371e+58
          1124.51340	         8.96601e+58
          1125.31970	         2.65415e+58
          1126.12600	         2.68890e+58
          1126.93230	        -6.47815e+58
          1127.73860	        -3.15968e+58
          1128.54490	         3.50156e+58
          1129.35120	         4.08023e+58
          1130.15750	         9.05531e+57
          1130.96380	        -4.34317e+58
          1131.77010	         5.39477e+58
          1132.57640	         1.95910e+58
          1133.38270	         2.94928e+58
          1134.18900	         1.35592e+58
          1134.99530	         1.69224e+58
          1135.80160	        -2.40932e+57
          1136.60790	         3.33214e+57
          1137.41420	        -1.16447e+57
          1138.22050	         2.19422e+58
          1139.02680	         2.66395e+58
          1139.83310	         2.17783e+58
          1140.63940	         2.97866e+58
          1141.44570	        -1.93862e+58
          1142.25200	        -1.21392e+58
          1143.05830	         1.93409e+58
          1143.86460	         3.31560e+58
          1144.67090	         2.70755e+58
          1145.47720	         1.34463e+58
          1146.28350	         1.31343e+58
          1147.08980	         2.16395e+58
          1147.89610	         1.46396e+58
          1148.70240	         2.87407e+58
          1149.50870	         1.75357e+58
          1150.31500	         1.95679e+57
          1151.12130	        -4.16859e+57
          1151.92760	         1.84541e+57
          1152.73390	         2.21697e+57
          1153.54020	        -2.10445e+57
          1154.34650	         1.95287e+58
          1155.15280	         1.13029e+58
          1155.95910	         1.17050e+58
          1156.76540	         1.10838e+58
          1157.57170	         6.17587e+57
          1158.37800	        -1.54590e+57
          1159.18430	        -5.54804e+57
          1159.99060	         1.56228e+57
          1160.79690	         2.85674e+57
          1161.60320	         3.81954e+57
          1162.40950	         1.07429e+58
          1163.21580	         2.57171e+58
          1164.02210	         1.09716e+58
          1164.82840	         1.42504e+58
          1165.63470	         1.86127e+58
          1166.44100	         3.19379e+58
          1167.24730	         1.44760e+58
          1168.05360	         9.32721e+57
          1168.85990	         1.29713e+58
          1169.66620	         7.16429e+57
          1170.47250	         9.83813e+57
          1171.27880	         8.17465e+57
          1172.08510	         2.05659e+58
          1172.89140	         1.11487e+58
          1173.69770	         1.12500e+58
          1174.50400	         1.37941e+58
          1175.31030	         1.59650e+58
          1176.11660	         2.02338e+58
          1176.92290	         1.89519e+58
          1177.72920	         1.51314e+58
          1178.53550	         6.05132e+57
          1179.34180	         9.13852e+56
          1180.14810	         1.06113e+58
          1180.95440	         1.18320e+58
          1181.76070	         2.91317e+57
          1182.56700	         2.99197e+57
          1183.37330	         2.06627e+57
          1184.17960	         1.24692e+58
          1184.98590	         9.20092e+57
          1185.79220	         6.39444e+57
          1186.59850	         1.32791e+58
          1187.40480	         1.41926e+58
          1188.21110	         1.86143e+58
          1189.01740	         1.26281e+58
          1189.82370	         1.34421e+58
          1190.63000	         1.73966e+58
          1191.43630	         1.71547e+58
          1192.24260	         1.13760e+58
          1193.04890	         1.15201e+58
          1193.85520	         1.06366e+58
          1194.66150	         4.57068e+57
          1195.46780	         6.82315e+57
          1196.27410	         1.38439e+58
          1197.08040	         8.92853e+57
          1197.88670	         1.52042e+58
          1198.69300	         1.89808e+58
          1199.49930	         1.62183e+58
          1200.30560	         1.31506e+58
          1201.11190	         9.15055e+57
          1201.91820	         7.45190e+57
          1202.72450	         1.00186e+58
          1203.53080	         1.69289e+58
          1204.33710	         7.06208e+57
          1205.14340	         7.24377e+57
          1205.94970	         6.26800e+57
          1206.75600	         7.38737e+57
          1207.56230	         4.22967e+57
          1208.36860	         6.37491e+57
          1209.17490	         2.42016e+57
          1209.98120	         4.89018e+57
          1210.78750	         8.99261e+57
          1211.59380	         1.08476e+58
          1212.40010	         1.66351e+58
          1213.20640	         1.92969e+58
          1214.01270	         2.19354e+58
          1214.81900	         2.74712e+58
          1215.62530	         4.60152e+58
          1216.43160	         9.44871e+58
          1217.23790	         1.53586e+59
          1218.04420	         1.14733e+59
          1218.85050	         8.79542e+58
          1219.65680	         6.32717e+58
          1220.46310	         3.40890e+58
          1221.26940	         2.49131e+58
          1222.07570	         1.53955e+58
          1222.88200	         1.20015e+58
          1223.68830	         1.15009e+58
          1224.49460	         5.12990e+57
          1225.30090	         5.61380e+57
          1226.10720	         4.52918e+57
          1226.91350	         6.40838e+57
          1227.71980	         1.09075e+58
          1228.52610	         1.06112e+58
          1229.33240	         7.00022e+57
          1230.13870	         6.84506e+57
          1230.94500	         8.01820e+57
          1231.75130	         6.86264e+57
          1232.55760	         8.00164e+57
          1233.36390	         8.04725e+57
          1234.17020	         9.74148e+57
          1234.97650	         5.32571e+57
          1235.78280	         6.65556e+57
          1236.58910	         9.20208e+57
          1237.39540	         1.06810e+58
          1238.20170	         1.16170e+58
          1239.00800	         1.12290e+58
          1239.81430	         1.36129e+58
          1240.62060	         1.06698e+58
          1241.42690	         1.02155e+58
          1242.23320	         1.13905e+58
          1243.03950	         8.76207e+57
          1243.84580	         9.30771e+57
          1244.65210	         1.03783e+58
          1245.45840	         9.08450e+57
          1246.26470	         7.24541e+57
          1247.07100	         5.30172e+57
          1247.87730	         4.03681e+57
          1248.68360	         1.69769e+57
          1249.48990	         7.12028e+57
          1250.29620	         7.85350e+57
          1251.10250	         7.27156e+57
          1251.90880	         5.98180e+57
          1252.71510	         6.14195e+57
          1253.52140	         5.61133e+57
          1254.32770	         8.24516e+57
          1255.13400	         9.76695e+57
          1255.94030	         9.53428e+57
          1256.74660	         9.52198e+57
          1257.55290	         1.09307e+58
          1258.35920	         9.50583e+57
          1259.16550	         4.96153e+57
          1259.97180	         6.27028e+57
          1260.77810	         1.06903e+58
          1261.58440	         1.20558e+58
          1262.39070	         9.89681e+57
          1263.19700	         7.48642e+57
          1264.00330	         7.65418e+57
          1264.80960	         1.10957e+58
          1265.61590	         1.18214e+58
          1266.42220	         1.23326e+58
          1267.22850	         1.31904e+58
          1268.03480	         1.39074e+58
          1268.84110	         1.45114e+58
          1269.64740	         1.39768e+58
          1270.45370	         1.60106e+58
          1271.26000	         1.40807e+58
          1272.06630	         1.37589e+58
          1272.87260	         1.33009e+58
          1273.67890	         1.42718e+58
          1274.48520	         1.55801e+58
          1275.29150	         1.20888e+58
          1276.09780	         1.18425e+58
          1276.90410	         1.67894e+58
          1277.71040	         1.39726e+58
          1278.51670	         1.15677e+58
          1279.32300	         1.29830e+58
          1280.12930	         1.07811e+58
          1280.93560	         1.02511e+58
          1281.74190	         1.27549e+58
          1282.54820	         1.23211e+58
          1283.35450	         1.04968e+58
          1284.16080	         1.09193e+58
          1284.96710	         1.23906e+58
          1285.77340	         1.24057e+58
          1286.57970	         1.15117e+58
          1287.38600	         1.46825e+58
          1288.19230	         1.73232e+58
          1288.99860	         1.34469e+58
          1289.80490	         7.71995e+57
          1290.61120	         1.07865e+58
          1291.41750	         1.23283e+58
          1292.22380	         1.05856e+58
          1293.03010	         9.49423e+57
          1293.83640	         1.23607e+58
          1294.64270	         1.08549e+58
          1295.44900	         6.20883e+57
          1296.25530	         6.77870e+57
          1297.06160	         9.09881e+57
          1297.86790	         1.02106e+58
          1298.67420	         8.39542e+57
          1299.48050	         8.53466e+57
          1300.28680	         9.26270e+57
          1301.09310	         7.55745e+57
          1301.89940	         4.73283e+57
          1302.70570	         6.18488e+57
          1303.51200	         8.32324e+57
          1304.31830	         9.85152e+57
          1305.12460	         1.03023e+58
          1305.93090	         1.16125e+58
          1306.73720	         1.35516e+58
          1307.54350	         1.39039e+58
          1308.34980	         1.34183e+58
          1309.15610	         1.50400e+58
          1309.96240	         1.70948e+58
          1310.76870	         1.42504e+58
          1311.57500	         1.06630e+58
          1312.38130	         1.03467e+58
          1313.18760	         1.21923e+58
          1313.99390	         1.57886e+58
          1314.80020	         1.74657e+58
          1315.60650	         1.65161e+58
          1316.41280	         1.38327e+58
          1317.21910	         8.75781e+57
          1318.02540	         9.93299e+57
          1318.83170	         1.29905e+58
          1319.63800	         1.34330e+58
          1320.44430	         1.18694e+58
          1321.25060	         1.19595e+58
          1322.05690	         1.19639e+58
          1322.86320	         1.12037e+58
          1323.66950	         1.04859e+58
          1324.47580	         9.57092e+57
          1325.28210	         9.38894e+57
          1326.08840	         1.04009e+58
          1326.89470	         1.19019e+58
          1327.70100	         1.13555e+58
          1328.50730	         8.88258e+57
          1329.31360	         8.55100e+57
          1330.11990	         9.27464e+57
          1330.92620	         7.92377e+57
          1331.73250	         1.00324e+58
          1332.53880	         1.01278e+58
          1333.34510	         9.84436e+57
          1334.15140	         7.75619e+57
          1334.95770	         7.11777e+57
          1335.76400	         9.79324e+57
          1336.57030	         1.00997e+58
          1337.37660	         1.08866e+58
          1338.18290	         1.09969e+58
          1338.98920	         1.12395e+58
          1339.79550	         1.12657e+58
          1340.60180	         1.24026e+58
          1341.40810	         1.28182e+58
          1342.21440	         1.08626e+58
          1343.02070	         1.24293e+58
          1343.82700	         1.44816e+58
          1344.63330	         1.22000e+58
          1345.43960	         1.20760e+58
          1346.24590	         9.96857e+57
          1347.05220	         9.74391e+57
          1347.85850	         9.94912e+57
          1348.66480	         1.15886e+58
          1349.47110	         1.27689e+58
          1350.27740	         1.29203e+58
          1351.08370	         1.20407e+58
          1351.89000	         1.09694e+58
          1352.69630	         1.11330e+58
          1353.50260	         1.21828e+58
          1354.30890	         1.12701e+58
          1355.11520	         1.05184e+58
          1355.92150	         1.02670e+58
          1356.72780	         1.01634e+58
          1357.53410	         1.13132e+58
          1358.34040	         1.19472e+58
          1359.14670	         1.10956e+58
          1359.95300	         1.11268e+58
          1360.75930	         1.09869e+58
          1361.56560	         1.01158e+58
          1362.37190	         1.12112e+58
          1363.17820	         1.19295e+58
          1363.98450	         1.21499e+58
          1364.79080	         1.29026e+58
          1365.59710	         1.21546e+58
          1366.40340	         1.15546e+58
          1367.20970	         1.05894e+58
          1368.01600	         8.83717e+57
          1368.82230	         8.41358e+57
          1369.62860	         1.08609e+58
          1370.43490	         1.09511e+58
          1371.24120	         1.03211e+58
          1372.04750	         9.41398e+57
          1372.85380	         1.09894e+58
          1373.66010	         1.10111e+58
          1374.46640	         1.05765e+58
          1375.27270	         1.09426e+58
          1376.07900	         9.00508e+57
          1376.88530	         8.59745e+57
          1377.69160	         9.24028e+57
          1378.49790	         7.94328e+57
          1379.30420	         8.23984e+57
          1380.11050	         9.50160e+57
          1380.91680	         8.12970e+57
          1381.72310	         8.62203e+57
          1382.52940	         9.60392e+57
          1383.33570	         7.99292e+57
          1384.14200	         7.60152e+57
          1384.94830	         9.83824e+57
          1385.75460	         1.13053e+58
          1386.56090	         1.18686e+58
          1387.36720	         1.24620e+58
          1388.17350	         1.33570e+58
          1388.97980	         1.02382e+58
          1389.78610	         9.24675e+57
          1390.59240	         8.09456e+57
          1391.39870	         8.11159e+57
          1392.20500	         8.40786e+57
          1393.01130	         7.05685e+57
          1393.81760	         7.21019e+57
          1394.62390	         7.52938e+57
          1395.43020	         7.04596e+57
          1396.23650	         6.71587e+57
          1397.04280	         8.04861e+57
          1397.84910	         1.01989e+58
          1398.65540	         1.05827e+58
          1399.46170	         1.04778e+58
          1400.26800	         9.06451e+57
          1401.07430	         7.22888e+57
          1401.88060	         7.06979e+57
          1402.68690	         9.66236e+57
          1403.49320	         1.01832e+58
          1404.29950	         9.79916e+57
          1405.10580	         1.04608e+58
          1405.91210	         1.11425e+58
          1406.71840	         1.18097e+58
          1407.52470	         1.09045e+58
          1408.33100	         1.02908e+58
          1409.13730	         1.03860e+58
          1409.94360	         1.17671e+58
          1410.74990	         1.24829e+58
          1411.55620	         9.88009e+57
          1412.36250	         1.01009e+58
          1413.16880	         1.07349e+58
          1413.97510	         9.41516e+57
          1414.78140	         8.87047e+57
          1415.58770	         9.52099e+57
          1416.39400	         9.78693e+57
          1417.20030	         9.93726e+57
          1418.00660	         9.61498e+57
          1418.81290	         1.07590e+58
          1419.61920	         1.16099e+58
          1420.42550	         1.15887e+58
          1421.23180	         1.15265e+58
          1422.03810	         1.10400e+58
          1422.84440	         9.88919e+57
          1423.65070	         1.16457e+58
          1424.45700	         1.20965e+58
          1425.26330	         9.29417e+57
          1426.06960	         9.44349e+57
          1426.87590	         9.54043e+57
          1427.68220	         8.30969e+57
          1428.48850	         9.33480e+57
          1429.29480	         1.06201e+58
          1430.10110	         9.11591e+57
          1430.90740	         7.85859e+57
          1431.71370	         8.63065e+57
          1432.52000	         8.75264e+57
          1433.32630	         7.45360e+57
          1434.13260	         8.53804e+57
          1434.93890	         8.00145e+57
          1435.74520	         9.06886e+57
          1436.55150	         9.27593e+57
          1437.35780	         8.28490e+57
          1438.16410	         9.11122e+57
          1438.97040	         9.64033e+57
          1439.77670	         9.72108e+57
          1440.58300	         9.38620e+57
          1441.38930	         9.21117e+57
          1442.19560	         9.00564e+57
          1443.00190	         9.19091e+57
          1443.80820	         1.14324e+58
          1444.61450	         1.05886e+58
          1445.42080	         8.71971e+57
          1446.22710	         9.73893e+57
          1447.03340	         9.58648e+57
          1447.83970	         1.11410e+58
          1448.64600	         1.10459e+58
          1449.45230	         1.01163e+58
          1450.25860	         1.03197e+58
          1451.06490	         8.16222e+57
          1451.87120	         7.12635e+57
          1452.67750	         7.14515e+57
          1453.48380	         9.12594e+57
          1454.29010	         9.56965e+57
          1455.09640	         8.68064e+57
          1455.90270	         8.95602e+57
          1456.70900	         8.09567e+57
          1457.51530	         9.57584e+57
          1458.32160	         1.23464e+58
          1459.12790	         1.11550e+58
          1459.93420	         9.70282e+57
          1460.74050	         8.88722e+57
          1461.54680	         8.80250e+57
          1462.35310	         8.44650e+57
          1463.15940	         1.01960e+58
          1463.96570	         1.12162e+58
          1464.77200	         1.09510e+58
          1465.57830	         9.47590e+57
          1466.38460	         8.30365e+57
          1467.19090	         8.44546e+57
          1467.99720	         8.98565e+57
          1468.80350	         9.54647e+57
          1469.60980	         9.17417e+57
          1470.41610	         1.10998e+58
          1471.22240	         1.00007e+58
          1472.02870	         9.73351e+57
          1472.83500	         1.04888e+58
          1473.64130	         1.00392e+58
          1474.44760	         9.43264e+57
          1475.25390	         9.56689e+57
          1476.06020	         9.10536e+57
          1476.86650	         7.69055e+57
          1477.67280	         6.28726e+57
          1478.47910	         5.91471e+57
          1479.28540	         6.68871e+57
          1480.09170	         7.33327e+57
          1480.89800	         8.24959e+57
          1481.70430	         9.03973e+57
          1482.51060	         8.81047e+57
          1483.31690	         7.71559e+57
          1484.12320	         7.51396e+57
          1484.92950	         7.21125e+57
          1485.73580	         7.86155e+57
          1486.54210	         8.13393e+57
          1487.34840	         8.75349e+57
          1488.15470	         8.50527e+57
          1488.96100	         9.44849e+57
          1489.76730	         9.57098e+57
