#sample_56_stacked_spectrum_rest_UV-bands_median_H-alpha_noDC.txt
#median Lum: 1.68391e+42
#Rest-frame wavelength (A) | Luminosity (erg/s/A)
#
          1110.00000	         0.00000e+00
          1110.80630	        -2.34056e+59
          1111.61260	         2.51960e+59
          1112.41890	         7.58734e+58
          1113.22520	         1.32398e+59
          1114.03150	         4.75836e+58
          1114.83780	         2.88891e+59
          1115.64410	         1.33323e+59
          1116.45040	         2.31643e+59
          1117.25670	        -1.76010e+58
          1118.06300	         9.78650e+58
          1118.86930	        -8.98040e+58
          1119.67560	         4.53920e+58
          1120.48190	        -8.02610e+58
          1121.28820	        -1.45924e+59
          1122.09450	        -7.20491e+58
          1122.90080	         3.74409e+58
          1123.70710	         8.47373e+58
          1124.51340	         5.36650e+57
          1125.31970	        -9.02555e+58
          1126.12600	        -4.92911e+58
          1126.93230	        -5.79707e+58
          1127.73860	        -5.70268e+58
          1128.54490	        -3.90774e+58
          1129.35120	         9.20683e+57
          1130.15750	        -2.17497e+58
          1130.96380	         2.44423e+58
          1131.77010	         8.77756e+58
          1132.57640	         7.33956e+58
          1133.38270	         3.79783e+58
          1134.18900	         3.31626e+58
          1134.99530	         5.77277e+57
          1135.80160	         1.93184e+58
          1136.60790	         2.71425e+58
          1137.41420	        -2.19792e+58
          1138.22050	         2.67379e+58
          1139.02680	         2.91577e+58
          1139.83310	         3.04120e+58
          1140.63940	         3.05820e+58
          1141.44570	        -8.69592e+57
          1142.25200	        -1.90860e+58
          1143.05830	         1.62363e+58
          1143.86460	         3.73924e+58
          1144.67090	         2.69752e+58
          1145.47720	         4.01058e+57
          1146.28350	         2.23168e+58
          1147.08980	         1.38202e+58
          1147.89610	         1.96012e+58
          1148.70240	         1.25834e+58
          1149.50870	         1.12981e+58
          1150.31500	         1.01338e+58
          1151.12130	         1.41469e+58
          1151.92760	         3.69238e+57
          1152.73390	         1.80714e+58
          1153.54020	         1.22932e+58
          1154.34650	         1.81848e+58
          1155.15280	         2.27977e+58
          1155.95910	         1.49032e+58
          1156.76540	         1.25358e+58
          1157.57170	         5.63062e+57
          1158.37800	        -1.29868e+57
          1159.18430	        -7.41606e+57
          1159.99060	         1.32316e+57
          1160.79690	         1.11468e+58
          1161.60320	         1.51268e+58
          1162.40950	         1.75943e+58
          1163.21580	         1.16121e+58
          1164.02210	         1.18136e+58
          1164.82840	         1.03883e+58
          1165.63470	         1.41605e+58
          1166.44100	         3.13903e+58
          1167.24730	         2.19191e+58
          1168.05360	         8.69544e+57
          1168.85990	         5.89479e+57
          1169.66620	         1.45351e+58
          1170.47250	         1.66298e+58
          1171.27880	         6.86769e+57
          1172.08510	         8.37885e+57
          1172.89140	         5.07059e+56
          1173.69770	         6.24575e+57
          1174.50400	         9.55859e+57
          1175.31030	         1.59710e+58
          1176.11660	         1.76505e+58
          1176.92290	         1.74158e+58
          1177.72920	         1.38806e+58
          1178.53550	         4.64841e+57
          1179.34180	         5.82311e+57
          1180.14810	         8.52855e+57
          1180.95440	         9.80223e+57
          1181.76070	         7.51721e+57
          1182.56700	         6.04309e+57
          1183.37330	         7.69395e+57
          1184.17960	         9.65272e+57
          1184.98590	         9.05153e+57
          1185.79220	         7.54083e+57
          1186.59850	         7.36963e+57
          1187.40480	         9.58523e+57
          1188.21110	         1.11624e+58
          1189.01740	         6.79923e+57
          1189.82370	         7.34342e+57
          1190.63000	         7.91422e+57
          1191.43630	         8.57412e+57
          1192.24260	         9.05587e+57
          1193.04890	         1.01386e+58
          1193.85520	         1.24055e+58
          1194.66150	         6.79121e+57
          1195.46780	         1.02388e+58
          1196.27410	         1.62498e+58
          1197.08040	         1.03737e+58
          1197.88670	         1.29046e+58
          1198.69300	         1.52503e+58
          1199.49930	         1.40207e+58
          1200.30560	         7.71449e+57
          1201.11190	         1.14405e+58
          1201.91820	         1.28967e+58
          1202.72450	         9.82209e+57
          1203.53080	         1.54423e+58
          1204.33710	         8.44730e+57
          1205.14340	         6.73646e+57
          1205.94970	         8.89215e+57
          1206.75600	         7.26735e+57
          1207.56230	         6.47067e+57
          1208.36860	         9.68675e+57
          1209.17490	         4.48476e+57
          1209.98120	         8.64495e+57
          1210.78750	         5.57754e+57
          1211.59380	         1.00185e+58
          1212.40010	         1.83532e+58
          1213.20640	         2.04847e+58
          1214.01270	         2.06170e+58
          1214.81900	         2.56929e+58
          1215.62530	         4.30260e+58
          1216.43160	         8.64817e+58
          1217.23790	         1.52313e+59
          1218.04420	         1.17738e+59
          1218.85050	         9.08678e+58
          1219.65680	         6.02303e+58
          1220.46310	         3.66516e+58
          1221.26940	         2.57947e+58
          1222.07570	         1.52859e+58
          1222.88200	         1.23611e+58
          1223.68830	         1.08607e+58
          1224.49460	         8.94867e+57
          1225.30090	         9.36115e+57
          1226.10720	         9.28687e+57
          1226.91350	         9.04776e+57
          1227.71980	         1.07707e+58
          1228.52610	         1.18813e+58
          1229.33240	         1.02421e+58
          1230.13870	         7.66305e+57
          1230.94500	         8.80566e+57
          1231.75130	         5.73259e+57
          1232.55760	         7.45289e+57
          1233.36390	         6.93329e+57
          1234.17020	         1.02082e+58
          1234.97650	         1.12628e+58
          1235.78280	         9.08616e+57
          1236.58910	         9.27365e+57
          1237.39540	         1.05607e+58
          1238.20170	         9.48874e+57
          1239.00800	         1.16117e+58
          1239.81430	         1.46689e+58
          1240.62060	         1.24062e+58
          1241.42690	         1.01685e+58
          1242.23320	         1.20543e+58
          1243.03950	         6.74435e+57
          1243.84580	         6.53872e+57
          1244.65210	         1.05523e+58
          1245.45840	         9.38644e+57
          1246.26470	         9.50277e+57
          1247.07100	         8.55215e+57
          1247.87730	         5.98103e+57
          1248.68360	         4.06746e+57
          1249.48990	         6.03544e+57
          1250.29620	         8.68413e+57
          1251.10250	         7.69956e+57
          1251.90880	         7.08665e+57
          1252.71510	         6.55868e+57
          1253.52140	         6.43147e+57
          1254.32770	         8.31794e+57
          1255.13400	         1.15306e+58
          1255.94030	         9.97517e+57
          1256.74660	         8.89924e+57
          1257.55290	         1.08370e+58
          1258.35920	         9.00509e+57
          1259.16550	         5.20208e+57
          1259.97180	         4.51580e+57
          1260.77810	         1.00985e+58
          1261.58440	         1.20894e+58
          1262.39070	         7.40474e+57
          1263.19700	         6.68409e+57
          1264.00330	         9.22663e+57
          1264.80960	         1.14670e+58
          1265.61590	         1.31033e+58
          1266.42220	         1.35159e+58
          1267.22850	         1.10685e+58
          1268.03480	         1.30639e+58
          1268.84110	         1.47390e+58
          1269.64740	         1.35463e+58
          1270.45370	         1.28498e+58
          1271.26000	         1.16993e+58
          1272.06630	         1.19160e+58
          1272.87260	         1.29700e+58
          1273.67890	         1.25740e+58
          1274.48520	         1.18976e+58
          1275.29150	         1.21121e+58
          1276.09780	         1.14765e+58
          1276.90410	         1.52566e+58
          1277.71040	         1.35901e+58
          1278.51670	         1.17091e+58
          1279.32300	         1.34445e+58
          1280.12930	         1.30295e+58
          1280.93560	         1.06950e+58
          1281.74190	         1.10971e+58
          1282.54820	         1.39668e+58
          1283.35450	         1.32240e+58
          1284.16080	         1.18496e+58
          1284.96710	         1.41019e+58
          1285.77340	         1.22687e+58
          1286.57970	         9.28682e+57
          1287.38600	         1.34090e+58
          1288.19230	         1.74022e+58
          1288.99860	         1.51602e+58
          1289.80490	         1.17818e+58
          1290.61120	         1.37914e+58
          1291.41750	         1.31326e+58
          1292.22380	         1.10128e+58
          1293.03010	         1.07660e+58
          1293.83640	         1.21252e+58
          1294.64270	         1.07850e+58
          1295.44900	         7.45640e+57
          1296.25530	         7.07268e+57
          1297.06160	         9.68107e+57
          1297.86790	         9.76204e+57
          1298.67420	         9.08201e+57
          1299.48050	         9.48200e+57
          1300.28680	         1.16584e+58
          1301.09310	         8.90311e+57
          1301.89940	         4.47497e+57
          1302.70570	         6.55645e+57
          1303.51200	         6.74802e+57
          1304.31830	         9.04220e+57
          1305.12460	         1.12140e+58
          1305.93090	         1.16816e+58
          1306.73720	         1.32084e+58
          1307.54350	         1.48950e+58
          1308.34980	         1.35987e+58
          1309.15610	         1.46906e+58
          1309.96240	         1.52449e+58
          1310.76870	         1.29471e+58
          1311.57500	         1.10837e+58
          1312.38130	         1.13330e+58
          1313.18760	         1.32515e+58
          1313.99390	         1.45289e+58
          1314.80020	         1.26962e+58
          1315.60650	         1.44498e+58
          1316.41280	         1.53211e+58
          1317.21910	         1.21835e+58
          1318.02540	         1.29806e+58
          1318.83170	         1.34770e+58
          1319.63800	         1.23189e+58
          1320.44430	         1.15380e+58
          1321.25060	         1.25125e+58
          1322.05690	         1.30344e+58
          1322.86320	         1.32189e+58
          1323.66950	         1.13030e+58
          1324.47580	         1.05727e+58
          1325.28210	         9.98070e+57
          1326.08840	         1.12426e+58
          1326.89470	         1.27486e+58
          1327.70100	         1.14882e+58
          1328.50730	         9.53219e+57
          1329.31360	         1.01567e+58
          1330.11990	         1.18123e+58
          1330.92620	         1.06789e+58
          1331.73250	         9.90605e+57
          1332.53880	         1.01543e+58
          1333.34510	         9.43081e+57
          1334.15140	         9.37031e+57
          1334.95770	         9.39492e+57
          1335.76400	         9.43091e+57
          1336.57030	         1.05822e+58
          1337.37660	         1.03377e+58
          1338.18290	         1.09220e+58
          1338.98920	         1.10404e+58
          1339.79550	         1.16135e+58
          1340.60180	         1.20573e+58
          1341.40810	         1.35132e+58
          1342.21440	         1.28673e+58
          1343.02070	         1.15344e+58
          1343.82700	         1.14039e+58
          1344.63330	         1.15071e+58
          1345.43960	         1.24883e+58
          1346.24590	         1.24288e+58
          1347.05220	         1.29059e+58
          1347.85850	         9.68334e+57
          1348.66480	         1.04089e+58
          1349.47110	         1.16797e+58
          1350.27740	         1.04646e+58
          1351.08370	         1.09230e+58
          1351.89000	         1.18951e+58
          1352.69630	         1.09448e+58
          1353.50260	         1.07058e+58
          1354.30890	         1.16813e+58
          1355.11520	         1.24429e+58
          1355.92150	         1.07601e+58
          1356.72780	         9.81621e+57
          1357.53410	         1.11244e+58
          1358.34040	         1.07036e+58
          1359.14670	         8.47481e+57
          1359.95300	         9.97946e+57
          1360.75930	         1.22131e+58
          1361.56560	         1.12506e+58
          1362.37190	         1.14983e+58
          1363.17820	         1.12314e+58
          1363.98450	         1.11503e+58
          1364.79080	         1.16810e+58
          1365.59710	         1.29714e+58
          1366.40340	         1.17191e+58
          1367.20970	         9.90904e+57
          1368.01600	         9.04811e+57
          1368.82230	         9.54059e+57
          1369.62860	         9.47809e+57
          1370.43490	         8.98317e+57
          1371.24120	         1.02123e+58
          1372.04750	         9.20540e+57
          1372.85380	         9.65786e+57
          1373.66010	         1.02785e+58
          1374.46640	         9.71050e+57
          1375.27270	         1.02701e+58
          1376.07900	         1.03951e+58
          1376.88530	         9.45631e+57
          1377.69160	         8.16984e+57
          1378.49790	         7.72442e+57
          1379.30420	         8.72217e+57
          1380.11050	         8.90878e+57
          1380.91680	         8.08356e+57
          1381.72310	         7.16887e+57
          1382.52940	         8.68262e+57
          1383.33570	         7.81349e+57
          1384.14200	         8.47424e+57
          1384.94830	         1.01033e+58
          1385.75460	         9.37417e+57
          1386.56090	         1.08548e+58
          1387.36720	         1.18663e+58
          1388.17350	         1.19580e+58
          1388.97980	         9.56016e+57
          1389.78610	         7.99274e+57
          1390.59240	         7.58275e+57
          1391.39870	         6.84037e+57
          1392.20500	         8.13400e+57
          1393.01130	         8.62193e+57
          1393.81760	         7.82158e+57
          1394.62390	         7.20583e+57
          1395.43020	         7.77669e+57
          1396.23650	         7.25721e+57
          1397.04280	         7.98736e+57
          1397.84910	         8.53046e+57
          1398.65540	         8.38175e+57
          1399.46170	         9.00555e+57
          1400.26800	         7.99170e+57
          1401.07430	         7.09452e+57
          1401.88060	         8.18152e+57
          1402.68690	         8.34915e+57
          1403.49320	         9.03098e+57
          1404.29950	         8.88412e+57
          1405.10580	         9.34762e+57
          1405.91210	         1.00015e+58
          1406.71840	         1.00721e+58
          1407.52470	         9.10516e+57
          1408.33100	         1.00660e+58
          1409.13730	         1.24624e+58
          1409.94360	         1.25698e+58
          1410.74990	         1.19942e+58
          1411.55620	         1.02051e+58
          1412.36250	         9.43950e+57
          1413.16880	         9.99143e+57
          1413.97510	         7.74722e+57
          1414.78140	         7.67359e+57
          1415.58770	         1.04483e+58
          1416.39400	         1.17443e+58
          1417.20030	         1.09236e+58
          1418.00660	         1.03159e+58
          1418.81290	         1.21579e+58
          1419.61920	         1.24879e+58
          1420.42550	         1.43749e+58
          1421.23180	         1.39156e+58
          1422.03810	         1.06327e+58
          1422.84440	         1.10687e+58
          1423.65070	         1.32807e+58
          1424.45700	         1.20728e+58
          1425.26330	         9.05309e+57
          1426.06960	         8.36779e+57
          1426.87590	         9.73690e+57
          1427.68220	         9.94292e+57
          1428.48850	         1.06758e+58
          1429.29480	         1.13207e+58
          1430.10110	         1.03246e+58
          1430.90740	         8.63399e+57
          1431.71370	         9.54398e+57
          1432.52000	         8.95367e+57
          1433.32630	         8.37775e+57
          1434.13260	         8.39631e+57
          1434.93890	         8.38851e+57
          1435.74520	         8.84985e+57
          1436.55150	         9.65482e+57
          1437.35780	         9.66309e+57
          1438.16410	         1.00820e+58
          1438.97040	         9.51731e+57
          1439.77670	         8.65931e+57
          1440.58300	         8.69749e+57
          1441.38930	         8.50280e+57
          1442.19560	         9.23372e+57
          1443.00190	         9.29153e+57
          1443.80820	         1.07983e+58
          1444.61450	         9.53720e+57
          1445.42080	         7.04520e+57
          1446.22710	         8.66232e+57
          1447.03340	         1.02205e+58
          1447.83970	         1.08055e+58
          1448.64600	         9.94457e+57
          1449.45230	         1.07068e+58
          1450.25860	         1.16620e+58
          1451.06490	         9.78807e+57
          1451.87120	         8.06307e+57
          1452.67750	         7.92021e+57
          1453.48380	         9.03822e+57
          1454.29010	         8.10908e+57
          1455.09640	         7.45130e+57
          1455.90270	         8.63646e+57
          1456.70900	         9.31984e+57
          1457.51530	         1.10375e+58
          1458.32160	         1.26361e+58
          1459.12790	         1.14698e+58
          1459.93420	         8.53346e+57
          1460.74050	         6.52297e+57
          1461.54680	         7.37397e+57
          1462.35310	         9.02272e+57
          1463.15940	         9.96012e+57
          1463.96570	         9.61511e+57
          1464.77200	         1.12712e+58
          1465.57830	         1.18532e+58
          1466.38460	         9.92042e+57
          1467.19090	         7.97027e+57
          1467.99720	         8.28712e+57
          1468.80350	         9.33898e+57
          1469.60980	         9.44419e+57
          1470.41610	         1.10595e+58
          1471.22240	         1.13930e+58
          1472.02870	         1.08291e+58
          1472.83500	         1.04788e+58
          1473.64130	         1.04187e+58
          1474.44760	         1.07734e+58
          1475.25390	         1.00835e+58
          1476.06020	         8.47960e+57
          1476.86650	         8.42209e+57
          1477.67280	         8.45495e+57
          1478.47910	         7.25343e+57
          1479.28540	         8.06966e+57
          1480.09170	         9.40166e+57
          1480.89800	         9.22177e+57
          1481.70430	         9.03476e+57
          1482.51060	         8.43696e+57
          1483.31690	         8.04742e+57
          1484.12320	         7.98116e+57
          1484.92950	         7.90334e+57
          1485.73580	         8.87823e+57
          1486.54210	         9.46253e+57
          1487.34840	         8.72604e+57
          1488.15470	         7.08895e+57
          1488.96100	         7.50329e+57
          1489.76730	         8.89379e+57
