#sample_31_stacked_spectrum_rest_UV-bands_median_H-alpha_noDC.txt
#median Lum: 1.69188e+42
#Rest-frame wavelength (A) | Luminosity (erg/s/A)
#
          1110.00000	         0.00000e+00
          1110.80630	         2.66897e+59
          1111.61260	         4.37860e+59
          1112.41890	         7.94856e+58
          1113.22520	        -1.05668e+58
          1114.03150	         3.29375e+57
          1114.83780	         2.45944e+59
          1115.64410	         1.89360e+59
          1116.45040	         2.45851e+59
          1117.25670	         1.92112e+59
          1118.06300	         6.54252e+58
          1118.86930	        -2.73633e+58
          1119.67560	         1.43086e+59
          1120.48190	        -3.14508e+58
          1121.28820	        -1.31265e+59
          1122.09450	         1.76915e+58
          1122.90080	         3.97874e+58
          1123.70710	         7.92279e+58
          1124.51340	         1.44834e+59
          1125.31970	         4.66586e+58
          1126.12600	        -1.26773e+58
          1126.93230	        -6.00838e+58
          1127.73860	        -8.34412e+58
          1128.54490	         6.37132e+57
          1129.35120	         3.41179e+58
          1130.15750	        -1.08142e+58
          1130.96380	        -5.03310e+58
          1131.77010	         5.26704e+58
          1132.57640	         5.95535e+58
          1133.38270	         2.88486e+58
          1134.18900	         1.69685e+58
          1134.99530	        -3.56317e+56
          1135.80160	         1.98325e+58
          1136.60790	         2.77734e+58
          1137.41420	         2.69359e+58
          1138.22050	         1.92354e+58
          1139.02680	         3.61493e+58
          1139.83310	         1.71924e+58
          1140.63940	         1.94816e+58
          1141.44570	         1.20217e+58
          1142.25200	         1.43649e+58
          1143.05830	         2.35270e+58
          1143.86460	         2.35238e+58
          1144.67090	         1.85092e+58
          1145.47720	         9.25398e+57
          1146.28350	         8.02021e+57
          1147.08980	         6.20809e+57
          1147.89610	         1.53272e+58
          1148.70240	         1.42511e+58
          1149.50870	         1.67804e+58
          1150.31500	         1.91574e+58
          1151.12130	         7.41691e+57
          1151.92760	        -3.42405e+57
          1152.73390	        -6.73856e+56
          1153.54020	         8.05008e+57
          1154.34650	         2.07972e+58
          1155.15280	         1.53935e+58
          1155.95910	         7.46573e+57
          1156.76540	         1.16267e+58
          1157.57170	         1.75147e+57
          1158.37800	        -8.17122e+57
          1159.18430	        -1.11546e+58
          1159.99060	         2.11165e+57
          1160.79690	         6.42193e+57
          1161.60320	         1.20658e+58
          1162.40950	         1.57046e+58
          1163.21580	         1.45700e+58
          1164.02210	         1.59727e+58
          1164.82840	         9.09941e+57
          1165.63470	         1.45236e+58
          1166.44100	         3.03293e+58
          1167.24730	         1.59748e+58
          1168.05360	         9.55908e+57
          1168.85990	         1.33983e+58
          1169.66620	         8.78712e+57
          1170.47250	         9.67417e+57
          1171.27880	         9.29603e+57
          1172.08510	         1.95587e+58
          1172.89140	         1.30056e+58
          1173.69770	         1.35477e+58
          1174.50400	         1.54252e+58
          1175.31030	         1.58171e+58
          1176.11660	         2.29476e+58
          1176.92290	         1.72389e+58
          1177.72920	         1.20460e+58
          1178.53550	         8.83140e+57
          1179.34180	         2.66866e+57
          1180.14810	         7.42515e+57
          1180.95440	         1.38545e+58
          1181.76070	         6.26462e+57
          1182.56700	         4.51209e+57
          1183.37330	         6.41206e+57
          1184.17960	         8.22312e+57
          1184.98590	         1.10508e+58
          1185.79220	         9.11358e+57
          1186.59850	         1.33694e+58
          1187.40480	         7.20891e+57
          1188.21110	         1.32520e+58
          1189.01740	         1.27559e+58
          1189.82370	         9.39451e+57
          1190.63000	         7.20138e+57
          1191.43630	         1.00893e+58
          1192.24260	         9.99845e+57
          1193.04890	         1.01705e+58
          1193.85520	         8.56280e+57
          1194.66150	         4.94427e+57
          1195.46780	         1.48242e+58
          1196.27410	         1.92283e+58
          1197.08040	         1.10514e+58
          1197.88670	         1.77569e+58
          1198.69300	         1.52533e+58
          1199.49930	         1.60313e+58
          1200.30560	         1.45923e+58
          1201.11190	         1.00361e+58
          1201.91820	         7.39107e+57
          1202.72450	         5.40164e+57
          1203.53080	         9.81601e+57
          1204.33710	         1.18453e+58
          1205.14340	         8.85849e+57
          1205.94970	         7.02623e+57
          1206.75600	         1.01366e+58
          1207.56230	         6.73986e+57
          1208.36860	         1.18036e+58
          1209.17490	         5.17663e+57
          1209.98120	         3.38547e+57
          1210.78750	         4.21684e+57
          1211.59380	         9.23182e+57
          1212.40010	         2.16203e+58
          1213.20640	         1.99251e+58
          1214.01270	         1.93366e+58
          1214.81900	         2.47148e+58
          1215.62530	         4.40062e+58
          1216.43160	         8.80733e+58
          1217.23790	         1.47121e+59
          1218.04420	         1.18290e+59
          1218.85050	         8.60215e+58
          1219.65680	         5.62333e+58
          1220.46310	         3.74419e+58
          1221.26940	         2.38978e+58
          1222.07570	         1.52291e+58
          1222.88200	         1.09561e+58
          1223.68830	         8.11442e+57
          1224.49460	         3.94652e+57
          1225.30090	         8.40883e+57
          1226.10720	         7.99232e+57
          1226.91350	         6.17413e+57
          1227.71980	         1.00668e+58
          1228.52610	         1.18249e+58
          1229.33240	         8.16526e+57
          1230.13870	         9.28647e+57
          1230.94500	         1.35579e+58
          1231.75130	         7.49867e+57
          1232.55760	         6.05597e+57
          1233.36390	         9.23159e+57
          1234.17020	         1.02838e+58
          1234.97650	         1.01418e+58
          1235.78280	         9.84785e+57
          1236.58910	         8.88387e+57
          1237.39540	         7.78320e+57
          1238.20170	         8.31533e+57
          1239.00800	         1.13163e+58
          1239.81430	         1.25480e+58
          1240.62060	         9.73465e+57
          1241.42690	         1.04349e+58
          1242.23320	         1.23120e+58
          1243.03950	         7.87234e+57
          1243.84580	         7.97570e+57
          1244.65210	         8.99919e+57
          1245.45840	         1.01111e+58
          1246.26470	         1.04235e+58
          1247.07100	         7.47391e+57
          1247.87730	         5.43069e+57
          1248.68360	         5.31138e+57
          1249.48990	         9.80277e+57
          1250.29620	         1.14522e+58
          1251.10250	         1.05952e+58
          1251.90880	         7.80931e+57
          1252.71510	         4.82196e+57
          1253.52140	         4.76916e+57
          1254.32770	         8.95970e+57
          1255.13400	         1.21357e+58
          1255.94030	         1.12305e+58
          1256.74660	         1.07162e+58
          1257.55290	         1.23377e+58
          1258.35920	         8.68058e+57
          1259.16550	         4.90672e+57
          1259.97180	         5.59337e+57
          1260.77810	         8.73286e+57
          1261.58440	         1.05265e+58
          1262.39070	         9.26271e+57
          1263.19700	         8.58476e+57
          1264.00330	         9.45010e+57
          1264.80960	         1.03032e+58
          1265.61590	         1.26156e+58
          1266.42220	         1.18688e+58
          1267.22850	         1.22842e+58
          1268.03480	         1.44159e+58
          1268.84110	         1.47580e+58
          1269.64740	         1.32289e+58
          1270.45370	         1.37890e+58
          1271.26000	         1.56703e+58
          1272.06630	         1.62981e+58
          1272.87260	         1.47677e+58
          1273.67890	         1.44978e+58
          1274.48520	         1.36995e+58
          1275.29150	         1.26444e+58
          1276.09780	         9.88711e+57
          1276.90410	         1.45678e+58
          1277.71040	         1.46246e+58
          1278.51670	         1.12485e+58
          1279.32300	         1.27076e+58
          1280.12930	         1.24269e+58
          1280.93560	         1.14102e+58
          1281.74190	         1.14264e+58
          1282.54820	         1.17017e+58
          1283.35450	         1.04263e+58
          1284.16080	         1.31946e+58
          1284.96710	         1.62968e+58
          1285.77340	         1.25000e+58
          1286.57970	         1.10673e+58
          1287.38600	         1.49917e+58
          1288.19230	         1.84733e+58
          1288.99860	         1.73107e+58
          1289.80490	         1.13831e+58
          1290.61120	         1.24975e+58
          1291.41750	         1.50821e+58
          1292.22380	         1.36735e+58
          1293.03010	         1.05888e+58
          1293.83640	         1.00594e+58
          1294.64270	         1.11049e+58
          1295.44900	         1.06603e+58
          1296.25530	         9.85376e+57
          1297.06160	         1.06596e+58
          1297.86790	         1.08112e+58
          1298.67420	         8.86249e+57
          1299.48050	         8.32415e+57
          1300.28680	         9.41193e+57
          1301.09310	         7.99372e+57
          1301.89940	         4.49697e+57
          1302.70570	         6.38232e+57
          1303.51200	         9.13745e+57
          1304.31830	         1.05761e+58
          1305.12460	         1.14308e+58
          1305.93090	         1.23031e+58
          1306.73720	         1.24990e+58
          1307.54350	         1.37008e+58
          1308.34980	         1.39478e+58
          1309.15610	         1.34493e+58
          1309.96240	         1.42602e+58
          1310.76870	         1.37895e+58
          1311.57500	         9.88312e+57
          1312.38130	         1.01986e+58
          1313.18760	         1.50949e+58
          1313.99390	         1.65474e+58
          1314.80020	         1.72030e+58
          1315.60650	         1.59669e+58
          1316.41280	         1.18134e+58
          1317.21910	         9.96675e+57
          1318.02540	         1.03231e+58
          1318.83170	         1.12069e+58
          1319.63800	         9.85665e+57
          1320.44430	         1.04115e+58
          1321.25060	         1.20800e+58
          1322.05690	         1.10614e+58
          1322.86320	         1.16980e+58
          1323.66950	         9.56940e+57
          1324.47580	         7.93464e+57
          1325.28210	         9.57498e+57
          1326.08840	         1.16922e+58
          1326.89470	         1.42955e+58
          1327.70100	         1.21698e+58
          1328.50730	         8.65523e+57
          1329.31360	         9.04724e+57
          1330.11990	         9.45185e+57
          1330.92620	         1.03466e+58
          1331.73250	         1.18922e+58
          1332.53880	         1.00865e+58
          1333.34510	         8.87018e+57
          1334.15140	         9.18026e+57
          1334.95770	         8.81232e+57
          1335.76400	         1.08922e+58
          1336.57030	         1.14251e+58
          1337.37660	         1.01747e+58
          1338.18290	         9.34065e+57
          1338.98920	         1.03076e+58
          1339.79550	         1.19345e+58
          1340.60180	         1.22064e+58
          1341.40810	         1.32710e+58
          1342.21440	         1.13541e+58
          1343.02070	         1.24355e+58
          1343.82700	         1.37205e+58
          1344.63330	         1.18561e+58
          1345.43960	         1.35321e+58
          1346.24590	         1.17237e+58
          1347.05220	         9.86785e+57
          1347.85850	         9.97067e+57
          1348.66480	         1.21202e+58
          1349.47110	         1.24763e+58
          1350.27740	         1.19745e+58
          1351.08370	         1.24730e+58
          1351.89000	         1.26132e+58
          1352.69630	         1.17348e+58
          1353.50260	         1.17190e+58
          1354.30890	         1.11121e+58
          1355.11520	         1.09392e+58
          1355.92150	         1.17370e+58
          1356.72780	         1.09656e+58
          1357.53410	         1.14195e+58
          1358.34040	         1.22328e+58
          1359.14670	         1.15680e+58
          1359.95300	         1.19069e+58
          1360.75930	         1.29620e+58
          1361.56560	         1.16894e+58
          1362.37190	         1.14309e+58
          1363.17820	         1.24753e+58
          1363.98450	         1.36330e+58
          1364.79080	         1.37264e+58
          1365.59710	         1.35782e+58
          1366.40340	         1.23466e+58
          1367.20970	         1.11420e+58
          1368.01600	         1.16563e+58
          1368.82230	         1.02260e+58
          1369.62860	         1.09029e+58
          1370.43490	         9.11323e+57
          1371.24120	         7.78881e+57
          1372.04750	         7.87511e+57
          1372.85380	         1.14931e+58
          1373.66010	         1.24461e+58
          1374.46640	         1.13438e+58
          1375.27270	         1.13792e+58
          1376.07900	         1.04663e+58
          1376.88530	         8.94680e+57
          1377.69160	         8.52395e+57
          1378.49790	         7.83994e+57
          1379.30420	         8.14710e+57
          1380.11050	         8.73299e+57
          1380.91680	         8.79458e+57
          1381.72310	         9.19002e+57
          1382.52940	         7.45984e+57
          1383.33570	         7.62555e+57
          1384.14200	         1.05853e+58
          1384.94830	         1.15716e+58
          1385.75460	         1.20484e+58
          1386.56090	         1.31161e+58
          1387.36720	         1.16909e+58
          1388.17350	         1.22745e+58
          1388.97980	         1.12587e+58
          1389.78610	         9.20225e+57
          1390.59240	         8.22146e+57
          1391.39870	         8.19215e+57
          1392.20500	         8.93539e+57
          1393.01130	         7.79248e+57
          1393.81760	         6.45986e+57
          1394.62390	         7.06332e+57
          1395.43020	         7.15834e+57
          1396.23650	         6.93205e+57
          1397.04280	         8.52764e+57
          1397.84910	         9.48261e+57
          1398.65540	         9.26704e+57
          1399.46170	         1.03058e+58
          1400.26800	         8.70438e+57
          1401.07430	         7.49389e+57
          1401.88060	         9.27736e+57
          1402.68690	         1.00972e+58
          1403.49320	         8.82821e+57
          1404.29950	         7.79309e+57
          1405.10580	         9.20791e+57
          1405.91210	         9.76340e+57
          1406.71840	         1.05431e+58
          1407.52470	         1.09575e+58
          1408.33100	         1.07278e+58
          1409.13730	         1.14907e+58
          1409.94360	         1.16341e+58
          1410.74990	         1.11682e+58
          1411.55620	         1.00833e+58
          1412.36250	         9.34810e+57
          1413.16880	         8.49839e+57
          1413.97510	         9.22922e+57
          1414.78140	         1.00278e+58
          1415.58770	         1.23611e+58
          1416.39400	         1.25379e+58
          1417.20030	         1.09857e+58
          1418.00660	         9.35710e+57
          1418.81290	         9.57437e+57
          1419.61920	         1.25391e+58
          1420.42550	         1.34368e+58
          1421.23180	         1.46292e+58
          1422.03810	         1.24580e+58
          1422.84440	         1.11292e+58
          1423.65070	         1.23924e+58
          1424.45700	         1.12559e+58
          1425.26330	         8.16781e+57
          1426.06960	         8.24459e+57
          1426.87590	         1.02737e+58
          1427.68220	         9.71546e+57
          1428.48850	         9.83156e+57
          1429.29480	         1.05909e+58
          1430.10110	         1.00796e+58
          1430.90740	         8.87562e+57
          1431.71370	         9.35381e+57
          1432.52000	         9.21386e+57
          1433.32630	         7.86742e+57
          1434.13260	         7.75810e+57
          1434.93890	         7.23907e+57
          1435.74520	         7.62477e+57
          1436.55150	         8.83050e+57
          1437.35780	         9.30402e+57
          1438.16410	         9.06034e+57
          1438.97040	         8.45353e+57
          1439.77670	         8.39790e+57
          1440.58300	         9.98418e+57
          1441.38930	         1.02233e+58
          1442.19560	         1.01287e+58
          1443.00190	         9.64117e+57
          1443.80820	         1.07956e+58
          1444.61450	         1.00975e+58
          1445.42080	         8.66766e+57
          1446.22710	         1.12456e+58
          1447.03340	         1.11136e+58
          1447.83970	         1.08455e+58
          1448.64600	         1.07298e+58
          1449.45230	         1.10688e+58
          1450.25860	         1.05578e+58
          1451.06490	         8.09120e+57
          1451.87120	         7.51679e+57
          1452.67750	         7.87335e+57
          1453.48380	         8.22275e+57
          1454.29010	         7.19642e+57
          1455.09640	         7.38188e+57
          1455.90270	         9.70478e+57
          1456.70900	         9.32748e+57
          1457.51530	         9.70654e+57
          1458.32160	         1.19572e+58
          1459.12790	         1.14414e+58
          1459.93420	         1.03490e+58
          1460.74050	         8.20971e+57
          1461.54680	         7.95969e+57
          1462.35310	         6.88970e+57
          1463.15940	         8.61104e+57
          1463.96570	         1.04656e+58
          1464.77200	         1.11622e+58
          1465.57830	         1.04785e+58
          1466.38460	         1.00033e+58
          1467.19090	         9.53143e+57
          1467.99720	         9.45307e+57
          1468.80350	         9.67123e+57
          1469.60980	         1.00779e+58
          1470.41610	         1.07383e+58
          1471.22240	         9.35708e+57
          1472.02870	         1.01472e+58
          1472.83500	         9.67919e+57
          1473.64130	         8.91473e+57
          1474.44760	         9.80959e+57
          1475.25390	         9.77764e+57
          1476.06020	         9.38056e+57
          1476.86650	         9.06620e+57
          1477.67280	         8.70911e+57
          1478.47910	         7.27672e+57
          1479.28540	         7.54963e+57
          1480.09170	         9.25709e+57
          1480.89800	         9.20370e+57
          1481.70430	         8.86096e+57
          1482.51060	         7.68284e+57
          1483.31690	         8.44458e+57
          1484.12320	         8.36579e+57
          1484.92950	         7.83135e+57
          1485.73580	         8.07005e+57
          1486.54210	         8.55500e+57
          1487.34840	         9.84706e+57
          1488.15470	         8.87073e+57
          1488.96100	         8.62685e+57
          1489.76730	         9.43290e+57
