#sample_251_stacked_spectrum_rest_UV-bands_median_H-alpha_noDC.txt
#median Lum: 1.71158e+42
#Rest-frame wavelength (A) | Luminosity (erg/s/A)
#
          1110.00000	         0.00000e+00
          1110.80630	         1.51526e+59
          1111.61260	         3.59804e+59
          1112.41890	         3.89621e+58
          1113.22520	         1.33411e+59
          1114.03150	         1.00666e+59
          1114.83780	         1.05980e+59
          1115.64410	         2.43908e+58
          1116.45040	         2.15233e+59
          1117.25670	         4.68399e+58
          1118.06300	         8.91185e+58
          1118.86930	        -1.62292e+58
          1119.67560	         5.42784e+58
          1120.48190	        -1.35270e+58
          1121.28820	        -1.10671e+59
          1122.09450	         5.16702e+58
          1122.90080	        -3.31765e+57
          1123.70710	        -6.19925e+57
          1124.51340	         4.31315e+58
          1125.31970	        -7.53351e+57
          1126.12600	         1.27131e+58
          1126.93230	        -6.51451e+58
          1127.73860	        -3.00427e+58
          1128.54490	         7.98682e+57
          1129.35120	         6.27587e+58
          1130.15750	         1.83286e+58
          1130.96380	         2.85090e+57
          1131.77010	         4.70925e+58
          1132.57640	         2.75424e+58
          1133.38270	         3.65219e+58
          1134.18900	         4.15360e+58
          1134.99530	         3.54900e+58
          1135.80160	         3.34801e+58
          1136.60790	         2.58137e+58
          1137.41420	        -5.39397e+57
          1138.22050	         2.64786e+58
          1139.02680	         2.16863e+58
          1139.83310	         1.23105e+58
          1140.63940	         1.00022e+58
          1141.44570	        -2.69543e+58
          1142.25200	         6.46322e+55
          1143.05830	         2.74470e+58
          1143.86460	         2.00621e+58
          1144.67090	         1.97728e+58
          1145.47720	         2.07012e+58
          1146.28350	         9.57217e+57
          1147.08980	         1.24804e+58
          1147.89610	         8.01200e+57
          1148.70240	         1.31378e+58
          1149.50870	         3.32268e+58
          1150.31500	         1.74759e+58
          1151.12130	         7.46447e+57
          1151.92760	        -2.69969e+57
          1152.73390	         9.31102e+57
          1153.54020	        -2.71157e+57
          1154.34650	         1.79310e+58
          1155.15280	         2.32203e+58
          1155.95910	         3.33303e+57
          1156.76540	         8.33318e+57
          1157.57170	         1.31454e+58
          1158.37800	        -5.98252e+57
          1159.18430	        -1.07158e+58
          1159.99060	         1.58249e+57
          1160.79690	         6.52074e+57
          1161.60320	         3.77409e+57
          1162.40950	         2.40472e+58
          1163.21580	         2.52760e+58
          1164.02210	         1.29211e+58
          1164.82840	         3.81833e+57
          1165.63470	         1.78054e+58
          1166.44100	         2.45686e+58
          1167.24730	         1.80950e+58
          1168.05360	         1.13709e+58
          1168.85990	         4.85711e+57
          1169.66620	         1.29336e+58
          1170.47250	         2.01772e+58
          1171.27880	         1.09368e+58
          1172.08510	         1.24085e+58
          1172.89140	         6.09778e+57
          1173.69770	         9.43498e+57
          1174.50400	         1.52499e+58
          1175.31030	         1.33840e+58
          1176.11660	         1.19536e+58
          1176.92290	         1.35023e+58
          1177.72920	         1.10711e+58
          1178.53550	         8.84069e+57
          1179.34180	         8.04220e+57
          1180.14810	         1.04845e+58
          1180.95440	         9.00678e+57
          1181.76070	         4.89834e+57
          1182.56700	         5.93958e+57
          1183.37330	         8.35797e+57
          1184.17960	         1.00844e+58
          1184.98590	         1.02878e+58
          1185.79220	         7.54030e+57
          1186.59850	         1.10368e+58
          1187.40480	         1.58594e+58
          1188.21110	         1.74168e+58
          1189.01740	         1.34873e+58
          1189.82370	         1.21887e+58
          1190.63000	         6.78508e+57
          1191.43630	         5.75002e+57
          1192.24260	         8.05548e+57
          1193.04890	         1.37831e+58
          1193.85520	         9.55849e+57
          1194.66150	         4.08802e+56
          1195.46780	         1.21413e+58
          1196.27410	         1.88790e+58
          1197.08040	         1.18936e+58
          1197.88670	         1.63840e+58
          1198.69300	         1.98198e+58
          1199.49930	         1.92516e+58
          1200.30560	         1.20619e+58
          1201.11190	         5.91476e+57
          1201.91820	         5.97056e+57
          1202.72450	         6.03443e+57
          1203.53080	         1.56020e+58
          1204.33710	         7.44243e+57
          1205.14340	         6.94609e+57
          1205.94970	         9.10986e+57
          1206.75600	         7.36829e+57
          1207.56230	         5.92952e+57
          1208.36860	         1.08141e+58
          1209.17490	         5.97399e+57
          1209.98120	         4.32251e+57
          1210.78750	         5.14430e+57
          1211.59380	         1.30381e+58
          1212.40010	         1.94121e+58
          1213.20640	         1.90821e+58
          1214.01270	         2.07267e+58
          1214.81900	         2.41780e+58
          1215.62530	         3.94830e+58
          1216.43160	         9.18892e+58
          1217.23790	         1.47483e+59
          1218.04420	         1.12728e+59
          1218.85050	         8.56163e+58
          1219.65680	         5.65095e+58
          1220.46310	         3.46239e+58
          1221.26940	         2.06194e+58
          1222.07570	         1.25463e+58
          1222.88200	         1.11635e+58
          1223.68830	         1.00863e+58
          1224.49460	         6.99877e+57
          1225.30090	         6.06928e+57
          1226.10720	         8.80182e+57
          1226.91350	         8.73801e+57
          1227.71980	         9.86069e+57
          1228.52610	         1.04943e+58
          1229.33240	         9.76770e+57
          1230.13870	         7.53866e+57
          1230.94500	         8.85341e+57
          1231.75130	         5.51509e+57
          1232.55760	         8.94625e+57
          1233.36390	         8.80109e+57
          1234.17020	         8.95134e+57
          1234.97650	         8.31728e+57
          1235.78280	         7.71332e+57
          1236.58910	         7.66523e+57
          1237.39540	         7.92983e+57
          1238.20170	         7.40632e+57
          1239.00800	         1.00748e+58
          1239.81430	         1.41185e+58
          1240.62060	         1.13085e+58
          1241.42690	         7.89806e+57
          1242.23320	         1.02405e+58
          1243.03950	         6.62848e+57
          1243.84580	         7.47674e+57
          1244.65210	         9.36938e+57
          1245.45840	         1.07839e+58
          1246.26470	         8.97565e+57
          1247.07100	         6.44877e+57
          1247.87730	         5.50430e+57
          1248.68360	         4.76085e+57
          1249.48990	         9.21013e+57
          1250.29620	         1.17950e+58
          1251.10250	         6.53096e+57
          1251.90880	         3.62509e+57
          1252.71510	         4.64554e+57
          1253.52140	         6.77987e+57
          1254.32770	         7.75281e+57
          1255.13400	         1.20303e+58
          1255.94030	         1.21465e+58
          1256.74660	         9.30309e+57
          1257.55290	         9.72889e+57
          1258.35920	         8.77970e+57
          1259.16550	         6.38789e+57
          1259.97180	         4.84495e+57
          1260.77810	         6.84236e+57
          1261.58440	         1.11124e+58
          1262.39070	         9.39736e+57
          1263.19700	         8.79799e+57
          1264.00330	         1.14609e+58
          1264.80960	         1.19717e+58
          1265.61590	         1.28861e+58
          1266.42220	         1.16645e+58
          1267.22850	         1.06430e+58
          1268.03480	         1.41842e+58
          1268.84110	         1.46719e+58
          1269.64740	         1.42053e+58
          1270.45370	         1.39761e+58
          1271.26000	         1.16467e+58
          1272.06630	         1.16554e+58
          1272.87260	         1.14966e+58
          1273.67890	         1.24650e+58
          1274.48520	         1.20382e+58
          1275.29150	         1.07929e+58
          1276.09780	         1.00192e+58
          1276.90410	         1.53136e+58
          1277.71040	         1.45138e+58
          1278.51670	         1.11519e+58
          1279.32300	         1.34311e+58
          1280.12930	         1.33930e+58
          1280.93560	         9.28945e+57
          1281.74190	         1.03627e+58
          1282.54820	         1.24762e+58
          1283.35450	         9.71250e+57
          1284.16080	         8.08641e+57
          1284.96710	         1.04142e+58
          1285.77340	         9.76486e+57
          1286.57970	         1.11678e+58
          1287.38600	         1.54247e+58
          1288.19230	         1.56133e+58
          1288.99860	         1.38708e+58
          1289.80490	         1.14504e+58
          1290.61120	         1.31985e+58
          1291.41750	         1.24927e+58
          1292.22380	         1.06999e+58
          1293.03010	         1.03023e+58
          1293.83640	         1.08884e+58
          1294.64270	         9.11920e+57
          1295.44900	         5.79026e+57
          1296.25530	         7.58136e+57
          1297.06160	         9.85826e+57
          1297.86790	         7.96535e+57
          1298.67420	         6.41095e+57
          1299.48050	         7.58005e+57
          1300.28680	         9.66627e+57
          1301.09310	         7.77606e+57
          1301.89940	         5.01550e+57
          1302.70570	         7.86897e+57
          1303.51200	         9.58807e+57
          1304.31830	         1.02474e+58
          1305.12460	         1.05087e+58
          1305.93090	         1.01393e+58
          1306.73720	         1.18946e+58
          1307.54350	         1.40622e+58
          1308.34980	         1.38534e+58
          1309.15610	         1.46260e+58
          1309.96240	         1.53313e+58
          1310.76870	         1.25009e+58
          1311.57500	         1.02601e+58
          1312.38130	         1.17010e+58
          1313.18760	         1.21058e+58
          1313.99390	         1.52538e+58
          1314.80020	         1.69220e+58
          1315.60650	         1.48894e+58
          1316.41280	         1.40141e+58
          1317.21910	         1.34090e+58
          1318.02540	         1.33687e+58
          1318.83170	         1.19325e+58
          1319.63800	         1.09458e+58
          1320.44430	         1.13872e+58
          1321.25060	         1.29607e+58
          1322.05690	         1.32424e+58
          1322.86320	         1.29745e+58
          1323.66950	         1.18777e+58
          1324.47580	         1.07814e+58
          1325.28210	         1.05480e+58
          1326.08840	         1.17555e+58
          1326.89470	         1.20512e+58
          1327.70100	         9.83048e+57
          1328.50730	         8.32569e+57
          1329.31360	         1.01478e+58
          1330.11990	         1.01770e+58
          1330.92620	         9.36156e+57
          1331.73250	         1.08330e+58
          1332.53880	         1.00988e+58
          1333.34510	         8.48513e+57
          1334.15140	         8.12361e+57
          1334.95770	         8.47682e+57
          1335.76400	         9.98790e+57
          1336.57030	         9.80818e+57
          1337.37660	         1.01438e+58
          1338.18290	         1.06172e+58
          1338.98920	         1.09405e+58
          1339.79550	         1.12513e+58
          1340.60180	         1.15287e+58
          1341.40810	         1.43155e+58
          1342.21440	         1.34851e+58
          1343.02070	         1.14233e+58
          1343.82700	         1.17295e+58
          1344.63330	         1.24965e+58
          1345.43960	         1.28816e+58
          1346.24590	         1.10946e+58
          1347.05220	         1.02355e+58
          1347.85850	         9.38465e+57
          1348.66480	         1.03404e+58
          1349.47110	         1.14648e+58
          1350.27740	         1.18258e+58
          1351.08370	         1.19711e+58
          1351.89000	         1.23452e+58
          1352.69630	         1.27898e+58
          1353.50260	         1.16998e+58
          1354.30890	         1.27820e+58
          1355.11520	         1.25132e+58
          1355.92150	         1.09597e+58
          1356.72780	         1.09898e+58
          1357.53410	         1.01872e+58
          1358.34040	         1.05592e+58
          1359.14670	         1.01583e+58
          1359.95300	         1.10947e+58
          1360.75930	         1.14950e+58
          1361.56560	         9.90696e+57
          1362.37190	         1.07837e+58
          1363.17820	         1.09024e+58
          1363.98450	         1.10584e+58
          1364.79080	         1.23364e+58
          1365.59710	         1.30480e+58
          1366.40340	         1.27389e+58
          1367.20970	         1.06195e+58
          1368.01600	         1.04703e+58
          1368.82230	         9.91973e+57
          1369.62860	         9.80467e+57
          1370.43490	         7.78962e+57
          1371.24120	         6.31938e+57
          1372.04750	         7.98236e+57
          1372.85380	         1.16006e+58
          1373.66010	         1.26731e+58
          1374.46640	         1.24687e+58
          1375.27270	         1.16813e+58
          1376.07900	         9.54010e+57
          1376.88530	         8.91277e+57
          1377.69160	         8.78372e+57
          1378.49790	         7.68296e+57
          1379.30420	         8.33307e+57
          1380.11050	         9.84839e+57
          1380.91680	         8.93814e+57
          1381.72310	         7.02463e+57
          1382.52940	         8.44314e+57
          1383.33570	         8.53087e+57
          1384.14200	         9.26641e+57
          1384.94830	         1.13841e+58
          1385.75460	         1.03161e+58
          1386.56090	         9.23162e+57
          1387.36720	         8.99181e+57
          1388.17350	         1.12939e+58
          1388.97980	         9.86617e+57
          1389.78610	         7.72252e+57
          1390.59240	         8.32411e+57
          1391.39870	         6.72719e+57
          1392.20500	         8.10428e+57
          1393.01130	         8.21733e+57
          1393.81760	         7.71442e+57
          1394.62390	         7.59088e+57
          1395.43020	         6.81748e+57
          1396.23650	         6.92521e+57
          1397.04280	         8.81409e+57
          1397.84910	         1.05909e+58
          1398.65540	         9.35337e+57
          1399.46170	         9.16201e+57
          1400.26800	         7.67411e+57
          1401.07430	         7.36588e+57
          1401.88060	         7.15884e+57
          1402.68690	         8.87668e+57
          1403.49320	         1.01412e+58
          1404.29950	         9.00268e+57
          1405.10580	         1.06376e+58
          1405.91210	         1.15974e+58
          1406.71840	         1.08429e+58
          1407.52470	         1.03229e+58
          1408.33100	         1.06457e+58
          1409.13730	         1.14219e+58
          1409.94360	         1.05467e+58
          1410.74990	         1.11099e+58
          1411.55620	         1.04469e+58
          1412.36250	         9.10927e+57
          1413.16880	         8.86530e+57
          1413.97510	         6.65653e+57
          1414.78140	         7.70727e+57
          1415.58770	         1.08582e+58
          1416.39400	         1.07810e+58
          1417.20030	         1.04681e+58
          1418.00660	         9.09892e+57
          1418.81290	         8.66925e+57
          1419.61920	         8.83672e+57
          1420.42550	         1.12553e+58
          1421.23180	         1.35074e+58
          1422.03810	         1.19239e+58
          1422.84440	         1.04591e+58
          1423.65070	         1.22601e+58
          1424.45700	         1.19743e+58
          1425.26330	         9.14151e+57
          1426.06960	         8.50957e+57
          1426.87590	         9.29743e+57
          1427.68220	         1.04350e+58
          1428.48850	         1.15401e+58
          1429.29480	         1.09088e+58
          1430.10110	         9.12719e+57
          1430.90740	         8.11754e+57
          1431.71370	         8.89136e+57
          1432.52000	         8.10273e+57
          1433.32630	         7.28536e+57
          1434.13260	         7.10685e+57
          1434.93890	         7.85401e+57
          1435.74520	         9.03873e+57
          1436.55150	         9.69764e+57
          1437.35780	         8.92847e+57
          1438.16410	         8.79952e+57
          1438.97040	         8.87812e+57
          1439.77670	         7.92549e+57
          1440.58300	         8.73322e+57
          1441.38930	         1.03839e+58
          1442.19560	         1.07329e+58
          1443.00190	         1.03714e+58
          1443.80820	         1.07825e+58
          1444.61450	         1.01101e+58
          1445.42080	         8.14945e+57
          1446.22710	         8.46083e+57
          1447.03340	         9.34574e+57
          1447.83970	         1.10550e+58
          1448.64600	         1.10144e+58
          1449.45230	         1.01649e+58
          1450.25860	         9.68062e+57
          1451.06490	         8.30348e+57
          1451.87120	         7.19007e+57
          1452.67750	         7.95550e+57
          1453.48380	         9.46862e+57
          1454.29010	         8.48762e+57
          1455.09640	         7.21786e+57
          1455.90270	         8.17380e+57
          1456.70900	         8.48633e+57
          1457.51530	         1.05122e+58
          1458.32160	         1.19670e+58
          1459.12790	         1.10296e+58
          1459.93420	         9.68907e+57
          1460.74050	         7.25674e+57
          1461.54680	         6.70778e+57
          1462.35310	         7.70864e+57
          1463.15940	         9.51003e+57
          1463.96570	         1.16994e+58
          1464.77200	         1.21684e+58
          1465.57830	         1.00004e+58
          1466.38460	         8.29723e+57
          1467.19090	         7.81534e+57
          1467.99720	         8.76649e+57
          1468.80350	         9.46246e+57
          1469.60980	         1.00948e+58
          1470.41610	         1.12048e+58
          1471.22240	         9.84520e+57
          1472.02870	         8.36035e+57
          1472.83500	         9.53082e+57
          1473.64130	         9.40839e+57
          1474.44760	         8.86961e+57
          1475.25390	         9.87247e+57
          1476.06020	         9.47389e+57
          1476.86650	         8.86846e+57
          1477.67280	         8.22510e+57
          1478.47910	         7.19217e+57
          1479.28540	         6.31176e+57
          1480.09170	         7.44364e+57
          1480.89800	         8.69030e+57
          1481.70430	         9.83056e+57
          1482.51060	         8.92269e+57
          1483.31690	         7.25899e+57
          1484.12320	         7.40630e+57
          1484.92950	         7.30157e+57
          1485.73580	         8.41282e+57
          1486.54210	         9.76269e+57
          1487.34840	         8.31081e+57
          1488.15470	         7.91255e+57
          1488.96100	         8.31511e+57
          1489.76730	         9.72131e+57
