#sample_456_stacked_spectrum_rest_UV-bands_median_H-alpha_noDC.txt
#median Lum: 1.69082e+42
#Rest-frame wavelength (A) | Luminosity (erg/s/A)
#
          1110.00000	         0.00000e+00
          1110.80630	        -2.37033e+59
          1111.61260	        -1.88015e+59
          1112.41890	        -8.31130e+58
          1113.22520	         9.24068e+58
          1114.03150	         7.16302e+58
          1114.83780	         1.95107e+59
          1115.64410	         7.13308e+58
          1116.45040	         1.25146e+59
          1117.25670	        -3.84255e+57
          1118.06300	         1.28546e+59
          1118.86930	         1.08465e+59
          1119.67560	         1.34869e+59
          1120.48190	         1.56604e+58
          1121.28820	        -6.58388e+58
          1122.09450	         8.37405e+58
          1122.90080	         6.46152e+58
          1123.70710	         1.04063e+59
          1124.51340	         1.20543e+59
          1125.31970	        -6.23594e+58
          1126.12600	        -4.09168e+58
          1126.93230	        -3.33574e+58
          1127.73860	        -4.55311e+58
          1128.54490	        -2.56291e+57
          1129.35120	         1.23236e+58
          1130.15750	        -1.50973e+57
          1130.96380	        -2.51058e+58
          1131.77010	         3.60652e+58
          1132.57640	         2.82210e+58
          1133.38270	        -1.37015e+58
          1134.18900	         8.70691e+57
          1134.99530	        -1.47305e+58
          1135.80160	         3.46285e+58
          1136.60790	         2.79909e+58
          1137.41420	        -9.83432e+57
          1138.22050	         2.12237e+58
          1139.02680	         1.85447e+58
          1139.83310	         1.23969e+58
          1140.63940	         1.89245e+57
          1141.44570	        -2.47759e+58
          1142.25200	        -1.84773e+58
          1143.05830	         8.63835e+57
          1143.86460	         2.04524e+58
          1144.67090	         6.05286e+57
          1145.47720	         5.40837e+57
          1146.28350	         1.99999e+58
          1147.08980	         2.10514e+58
          1147.89610	         5.68359e+57
          1148.70240	         9.27830e+57
          1149.50870	         2.46807e+58
          1150.31500	         2.16671e+58
          1151.12130	         1.36230e+58
          1151.92760	         2.46343e+55
          1152.73390	         1.37122e+58
          1153.54020	         8.28738e+57
          1154.34650	         2.34453e+58
          1155.15280	         1.79535e+58
          1155.95910	         1.06991e+58
          1156.76540	         5.70891e+57
          1157.57170	         6.14250e+57
          1158.37800	         1.21479e+57
          1159.18430	        -5.70400e+57
          1159.99060	         3.48922e+57
          1160.79690	         6.84867e+57
          1161.60320	         1.28082e+58
          1162.40950	         1.30219e+58
          1163.21580	         1.73559e+58
          1164.02210	         6.01459e+57
          1164.82840	         1.29747e+58
          1165.63470	         1.36802e+58
          1166.44100	         2.65835e+58
          1167.24730	         2.43987e+58
          1168.05360	         1.40420e+58
          1168.85990	         6.04134e+57
          1169.66620	         7.58440e+57
          1170.47250	         1.08110e+58
          1171.27880	         1.41698e+58
          1172.08510	         2.12423e+58
          1172.89140	         1.77406e+58
          1173.69770	         9.39367e+57
          1174.50400	         3.93221e+57
          1175.31030	         1.51122e+58
          1176.11660	         1.78068e+58
          1176.92290	         1.32464e+58
          1177.72920	         1.34792e+58
          1178.53550	         7.13126e+57
          1179.34180	         2.43309e+57
          1180.14810	         6.40678e+57
          1180.95440	         1.15176e+58
          1181.76070	         8.76950e+57
          1182.56700	         8.01621e+57
          1183.37330	         5.49619e+57
          1184.17960	         1.06459e+58
          1184.98590	         1.25233e+58
          1185.79220	         1.06936e+58
          1186.59850	         7.89122e+57
          1187.40480	         1.04394e+58
          1188.21110	         1.81131e+58
          1189.01740	         1.25622e+58
          1189.82370	         1.41425e+58
          1190.63000	         1.67547e+58
          1191.43630	         1.63950e+58
          1192.24260	         1.31698e+58
          1193.04890	         1.36562e+58
          1193.85520	         1.12625e+58
          1194.66150	         4.94964e+57
          1195.46780	         6.16690e+57
          1196.27410	         9.33460e+57
          1197.08040	         9.63499e+57
          1197.88670	         1.41853e+58
          1198.69300	         1.46506e+58
          1199.49930	         1.19760e+58
          1200.30560	         1.07165e+58
          1201.11190	         1.39286e+58
          1201.91820	         1.01946e+58
          1202.72450	         8.90419e+57
          1203.53080	         1.38281e+58
          1204.33710	         6.15125e+57
          1205.14340	         3.62501e+57
          1205.94970	         4.73913e+57
          1206.75600	         6.83727e+57
          1207.56230	         3.34898e+57
          1208.36860	         6.02800e+57
          1209.17490	         3.21373e+57
          1209.98120	         5.21222e+57
          1210.78750	         9.08297e+57
          1211.59380	         1.31166e+58
          1212.40010	         1.98200e+58
          1213.20640	         2.27129e+58
          1214.01270	         2.28992e+58
          1214.81900	         2.73989e+58
          1215.62530	         4.87207e+58
          1216.43160	         9.66134e+58
          1217.23790	         1.51880e+59
          1218.04420	         1.14461e+59
          1218.85050	         8.84018e+58
          1219.65680	         6.09985e+58
          1220.46310	         3.78042e+58
          1221.26940	         2.28584e+58
          1222.07570	         1.35381e+58
          1222.88200	         1.16295e+58
          1223.68830	         9.20460e+57
          1224.49460	         1.06897e+58
          1225.30090	         6.10839e+57
          1226.10720	         3.97660e+57
          1226.91350	         6.10740e+57
          1227.71980	         1.00535e+58
          1228.52610	         1.33360e+58
          1229.33240	         1.13031e+58
          1230.13870	         1.36640e+58
          1230.94500	         1.25770e+58
          1231.75130	         6.17655e+57
          1232.55760	         9.28024e+57
          1233.36390	         7.94801e+57
          1234.17020	         7.62772e+57
          1234.97650	         7.58535e+57
          1235.78280	         7.26522e+57
          1236.58910	         7.78962e+57
          1237.39540	         9.89122e+57
          1238.20170	         1.08965e+58
          1239.00800	         1.24762e+58
          1239.81430	         1.42117e+58
          1240.62060	         9.07979e+57
          1241.42690	         8.22147e+57
          1242.23320	         1.00654e+58
          1243.03950	         7.42887e+57
          1243.84580	         9.01473e+57
          1244.65210	         1.13947e+58
          1245.45840	         1.07491e+58
          1246.26470	         9.20220e+57
          1247.07100	         6.96294e+57
          1247.87730	         4.70651e+57
          1248.68360	         4.86540e+57
          1249.48990	         8.99624e+57
          1250.29620	         1.16333e+58
          1251.10250	         8.48513e+57
          1251.90880	         4.27058e+57
          1252.71510	         6.47590e+57
          1253.52140	         8.10072e+57
          1254.32770	         1.11779e+58
          1255.13400	         1.34762e+58
          1255.94030	         1.21806e+58
          1256.74660	         9.80376e+57
          1257.55290	         9.53590e+57
          1258.35920	         9.40845e+57
          1259.16550	         4.28604e+57
          1259.97180	         3.71915e+57
          1260.77810	         6.79785e+57
          1261.58440	         9.23623e+57
          1262.39070	         8.53572e+57
          1263.19700	         1.05529e+58
          1264.00330	         1.02065e+58
          1264.80960	         8.80353e+57
          1265.61590	         1.04023e+58
          1266.42220	         1.23718e+58
          1267.22850	         1.03496e+58
          1268.03480	         1.16343e+58
          1268.84110	         1.59613e+58
          1269.64740	         1.41103e+58
          1270.45370	         1.17951e+58
          1271.26000	         1.05302e+58
          1272.06630	         1.00268e+58
          1272.87260	         1.13927e+58
          1273.67890	         1.12820e+58
          1274.48520	         1.11710e+58
          1275.29150	         1.07035e+58
          1276.09780	         9.20953e+57
          1276.90410	         1.41970e+58
          1277.71040	         1.40506e+58
          1278.51670	         1.20491e+58
          1279.32300	         1.24658e+58
          1280.12930	         1.27022e+58
          1280.93560	         1.28007e+58
          1281.74190	         1.36617e+58
          1282.54820	         1.49182e+58
          1283.35450	         1.11092e+58
          1284.16080	         1.07247e+58
          1284.96710	         1.39182e+58
          1285.77340	         1.14781e+58
          1286.57970	         9.92662e+57
          1287.38600	         1.53934e+58
          1288.19230	         1.85801e+58
          1288.99860	         1.34431e+58
          1289.80490	         1.06902e+58
          1290.61120	         1.34074e+58
          1291.41750	         1.58307e+58
          1292.22380	         1.25346e+58
          1293.03010	         1.04807e+58
          1293.83640	         1.11320e+58
          1294.64270	         1.01450e+58
          1295.44900	         5.06371e+57
          1296.25530	         5.59590e+57
          1297.06160	         1.00346e+58
          1297.86790	         1.26508e+58
          1298.67420	         1.11681e+58
          1299.48050	         1.01432e+58
          1300.28680	         9.13295e+57
          1301.09310	         6.85336e+57
          1301.89940	         4.55373e+57
          1302.70570	         6.11409e+57
          1303.51200	         7.24348e+57
          1304.31830	         8.74969e+57
          1305.12460	         1.02057e+58
          1305.93090	         1.10287e+58
          1306.73720	         1.31788e+58
          1307.54350	         1.54785e+58
          1308.34980	         1.52012e+58
          1309.15610	         1.60050e+58
          1309.96240	         1.81940e+58
          1310.76870	         1.67447e+58
          1311.57500	         1.37834e+58
          1312.38130	         1.33960e+58
          1313.18760	         1.36208e+58
          1313.99390	         1.54836e+58
          1314.80020	         1.56313e+58
          1315.60650	         1.25344e+58
          1316.41280	         1.09366e+58
          1317.21910	         1.22417e+58
          1318.02540	         1.35261e+58
          1318.83170	         1.31606e+58
          1319.63800	         1.12478e+58
          1320.44430	         1.15888e+58
          1321.25060	         1.30765e+58
          1322.05690	         1.20785e+58
          1322.86320	         1.12843e+58
          1323.66950	         1.01124e+58
          1324.47580	         8.69968e+57
          1325.28210	         9.82085e+57
          1326.08840	         1.19147e+58
          1326.89470	         1.17082e+58
          1327.70100	         9.46823e+57
          1328.50730	         9.17896e+57
          1329.31360	         1.03165e+58
          1330.11990	         1.02057e+58
          1330.92620	         8.61543e+57
          1331.73250	         1.05447e+58
          1332.53880	         1.04864e+58
          1333.34510	         8.64509e+57
          1334.15140	         8.68083e+57
          1334.95770	         8.80375e+57
          1335.76400	         1.06706e+58
          1336.57030	         1.16386e+58
          1337.37660	         1.03415e+58
          1338.18290	         9.82505e+57
          1338.98920	         1.09753e+58
          1339.79550	         1.05723e+58
          1340.60180	         1.05873e+58
          1341.40810	         1.30861e+58
          1342.21440	         1.28294e+58
          1343.02070	         1.11803e+58
          1343.82700	         1.42226e+58
          1344.63330	         1.22097e+58
          1345.43960	         1.10662e+58
          1346.24590	         1.09406e+58
          1347.05220	         1.16533e+58
          1347.85850	         9.85843e+57
          1348.66480	         1.19315e+58
          1349.47110	         1.27463e+58
          1350.27740	         1.25606e+58
          1351.08370	         1.23266e+58
          1351.89000	         1.19670e+58
          1352.69630	         1.21394e+58
          1353.50260	         1.19282e+58
          1354.30890	         1.18867e+58
          1355.11520	         1.16687e+58
          1355.92150	         9.90676e+57
          1356.72780	         1.00576e+58
          1357.53410	         1.00991e+58
          1358.34040	         1.01536e+58
          1359.14670	         9.11425e+57
          1359.95300	         1.02989e+58
          1360.75930	         1.27433e+58
          1361.56560	         1.23541e+58
          1362.37190	         1.19239e+58
          1363.17820	         1.20130e+58
          1363.98450	         1.12072e+58
          1364.79080	         1.14155e+58
          1365.59710	         1.22374e+58
          1366.40340	         1.14063e+58
          1367.20970	         1.01527e+58
          1368.01600	         9.71543e+57
          1368.82230	         8.98599e+57
          1369.62860	         1.05796e+58
          1370.43490	         1.04309e+58
          1371.24120	         9.51313e+57
          1372.04750	         7.43312e+57
          1372.85380	         9.78009e+57
          1373.66010	         1.05365e+58
          1374.46640	         1.00109e+58
          1375.27270	         1.16608e+58
          1376.07900	         9.65496e+57
          1376.88530	         7.45498e+57
          1377.69160	         8.71358e+57
          1378.49790	         8.41210e+57
          1379.30420	         8.20468e+57
          1380.11050	         7.71883e+57
          1380.91680	         6.78655e+57
          1381.72310	         6.77954e+57
          1382.52940	         8.12548e+57
          1383.33570	         8.36351e+57
          1384.14200	         8.93296e+57
          1384.94830	         9.73130e+57
          1385.75460	         1.01578e+58
          1386.56090	         1.20091e+58
          1387.36720	         1.11699e+58
          1388.17350	         1.17753e+58
          1388.97980	         9.84249e+57
          1389.78610	         7.81096e+57
          1390.59240	         7.85989e+57
          1391.39870	         8.62085e+57
          1392.20500	         8.68381e+57
          1393.01130	         7.50008e+57
          1393.81760	         7.45421e+57
          1394.62390	         8.24341e+57
          1395.43020	         7.37143e+57
          1396.23650	         7.86719e+57
          1397.04280	         7.92883e+57
          1397.84910	         8.55174e+57
          1398.65540	         8.94463e+57
          1399.46170	         9.26035e+57
          1400.26800	         7.57975e+57
          1401.07430	         6.06846e+57
          1401.88060	         7.45476e+57
          1402.68690	         9.10706e+57
          1403.49320	         9.17015e+57
          1404.29950	         9.06713e+57
          1405.10580	         9.51891e+57
          1405.91210	         1.08052e+58
          1406.71840	         1.23361e+58
          1407.52470	         1.12452e+58
          1408.33100	         1.04472e+58
          1409.13730	         1.16132e+58
          1409.94360	         1.08979e+58
          1410.74990	         9.11797e+57
          1411.55620	         9.23876e+57
          1412.36250	         8.80490e+57
          1413.16880	         8.26567e+57
          1413.97510	         7.49175e+57
          1414.78140	         7.85115e+57
          1415.58770	         9.64000e+57
          1416.39400	         9.16663e+57
          1417.20030	         9.19057e+57
          1418.00660	         9.62510e+57
          1418.81290	         9.14173e+57
          1419.61920	         1.03870e+58
          1420.42550	         1.31537e+58
          1421.23180	         1.31125e+58
          1422.03810	         1.22009e+58
          1422.84440	         1.22537e+58
          1423.65070	         1.29125e+58
          1424.45700	         1.11124e+58
          1425.26330	         8.07353e+57
          1426.06960	         8.71189e+57
          1426.87590	         1.00921e+58
          1427.68220	         9.61045e+57
          1428.48850	         1.05994e+58
          1429.29480	         1.03599e+58
          1430.10110	         1.02143e+58
          1430.90740	         9.19324e+57
          1431.71370	         9.06251e+57
          1432.52000	         9.11185e+57
          1433.32630	         9.01060e+57
          1434.13260	         8.99976e+57
          1434.93890	         8.81063e+57
          1435.74520	         8.87184e+57
          1436.55150	         9.90998e+57
          1437.35780	         9.75204e+57
          1438.16410	         9.75682e+57
          1438.97040	         9.15911e+57
          1439.77670	         9.27592e+57
          1440.58300	         9.53985e+57
          1441.38930	         9.30476e+57
          1442.19560	         8.74984e+57
          1443.00190	         8.85452e+57
          1443.80820	         9.83401e+57
          1444.61450	         9.05175e+57
          1445.42080	         8.89140e+57
          1446.22710	         1.03821e+58
          1447.03340	         9.29238e+57
          1447.83970	         9.05681e+57
          1448.64600	         9.72102e+57
          1449.45230	         1.04227e+58
          1450.25860	         1.05389e+58
          1451.06490	         9.56985e+57
          1451.87120	         8.30851e+57
          1452.67750	         7.76913e+57
          1453.48380	         8.90377e+57
          1454.29010	         8.56579e+57
          1455.09640	         7.42471e+57
          1455.90270	         8.34952e+57
          1456.70900	         8.97058e+57
          1457.51530	         9.66740e+57
          1458.32160	         1.18117e+58
          1459.12790	         1.15142e+58
          1459.93420	         9.66857e+57
          1460.74050	         7.45109e+57
          1461.54680	         7.96844e+57
          1462.35310	         7.67497e+57
          1463.15940	         8.00403e+57
          1463.96570	         1.09398e+58
          1464.77200	         1.24497e+58
          1465.57830	         1.08881e+58
          1466.38460	         9.58837e+57
          1467.19090	         8.89674e+57
          1467.99720	         8.74349e+57
          1468.80350	         9.38196e+57
          1469.60980	         1.01720e+58
          1470.41610	         1.08246e+58
          1471.22240	         1.02453e+58
          1472.02870	         1.05679e+58
          1472.83500	         1.11381e+58
          1473.64130	         1.02918e+58
          1474.44760	         8.83349e+57
          1475.25390	         8.87625e+57
          1476.06020	         8.79243e+57
          1476.86650	         8.68940e+57
          1477.67280	         8.12476e+57
          1478.47910	         7.29110e+57
          1479.28540	         7.11676e+57
          1480.09170	         8.34701e+57
          1480.89800	         9.21284e+57
          1481.70430	         8.51347e+57
          1482.51060	         7.51114e+57
          1483.31690	         7.54438e+57
          1484.12320	         8.52176e+57
          1484.92950	         8.57107e+57
          1485.73580	         8.27313e+57
          1486.54210	         8.80841e+57
          1487.34840	         8.41753e+57
          1488.15470	         7.63091e+57
          1488.96100	         8.59411e+57
          1489.76730	         9.17406e+57
