#sample_315_stacked_spectrum_rest_UV-bands_median_H-alpha_noDC.txt
#median Lum: 1.71781e+42
#Rest-frame wavelength (A) | Luminosity (erg/s/A)
#
          1110.00000	         0.00000e+00
          1110.80630	        -2.47982e+59
          1111.61260	        -3.22897e+58
          1112.41890	        -4.99209e+58
          1113.22520	        -1.04584e+59
          1114.03150	        -2.68358e+59
          1114.83780	         1.02633e+59
          1115.64410	         1.77588e+59
          1116.45040	         2.90532e+59
          1117.25670	         3.59594e+58
          1118.06300	         1.54828e+59
          1118.86930	         2.10157e+58
          1119.67560	         9.95261e+58
          1120.48190	        -5.82455e+58
          1121.28820	        -1.36501e+59
          1122.09450	        -5.81585e+58
          1122.90080	        -4.01844e+58
          1123.70710	         6.37880e+58
          1124.51340	         7.80394e+58
          1125.31970	         3.36937e+58
          1126.12600	         2.47637e+58
          1126.93230	        -3.80940e+58
          1127.73860	        -4.88555e+58
          1128.54490	        -9.38790e+57
          1129.35120	        -2.26758e+58
          1130.15750	        -3.54470e+58
          1130.96380	        -1.99443e+57
          1131.77010	         7.36449e+58
          1132.57640	         2.80998e+58
          1133.38270	         2.60282e+58
          1134.18900	         2.81251e+58
          1134.99530	         3.27041e+58
          1135.80160	         4.42217e+58
          1136.60790	         1.97790e+58
          1137.41420	        -1.03738e+58
          1138.22050	         4.05123e+58
          1139.02680	         3.92855e+58
          1139.83310	         2.80232e+58
          1140.63940	         2.09054e+58
          1141.44570	        -9.38325e+57
          1142.25200	        -3.98880e+57
          1143.05830	         1.42721e+58
          1143.86460	         2.63070e+58
          1144.67090	         5.06450e+57
          1145.47720	         1.82909e+58
          1146.28350	         3.30035e+57
          1147.08980	         1.83659e+58
          1147.89610	         8.72154e+57
          1148.70240	         2.88531e+58
          1149.50870	         3.41419e+58
          1150.31500	         1.97622e+58
          1151.12130	         6.55178e+57
          1151.92760	         2.17597e+57
          1152.73390	         1.66524e+57
          1153.54020	         7.57948e+57
          1154.34650	         2.40829e+58
          1155.15280	         1.63622e+58
          1155.95910	         6.58890e+57
          1156.76540	         7.34940e+57
          1157.57170	        -7.00879e+57
          1158.37800	        -1.91541e+57
          1159.18430	         1.69284e+57
          1159.99060	         1.47299e+58
          1160.79690	         1.13882e+58
          1161.60320	         1.60843e+58
          1162.40950	         2.05587e+58
          1163.21580	         7.96896e+57
          1164.02210	         1.34720e+58
          1164.82840	         5.91157e+57
          1165.63470	         1.54695e+58
          1166.44100	         2.93833e+58
          1167.24730	         2.38762e+58
          1168.05360	         8.38645e+57
          1168.85990	         1.40166e+58
          1169.66620	         1.25021e+58
          1170.47250	         1.00111e+58
          1171.27880	         6.58303e+57
          1172.08510	         1.87334e+58
          1172.89140	         2.02510e+58
          1173.69770	         4.68797e+57
          1174.50400	         1.46037e+58
          1175.31030	         1.97495e+58
          1176.11660	         2.04878e+58
          1176.92290	         1.89142e+58
          1177.72920	         1.34520e+58
          1178.53550	         7.95961e+57
          1179.34180	         5.72370e+57
          1180.14810	         1.78348e+57
          1180.95440	         1.03764e+58
          1181.76070	         8.96495e+57
          1182.56700	         6.56645e+57
          1183.37330	         5.07157e+57
          1184.17960	         1.11899e+58
          1184.98590	         1.43518e+58
          1185.79220	         7.02428e+57
          1186.59850	         1.47397e+58
          1187.40480	         1.50808e+58
          1188.21110	         1.45808e+58
          1189.01740	         9.52541e+57
          1189.82370	         1.18846e+58
          1190.63000	         1.03881e+58
          1191.43630	         1.42044e+58
          1192.24260	         1.45391e+58
          1193.04890	         1.43897e+58
          1193.85520	         1.15745e+58
          1194.66150	         1.29271e+58
          1195.46780	         1.68149e+58
          1196.27410	         1.36604e+58
          1197.08040	         7.33525e+57
          1197.88670	         1.27669e+58
          1198.69300	         1.65981e+58
          1199.49930	         1.83065e+58
          1200.30560	         1.04571e+58
          1201.11190	         1.24283e+58
          1201.91820	         7.74622e+57
          1202.72450	         3.12486e+57
          1203.53080	         1.20243e+58
          1204.33710	         6.63249e+57
          1205.14340	         3.18811e+57
          1205.94970	         4.95470e+57
          1206.75600	         6.43080e+57
          1207.56230	         6.20530e+57
          1208.36860	         9.24020e+57
          1209.17490	         5.58130e+57
          1209.98120	         7.76761e+57
          1210.78750	         7.73746e+57
          1211.59380	         9.42176e+57
          1212.40010	         1.58465e+58
          1213.20640	         2.27893e+58
          1214.01270	         2.30453e+58
          1214.81900	         2.38434e+58
          1215.62530	         4.37025e+58
          1216.43160	         9.15203e+58
          1217.23790	         1.51862e+59
          1218.04420	         1.15699e+59
          1218.85050	         8.89875e+58
          1219.65680	         5.66536e+58
          1220.46310	         3.58900e+58
          1221.26940	         2.31997e+58
          1222.07570	         1.14606e+58
          1222.88200	         9.21527e+57
          1223.68830	         1.04960e+58
          1224.49460	         8.27011e+57
          1225.30090	         5.05587e+57
          1226.10720	         5.38361e+57
          1226.91350	         9.38868e+57
          1227.71980	         1.12368e+58
          1228.52610	         1.11279e+58
          1229.33240	         9.56891e+57
          1230.13870	         1.03622e+58
          1230.94500	         9.38148e+57
          1231.75130	         7.54807e+57
          1232.55760	         7.65508e+57
          1233.36390	         7.22969e+57
          1234.17020	         8.26495e+57
          1234.97650	         7.84989e+57
          1235.78280	         9.01711e+57
          1236.58910	         9.63718e+57
          1237.39540	         1.04533e+58
          1238.20170	         1.14692e+58
          1239.00800	         1.27644e+58
          1239.81430	         1.35035e+58
          1240.62060	         1.30774e+58
          1241.42690	         1.19977e+58
          1242.23320	         1.23192e+58
          1243.03950	         8.04833e+57
          1243.84580	         7.06116e+57
          1244.65210	         1.02680e+58
          1245.45840	         1.32882e+58
          1246.26470	         1.07513e+58
          1247.07100	         7.12506e+57
          1247.87730	         7.29367e+57
          1248.68360	         2.66709e+57
          1249.48990	         6.09535e+57
          1250.29620	         8.22855e+57
          1251.10250	         6.23316e+57
          1251.90880	         6.31768e+57
          1252.71510	         5.49838e+57
          1253.52140	         3.88377e+57
          1254.32770	         9.45820e+57
          1255.13400	         1.27346e+58
          1255.94030	         1.16915e+58
          1256.74660	         1.12257e+58
          1257.55290	         1.02822e+58
          1258.35920	         7.63461e+57
          1259.16550	         5.06652e+57
          1259.97180	         3.63864e+57
          1260.77810	         6.60499e+57
          1261.58440	         8.28084e+57
          1262.39070	         7.31962e+57
          1263.19700	         8.02947e+57
          1264.00330	         9.88914e+57
          1264.80960	         1.05134e+58
          1265.61590	         1.09690e+58
          1266.42220	         1.10666e+58
          1267.22850	         1.09666e+58
          1268.03480	         1.51307e+58
          1268.84110	         1.60582e+58
          1269.64740	         1.31590e+58
          1270.45370	         1.39000e+58
          1271.26000	         1.17358e+58
          1272.06630	         1.12454e+58
          1272.87260	         1.13215e+58
          1273.67890	         1.13553e+58
          1274.48520	         1.15257e+58
          1275.29150	         1.31778e+58
          1276.09780	         1.17014e+58
          1276.90410	         1.35693e+58
          1277.71040	         1.42798e+58
          1278.51670	         1.38554e+58
          1279.32300	         1.42139e+58
          1280.12930	         1.19250e+58
          1280.93560	         1.20763e+58
          1281.74190	         1.38139e+58
          1282.54820	         1.40750e+58
          1283.35450	         1.27033e+58
          1284.16080	         1.19266e+58
          1284.96710	         1.26256e+58
          1285.77340	         1.16782e+58
          1286.57970	         1.29615e+58
          1287.38600	         1.66232e+58
          1288.19230	         1.82830e+58
          1288.99860	         1.73879e+58
          1289.80490	         1.27970e+58
          1290.61120	         1.32181e+58
          1291.41750	         1.40708e+58
          1292.22380	         1.23380e+58
          1293.03010	         1.02945e+58
          1293.83640	         9.34887e+57
          1294.64270	         9.33800e+57
          1295.44900	         7.84771e+57
          1296.25530	         8.58186e+57
          1297.06160	         9.87075e+57
          1297.86790	         9.62242e+57
          1298.67420	         9.65462e+57
          1299.48050	         1.16822e+58
          1300.28680	         1.05612e+58
          1301.09310	         8.55406e+57
          1301.89940	         3.72119e+57
          1302.70570	         3.40847e+57
          1303.51200	         7.08591e+57
          1304.31830	         1.02979e+58
          1305.12460	         1.01301e+58
          1305.93090	         9.02848e+57
          1306.73720	         1.09650e+58
          1307.54350	         1.34341e+58
          1308.34980	         1.38325e+58
          1309.15610	         1.52426e+58
          1309.96240	         1.62881e+58
          1310.76870	         1.49611e+58
          1311.57500	         1.38826e+58
          1312.38130	         1.24200e+58
          1313.18760	         1.33660e+58
          1313.99390	         1.63254e+58
          1314.80020	         1.60504e+58
          1315.60650	         1.56056e+58
          1316.41280	         1.30600e+58
          1317.21910	         1.08004e+58
          1318.02540	         1.15795e+58
          1318.83170	         1.26048e+58
          1319.63800	         1.11332e+58
          1320.44430	         1.14433e+58
          1321.25060	         1.38850e+58
          1322.05690	         1.28311e+58
          1322.86320	         1.13507e+58
          1323.66950	         9.92369e+57
          1324.47580	         9.68624e+57
          1325.28210	         9.61881e+57
          1326.08840	         1.07077e+58
          1326.89470	         1.23429e+58
          1327.70100	         8.78792e+57
          1328.50730	         8.45291e+57
          1329.31360	         1.15852e+58
          1330.11990	         1.04694e+58
          1330.92620	         1.13873e+58
          1331.73250	         1.18745e+58
          1332.53880	         1.01350e+58
          1333.34510	         8.82957e+57
          1334.15140	         8.59608e+57
          1334.95770	         1.09401e+58
          1335.76400	         1.13761e+58
          1336.57030	         1.08643e+58
          1337.37660	         1.06867e+58
          1338.18290	         1.06609e+58
          1338.98920	         1.10296e+58
          1339.79550	         1.16491e+58
          1340.60180	         1.21633e+58
          1341.40810	         1.32220e+58
          1342.21440	         1.18083e+58
          1343.02070	         1.28515e+58
          1343.82700	         1.44710e+58
          1344.63330	         1.39746e+58
          1345.43960	         1.29252e+58
          1346.24590	         1.07036e+58
          1347.05220	         1.10913e+58
          1347.85850	         1.06902e+58
          1348.66480	         1.21169e+58
          1349.47110	         1.25993e+58
          1350.27740	         1.20540e+58
          1351.08370	         1.17228e+58
          1351.89000	         1.23469e+58
          1352.69630	         1.21815e+58
          1353.50260	         1.08294e+58
          1354.30890	         1.22107e+58
          1355.11520	         1.17172e+58
          1355.92150	         9.31638e+57
          1356.72780	         9.97952e+57
          1357.53410	         1.06311e+58
          1358.34040	         1.13996e+58
          1359.14670	         1.20836e+58
          1359.95300	         1.16581e+58
          1360.75930	         1.11677e+58
          1361.56560	         1.10356e+58
          1362.37190	         1.17276e+58
          1363.17820	         1.14739e+58
          1363.98450	         1.10569e+58
          1364.79080	         1.30188e+58
          1365.59710	         1.43306e+58
          1366.40340	         1.33034e+58
          1367.20970	         1.09726e+58
          1368.01600	         8.71639e+57
          1368.82230	         8.34451e+57
          1369.62860	         1.09096e+58
          1370.43490	         1.00432e+58
          1371.24120	         8.15289e+57
          1372.04750	         7.33733e+57
          1372.85380	         1.13932e+58
          1373.66010	         1.17283e+58
          1374.46640	         1.04505e+58
          1375.27270	         1.16880e+58
          1376.07900	         1.00734e+58
          1376.88530	         9.55274e+57
          1377.69160	         9.39339e+57
          1378.49790	         8.37169e+57
          1379.30420	         8.43030e+57
          1380.11050	         1.12945e+58
          1380.91680	         9.98269e+57
          1381.72310	         6.94762e+57
          1382.52940	         8.68442e+57
          1383.33570	         9.80450e+57
          1384.14200	         1.06743e+58
          1384.94830	         1.13790e+58
          1385.75460	         1.10568e+58
          1386.56090	         1.15948e+58
          1387.36720	         1.18614e+58
          1388.17350	         1.33792e+58
          1388.97980	         1.14896e+58
          1389.78610	         9.39987e+57
          1390.59240	         9.06195e+57
          1391.39870	         7.42390e+57
          1392.20500	         7.39323e+57
          1393.01130	         7.52987e+57
          1393.81760	         7.98594e+57
          1394.62390	         7.17195e+57
          1395.43020	         6.01694e+57
          1396.23650	         6.31956e+57
          1397.04280	         7.45104e+57
          1397.84910	         8.28459e+57
          1398.65540	         8.29636e+57
          1399.46170	         1.00845e+58
          1400.26800	         9.87934e+57
          1401.07430	         8.56965e+57
          1401.88060	         8.65343e+57
          1402.68690	         8.42795e+57
          1403.49320	         9.20542e+57
          1404.29950	         9.02304e+57
          1405.10580	         1.00469e+58
          1405.91210	         1.13603e+58
          1406.71840	         1.02300e+58
          1407.52470	         1.03582e+58
          1408.33100	         1.07069e+58
          1409.13730	         1.15573e+58
          1409.94360	         1.20481e+58
          1410.74990	         1.13022e+58
          1411.55620	         1.02527e+58
          1412.36250	         9.60539e+57
          1413.16880	         9.50282e+57
          1413.97510	         8.81823e+57
          1414.78140	         9.24406e+57
          1415.58770	         1.02365e+58
          1416.39400	         9.89327e+57
          1417.20030	         1.11253e+58
          1418.00660	         1.07900e+58
          1418.81290	         1.06405e+58
          1419.61920	         1.06431e+58
          1420.42550	         1.29699e+58
          1421.23180	         1.37895e+58
          1422.03810	         1.20256e+58
          1422.84440	         1.15519e+58
          1423.65070	         1.31091e+58
          1424.45700	         1.08361e+58
          1425.26330	         8.53464e+57
          1426.06960	         9.14459e+57
          1426.87590	         1.00980e+58
          1427.68220	         1.02872e+58
          1428.48850	         1.11751e+58
          1429.29480	         1.15280e+58
          1430.10110	         1.10044e+58
          1430.90740	         9.52634e+57
          1431.71370	         9.21940e+57
          1432.52000	         8.60141e+57
          1433.32630	         7.51179e+57
          1434.13260	         7.63019e+57
          1434.93890	         8.48444e+57
          1435.74520	         8.99993e+57
          1436.55150	         8.74137e+57
          1437.35780	         8.61970e+57
          1438.16410	         9.73913e+57
          1438.97040	         9.66041e+57
          1439.77670	         8.98612e+57
          1440.58300	         1.01156e+58
          1441.38930	         1.02329e+58
          1442.19560	         9.54639e+57
          1443.00190	         8.48127e+57
          1443.80820	         1.02792e+58
          1444.61450	         1.02788e+58
          1445.42080	         7.81679e+57
          1446.22710	         9.06925e+57
          1447.03340	         9.35045e+57
          1447.83970	         9.99956e+57
          1448.64600	         9.10016e+57
          1449.45230	         9.00541e+57
          1450.25860	         9.14915e+57
          1451.06490	         7.77458e+57
          1451.87120	         8.37570e+57
          1452.67750	         8.21767e+57
          1453.48380	         9.14077e+57
          1454.29010	         8.22662e+57
          1455.09640	         8.11344e+57
          1455.90270	         8.73855e+57
          1456.70900	         8.66549e+57
          1457.51530	         1.05802e+58
          1458.32160	         1.33597e+58
          1459.12790	         1.28796e+58
          1459.93420	         1.06221e+58
          1460.74050	         8.58326e+57
          1461.54680	         7.95772e+57
          1462.35310	         7.67152e+57
          1463.15940	         8.30983e+57
          1463.96570	         9.81224e+57
          1464.77200	         1.14133e+58
          1465.57830	         1.02327e+58
          1466.38460	         9.66742e+57
          1467.19090	         7.79974e+57
          1467.99720	         7.42509e+57
          1468.80350	         9.39959e+57
          1469.60980	         1.02720e+58
          1470.41610	         1.10513e+58
          1471.22240	         9.90165e+57
          1472.02870	         9.83559e+57
          1472.83500	         9.56873e+57
          1473.64130	         9.33652e+57
          1474.44760	         9.03244e+57
          1475.25390	         8.70980e+57
          1476.06020	         7.74709e+57
          1476.86650	         8.42021e+57
          1477.67280	         8.73102e+57
          1478.47910	         6.57180e+57
          1479.28540	         7.09536e+57
          1480.09170	         9.10118e+57
          1480.89800	         7.91855e+57
          1481.70430	         7.75505e+57
          1482.51060	         7.61691e+57
          1483.31690	         7.39157e+57
          1484.12320	         7.67592e+57
          1484.92950	         7.58374e+57
          1485.73580	         8.63449e+57
          1486.54210	         8.96094e+57
          1487.34840	         9.33315e+57
          1488.15470	         1.00681e+58
          1488.96100	         9.65567e+57
          1489.76730	         9.40892e+57
