#sample_149_stacked_spectrum_rest_UV-bands_median_H-alpha_noDC.txt
#median Lum: 1.67894e+42
#Rest-frame wavelength (A) | Luminosity (erg/s/A)
#
          1110.00000	         0.00000e+00
          1110.80630	        -2.01161e+59
          1111.61260	         3.45663e+59
          1112.41890	         3.07449e+59
          1113.22520	        -3.31907e+58
          1114.03150	         1.90815e+59
          1114.83780	         5.82051e+58
          1115.64410	         1.85491e+59
          1116.45040	         2.82462e+59
          1117.25670	         7.87209e+58
          1118.06300	         1.30604e+59
          1118.86930	        -3.14989e+58
          1119.67560	         6.41136e+58
          1120.48190	        -2.64720e+58
          1121.28820	        -8.13520e+58
          1122.09450	         3.66033e+58
          1122.90080	         7.46883e+57
          1123.70710	         6.14619e+58
          1124.51340	         5.51565e+58
          1125.31970	        -6.41475e+57
          1126.12600	         1.67260e+58
          1126.93230	        -5.11073e+58
          1127.73860	        -5.75736e+58
          1128.54490	         4.20592e+57
          1129.35120	        -1.69149e+58
          1130.15750	        -1.16333e+58
          1130.96380	        -3.76531e+58
          1131.77010	         5.65391e+58
          1132.57640	         4.83268e+58
          1133.38270	         3.22392e+58
          1134.18900	         2.65732e+58
          1134.99530	         5.16871e+57
          1135.80160	         2.28089e+58
          1136.60790	         6.32545e+57
          1137.41420	        -2.45128e+58
          1138.22050	         2.31991e+58
          1139.02680	         2.51736e+58
          1139.83310	         2.04780e+58
          1140.63940	         1.73550e+58
          1141.44570	         1.90501e+57
          1142.25200	         6.15015e+57
          1143.05830	         1.08519e+58
          1143.86460	         1.68809e+58
          1144.67090	         3.18236e+58
          1145.47720	         1.34150e+58
          1146.28350	        -5.83809e+57
          1147.08980	         2.78122e+57
          1147.89610	         1.97581e+58
          1148.70240	         2.98736e+58
          1149.50870	         3.16174e+58
          1150.31500	         2.62104e+58
          1151.12130	         1.62033e+58
          1151.92760	         6.62921e+57
          1152.73390	         1.13175e+58
          1153.54020	         7.08653e+57
          1154.34650	         2.17606e+58
          1155.15280	         2.34152e+58
          1155.95910	         8.94623e+57
          1156.76540	         2.14731e+57
          1157.57170	        -1.05024e+57
          1158.37800	         7.19756e+57
          1159.18430	        -7.50005e+57
          1159.99060	         9.14121e+56
          1160.79690	         6.05755e+57
          1161.60320	         1.68366e+58
          1162.40950	         8.81306e+57
          1163.21580	         1.76097e+58
          1164.02210	         1.62598e+58
          1164.82840	         6.68130e+57
          1165.63470	         1.37416e+58
          1166.44100	         2.94810e+58
          1167.24730	         2.45282e+58
          1168.05360	         1.25448e+58
          1168.85990	         8.50759e+57
          1169.66620	        -7.47962e+56
          1170.47250	         3.35297e+57
          1171.27880	         1.40348e+58
          1172.08510	         1.85953e+58
          1172.89140	         2.40510e+58
          1173.69770	         6.06771e+57
          1174.50400	         8.67226e+57
          1175.31030	         2.36266e+58
          1176.11660	         2.21776e+58
          1176.92290	         1.82009e+58
          1177.72920	         1.43031e+58
          1178.53550	         9.77421e+57
          1179.34180	         3.27298e+57
          1180.14810	         4.19147e+57
          1180.95440	         8.32283e+57
          1181.76070	         9.90268e+57
          1182.56700	         1.26057e+58
          1183.37330	         1.17910e+58
          1184.17960	         1.25576e+58
          1184.98590	         1.58593e+58
          1185.79220	         1.12143e+58
          1186.59850	         1.03403e+58
          1187.40480	         8.23443e+57
          1188.21110	         1.43142e+58
          1189.01740	         7.20723e+57
          1189.82370	         4.98963e+57
          1190.63000	         8.13949e+57
          1191.43630	         1.25228e+58
          1192.24260	         9.96436e+57
          1193.04890	         1.13632e+58
          1193.85520	         1.44584e+58
          1194.66150	         5.57550e+57
          1195.46780	         1.12895e+58
          1196.27410	         1.40501e+58
          1197.08040	         8.05196e+57
          1197.88670	         1.36804e+58
          1198.69300	         1.44952e+58
          1199.49930	         1.67008e+58
          1200.30560	         1.49251e+58
          1201.11190	         1.20703e+58
          1201.91820	         1.29612e+58
          1202.72450	         7.68900e+57
          1203.53080	         1.54034e+58
          1204.33710	         9.22996e+57
          1205.14340	         3.62975e+57
          1205.94970	         3.87334e+57
          1206.75600	         6.14576e+57
          1207.56230	         3.68970e+57
          1208.36860	         5.79470e+57
          1209.17490	         5.20667e+57
          1209.98120	         6.77099e+57
          1210.78750	         1.02384e+58
          1211.59380	         1.13606e+58
          1212.40010	         1.85301e+58
          1213.20640	         2.03305e+58
          1214.01270	         1.99735e+58
          1214.81900	         2.63702e+58
          1215.62530	         4.60433e+58
          1216.43160	         9.13714e+58
          1217.23790	         1.55638e+59
          1218.04420	         1.14622e+59
          1218.85050	         8.38982e+58
          1219.65680	         5.45302e+58
          1220.46310	         3.24439e+58
          1221.26940	         2.25727e+58
          1222.07570	         1.57743e+58
          1222.88200	         1.10934e+58
          1223.68830	         7.90719e+57
          1224.49460	         8.46744e+57
          1225.30090	         8.18915e+57
          1226.10720	         9.36291e+57
          1226.91350	         8.04012e+57
          1227.71980	         7.45424e+57
          1228.52610	         1.14056e+58
          1229.33240	         6.17481e+57
          1230.13870	         6.70435e+57
          1230.94500	         9.04714e+57
          1231.75130	         7.62375e+57
          1232.55760	         8.99179e+57
          1233.36390	         7.12617e+57
          1234.17020	         8.19372e+57
          1234.97650	         9.55254e+57
          1235.78280	         9.93336e+57
          1236.58910	         7.90277e+57
          1237.39540	         9.75925e+57
          1238.20170	         9.34256e+57
          1239.00800	         9.55755e+57
          1239.81430	         1.31431e+58
          1240.62060	         1.23224e+58
          1241.42690	         1.14428e+58
          1242.23320	         1.15267e+58
          1243.03950	         7.42645e+57
          1243.84580	         6.62549e+57
          1244.65210	         9.13513e+57
          1245.45840	         1.08630e+58
          1246.26470	         1.03932e+58
          1247.07100	         7.94346e+57
          1247.87730	         7.14508e+57
          1248.68360	         6.22114e+57
          1249.48990	         6.43193e+57
          1250.29620	         8.07064e+57
          1251.10250	         8.73831e+57
          1251.90880	         6.37857e+57
          1252.71510	         5.73087e+57
          1253.52140	         7.71433e+57
          1254.32770	         8.82443e+57
          1255.13400	         1.16502e+58
          1255.94030	         1.26432e+58
          1256.74660	         1.07539e+58
          1257.55290	         1.27017e+58
          1258.35920	         1.13417e+58
          1259.16550	         6.00626e+57
          1259.97180	         4.84524e+57
          1260.77810	         7.10045e+57
          1261.58440	         1.05227e+58
          1262.39070	         9.13631e+57
          1263.19700	         9.56769e+57
          1264.00330	         1.06455e+58
          1264.80960	         1.15629e+58
          1265.61590	         1.32748e+58
          1266.42220	         1.16963e+58
          1267.22850	         8.79579e+57
          1268.03480	         1.29902e+58
          1268.84110	         1.59189e+58
          1269.64740	         1.46055e+58
          1270.45370	         1.43938e+58
          1271.26000	         1.37499e+58
          1272.06630	         1.19384e+58
          1272.87260	         1.14323e+58
          1273.67890	         1.02867e+58
          1274.48520	         1.10185e+58
          1275.29150	         1.34207e+58
          1276.09780	         1.27588e+58
          1276.90410	         1.39911e+58
          1277.71040	         1.33294e+58
          1278.51670	         1.32769e+58
          1279.32300	         1.48229e+58
          1280.12930	         1.40596e+58
          1280.93560	         1.13527e+58
          1281.74190	         1.05842e+58
          1282.54820	         1.26704e+58
          1283.35450	         1.11859e+58
          1284.16080	         9.98572e+57
          1284.96710	         1.25871e+58
          1285.77340	         1.35979e+58
          1286.57970	         1.25048e+58
          1287.38600	         1.44008e+58
          1288.19230	         1.74788e+58
          1288.99860	         1.67547e+58
          1289.80490	         1.09192e+58
          1290.61120	         1.25747e+58
          1291.41750	         1.46589e+58
          1292.22380	         1.24814e+58
          1293.03010	         1.05524e+58
          1293.83640	         9.87098e+57
          1294.64270	         9.60359e+57
          1295.44900	         6.57977e+57
          1296.25530	         7.20436e+57
          1297.06160	         8.31615e+57
          1297.86790	         8.57741e+57
          1298.67420	         8.75922e+57
          1299.48050	         1.09204e+58
          1300.28680	         1.17633e+58
          1301.09310	         8.76430e+57
          1301.89940	         4.55853e+57
          1302.70570	         5.95438e+57
          1303.51200	         7.36623e+57
          1304.31830	         1.04481e+58
          1305.12460	         1.13535e+58
          1305.93090	         1.10289e+58
          1306.73720	         1.13991e+58
          1307.54350	         1.46630e+58
          1308.34980	         1.60358e+58
          1309.15610	         1.58286e+58
          1309.96240	         1.71219e+58
          1310.76870	         1.55461e+58
          1311.57500	         1.16354e+58
          1312.38130	         1.08380e+58
          1313.18760	         1.43294e+58
          1313.99390	         1.69766e+58
          1314.80020	         1.66825e+58
          1315.60650	         1.52456e+58
          1316.41280	         1.14215e+58
          1317.21910	         9.80113e+57
          1318.02540	         1.01988e+58
          1318.83170	         1.14290e+58
          1319.63800	         1.26057e+58
          1320.44430	         1.09806e+58
          1321.25060	         1.04548e+58
          1322.05690	         1.14966e+58
          1322.86320	         1.24652e+58
          1323.66950	         1.10398e+58
          1324.47580	         9.68899e+57
          1325.28210	         9.35660e+57
          1326.08840	         1.03480e+58
          1326.89470	         1.17868e+58
          1327.70100	         1.07002e+58
          1328.50730	         9.01779e+57
          1329.31360	         8.76288e+57
          1330.11990	         8.61904e+57
          1330.92620	         9.61403e+57
          1331.73250	         1.13649e+58
          1332.53880	         9.84662e+57
          1333.34510	         9.53757e+57
          1334.15140	         9.44998e+57
          1334.95770	         8.45259e+57
          1335.76400	         1.03745e+58
          1336.57030	         1.09856e+58
          1337.37660	         1.09282e+58
          1338.18290	         1.17143e+58
          1338.98920	         1.05116e+58
          1339.79550	         1.06399e+58
          1340.60180	         1.26482e+58
          1341.40810	         1.17068e+58
          1342.21440	         1.07758e+58
          1343.02070	         1.20843e+58
          1343.82700	         1.30700e+58
          1344.63330	         1.21355e+58
          1345.43960	         1.17976e+58
          1346.24590	         9.54805e+57
          1347.05220	         9.29065e+57
          1347.85850	         9.72805e+57
          1348.66480	         1.07648e+58
          1349.47110	         1.14311e+58
          1350.27740	         1.09653e+58
          1351.08370	         1.10441e+58
          1351.89000	         1.19487e+58
          1352.69630	         1.15559e+58
          1353.50260	         1.15149e+58
          1354.30890	         1.19100e+58
          1355.11520	         1.27564e+58
          1355.92150	         1.19499e+58
          1356.72780	         1.01852e+58
          1357.53410	         1.02502e+58
          1358.34040	         9.57212e+57
          1359.14670	         9.12739e+57
          1359.95300	         1.02776e+58
          1360.75930	         1.09095e+58
          1361.56560	         1.00716e+58
          1362.37190	         1.03140e+58
          1363.17820	         1.02640e+58
          1363.98450	         1.04680e+58
          1364.79080	         1.30874e+58
          1365.59710	         1.35341e+58
          1366.40340	         1.15388e+58
          1367.20970	         1.00456e+58
          1368.01600	         1.05310e+58
          1368.82230	         1.02749e+58
          1369.62860	         1.03951e+58
          1370.43490	         9.44334e+57
          1371.24120	         8.64109e+57
          1372.04750	         8.36206e+57
          1372.85380	         9.06572e+57
          1373.66010	         9.57232e+57
          1374.46640	         1.13376e+58
          1375.27270	         1.06831e+58
          1376.07900	         9.17321e+57
          1376.88530	         7.30116e+57
          1377.69160	         6.96395e+57
          1378.49790	         6.49655e+57
          1379.30420	         6.59289e+57
          1380.11050	         8.33316e+57
          1380.91680	         8.15504e+57
          1381.72310	         7.97379e+57
          1382.52940	         8.39308e+57
          1383.33570	         7.31807e+57
          1384.14200	         8.12807e+57
          1384.94830	         1.07327e+58
          1385.75460	         1.04765e+58
          1386.56090	         9.07248e+57
          1387.36720	         9.83216e+57
          1388.17350	         1.42737e+58
          1388.97980	         1.31427e+58
          1389.78610	         9.99587e+57
          1390.59240	         7.98947e+57
          1391.39870	         7.32153e+57
          1392.20500	         7.44190e+57
          1393.01130	         6.20840e+57
          1393.81760	         5.53804e+57
          1394.62390	         6.15655e+57
          1395.43020	         6.73021e+57
          1396.23650	         6.89620e+57
          1397.04280	         7.57070e+57
          1397.84910	         9.27312e+57
          1398.65540	         8.89731e+57
          1399.46170	         9.33463e+57
          1400.26800	         7.70791e+57
          1401.07430	         7.03804e+57
          1401.88060	         8.00563e+57
          1402.68690	         9.20094e+57
          1403.49320	         9.60437e+57
          1404.29950	         9.80012e+57
          1405.10580	         1.04347e+58
          1405.91210	         1.08671e+58
          1406.71840	         1.08894e+58
          1407.52470	         9.84864e+57
          1408.33100	         9.43701e+57
          1409.13730	         1.10315e+58
          1409.94360	         1.10764e+58
          1410.74990	         1.03839e+58
          1411.55620	         9.93693e+57
          1412.36250	         9.84274e+57
          1413.16880	         9.95863e+57
          1413.97510	         1.01369e+58
          1414.78140	         8.48393e+57
          1415.58770	         8.13860e+57
          1416.39400	         9.45324e+57
          1417.20030	         1.22277e+58
          1418.00660	         1.07858e+58
          1418.81290	         9.41851e+57
          1419.61920	         1.02669e+58
          1420.42550	         1.13960e+58
          1421.23180	         1.48255e+58
          1422.03810	         1.38342e+58
          1422.84440	         1.02263e+58
          1423.65070	         1.17348e+58
          1424.45700	         1.21426e+58
          1425.26330	         8.96455e+57
          1426.06960	         8.58145e+57
          1426.87590	         1.03495e+58
          1427.68220	         9.93419e+57
          1428.48850	         1.04292e+58
          1429.29480	         9.63917e+57
          1430.10110	         9.32597e+57
          1430.90740	         7.39621e+57
          1431.71370	         8.20709e+57
          1432.52000	         8.56727e+57
          1433.32630	         8.28681e+57
          1434.13260	         8.62439e+57
          1434.93890	         8.53645e+57
          1435.74520	         8.88801e+57
          1436.55150	         9.56960e+57
          1437.35780	         8.38931e+57
          1438.16410	         8.52341e+57
          1438.97040	         9.12800e+57
          1439.77670	         8.94122e+57
          1440.58300	         8.84504e+57
          1441.38930	         8.95774e+57
          1442.19560	         9.76887e+57
          1443.00190	         9.57708e+57
          1443.80820	         9.52627e+57
          1444.61450	         9.36371e+57
          1445.42080	         8.50002e+57
          1446.22710	         9.02484e+57
          1447.03340	         9.49112e+57
          1447.83970	         1.08381e+58
          1448.64600	         1.09701e+58
          1449.45230	         1.00668e+58
          1450.25860	         9.32884e+57
          1451.06490	         7.98758e+57
          1451.87120	         7.02427e+57
          1452.67750	         6.66385e+57
          1453.48380	         8.11229e+57
          1454.29010	         9.08794e+57
          1455.09640	         9.06617e+57
          1455.90270	         9.10760e+57
          1456.70900	         7.87108e+57
          1457.51530	         9.13614e+57
          1458.32160	         1.26271e+58
          1459.12790	         1.34519e+58
          1459.93420	         1.07903e+58
          1460.74050	         8.69029e+57
          1461.54680	         9.23111e+57
          1462.35310	         8.08181e+57
          1463.15940	         8.74054e+57
          1463.96570	         9.97068e+57
          1464.77200	         1.14309e+58
          1465.57830	         1.11979e+58
          1466.38460	         1.03756e+58
          1467.19090	         8.48675e+57
          1467.99720	         7.51494e+57
          1468.80350	         9.11596e+57
          1469.60980	         1.01491e+58
          1470.41610	         1.09414e+58
          1471.22240	         1.01770e+58
          1472.02870	         1.02123e+58
          1472.83500	         1.02489e+58
          1473.64130	         9.40295e+57
          1474.44760	         9.72041e+57
          1475.25390	         8.89749e+57
          1476.06020	         8.05978e+57
          1476.86650	         8.26537e+57
          1477.67280	         7.67313e+57
          1478.47910	         7.42731e+57
          1479.28540	         7.85917e+57
          1480.09170	         8.31573e+57
          1480.89800	         8.69685e+57
          1481.70430	         9.44245e+57
          1482.51060	         8.62054e+57
          1483.31690	         7.94011e+57
          1484.12320	         8.07505e+57
          1484.92950	         8.18426e+57
          1485.73580	         8.81673e+57
          1486.54210	         9.78886e+57
          1487.34840	         8.76453e+57
          1488.15470	         7.43088e+57
          1488.96100	         7.84003e+57
          1489.76730	         8.64785e+57
