#sample_25_stacked_spectrum_rest_UV-bands_median_H-alpha_noDC.txt
#median Lum: 1.66277e+42
#Rest-frame wavelength (A) | Luminosity (erg/s/A)
#
          1110.00000	         0.00000e+00
          1110.80630	         4.33293e+59
          1111.61260	        -9.11762e+58
          1112.41890	         1.59699e+59
          1113.22520	         1.31896e+59
          1114.03150	        -3.38355e+58
          1114.83780	         2.07849e+59
          1115.64410	         1.33284e+59
          1116.45040	         2.69885e+59
          1117.25670	         2.08527e+59
          1118.06300	         6.15915e+58
          1118.86930	        -7.87061e+58
          1119.67560	        -6.78245e+58
          1120.48190	        -3.74398e+58
          1121.28820	        -1.19002e+59
          1122.09450	        -5.04096e+58
          1122.90080	         1.32512e+59
          1123.70710	         8.28703e+58
          1124.51340	         2.35498e+58
          1125.31970	        -4.05278e+58
          1126.12600	         1.53663e+58
          1126.93230	        -2.87874e+58
          1127.73860	        -2.47353e+58
          1128.54490	        -1.34649e+58
          1129.35120	         9.28946e+57
          1130.15750	        -4.55596e+58
          1130.96380	        -2.82710e+57
          1131.77010	         6.95820e+58
          1132.57640	         7.24598e+58
          1133.38270	         5.51755e+58
          1134.18900	         1.80732e+58
          1134.99530	        -1.90497e+57
          1135.80160	         3.26018e+58
          1136.60790	         1.69214e+58
          1137.41420	        -3.97334e+57
          1138.22050	         3.03164e+58
          1139.02680	         5.17335e+58
          1139.83310	         4.79360e+58
          1140.63940	         2.36835e+58
          1141.44570	        -3.97434e+58
          1142.25200	        -2.79298e+58
          1143.05830	         1.07902e+58
          1143.86460	         2.83000e+58
          1144.67090	         6.91700e+57
          1145.47720	         1.54418e+58
          1146.28350	         1.98851e+57
          1147.08980	         7.75612e+57
          1147.89610	         2.51085e+58
          1148.70240	         2.00312e+58
          1149.50870	         3.12991e+58
          1150.31500	         1.85704e+58
          1151.12130	         9.61717e+57
          1151.92760	         9.06940e+57
          1152.73390	        -3.73814e+56
          1153.54020	         1.71383e+57
          1154.34650	         2.50760e+58
          1155.15280	         3.03381e+58
          1155.95910	         4.11892e+57
          1156.76540	         1.62617e+58
          1157.57170	         1.23843e+56
          1158.37800	        -1.28854e+58
          1159.18430	        -3.63409e+57
          1159.99060	         6.79620e+57
          1160.79690	         9.05588e+57
          1161.60320	         1.11959e+58
          1162.40950	         1.63322e+58
          1163.21580	         9.34774e+57
          1164.02210	         9.44427e+57
          1164.82840	         1.74380e+57
          1165.63470	         1.04278e+58
          1166.44100	         2.54424e+58
          1167.24730	         2.10144e+58
          1168.05360	         7.49847e+57
          1168.85990	         9.01200e+57
          1169.66620	         1.16797e+58
          1170.47250	         8.01282e+57
          1171.27880	         3.58816e+57
          1172.08510	         1.49835e+58
          1172.89140	         1.31658e+58
          1173.69770	         1.29215e+58
          1174.50400	         1.46361e+58
          1175.31030	         1.47071e+58
          1176.11660	         1.48086e+58
          1176.92290	         1.65843e+58
          1177.72920	         1.76739e+58
          1178.53550	         8.55924e+57
          1179.34180	         6.01570e+57
          1180.14810	         1.33952e+58
          1180.95440	         1.08180e+58
          1181.76070	         6.43869e+57
          1182.56700	         9.74547e+57
          1183.37330	         9.26691e+57
          1184.17960	         1.19579e+58
          1184.98590	         1.47118e+58
          1185.79220	         1.09789e+58
          1186.59850	         1.54818e+58
          1187.40480	         1.26848e+58
          1188.21110	         1.75863e+58
          1189.01740	         1.08974e+58
          1189.82370	         1.00110e+58
          1190.63000	         1.14348e+58
          1191.43630	         1.57935e+58
          1192.24260	         1.41131e+58
          1193.04890	         1.15568e+58
          1193.85520	         8.09113e+57
          1194.66150	         1.07148e+58
          1195.46780	         1.77547e+58
          1196.27410	         1.32874e+58
          1197.08040	         9.26580e+57
          1197.88670	         1.30384e+58
          1198.69300	         1.59717e+58
          1199.49930	         1.83528e+58
          1200.30560	         1.05101e+58
          1201.11190	         7.56351e+57
          1201.91820	         8.31924e+57
          1202.72450	         7.28829e+57
          1203.53080	         1.41623e+58
          1204.33710	         8.84112e+57
          1205.14340	         8.79232e+57
          1205.94970	         1.26116e+58
          1206.75600	         9.16204e+57
          1207.56230	         5.95803e+57
          1208.36860	         8.81598e+57
          1209.17490	         3.62821e+57
          1209.98120	         6.96559e+57
          1210.78750	         7.60579e+57
          1211.59380	         1.40535e+58
          1212.40010	         1.82660e+58
          1213.20640	         2.08625e+58
          1214.01270	         1.97106e+58
          1214.81900	         2.52042e+58
          1215.62530	         4.30788e+58
          1216.43160	         8.88713e+58
          1217.23790	         1.52058e+59
          1218.04420	         1.19910e+59
          1218.85050	         9.34086e+58
          1219.65680	         6.04518e+58
          1220.46310	         3.28970e+58
          1221.26940	         2.34328e+58
          1222.07570	         1.15647e+58
          1222.88200	         7.24472e+57
          1223.68830	         1.00428e+58
          1224.49460	         7.76444e+57
          1225.30090	         6.23293e+57
          1226.10720	         6.24421e+57
          1226.91350	         8.92440e+57
          1227.71980	         9.68444e+57
          1228.52610	         9.81043e+57
          1229.33240	         7.57341e+57
          1230.13870	         7.60466e+57
          1230.94500	         1.08730e+58
          1231.75130	         7.02611e+57
          1232.55760	         8.38915e+57
          1233.36390	         1.03556e+58
          1234.17020	         8.48550e+57
          1234.97650	         6.75506e+57
          1235.78280	         8.69104e+57
          1236.58910	         7.34069e+57
          1237.39540	         9.05478e+57
          1238.20170	         1.08168e+58
          1239.00800	         1.24250e+58
          1239.81430	         1.23994e+58
          1240.62060	         1.04752e+58
          1241.42690	         1.30074e+58
          1242.23320	         1.28643e+58
          1243.03950	         7.89673e+57
          1243.84580	         8.54609e+57
          1244.65210	         8.49469e+57
          1245.45840	         9.02967e+57
          1246.26470	         8.66150e+57
          1247.07100	         6.57265e+57
          1247.87730	         6.44354e+57
          1248.68360	         3.84472e+57
          1249.48990	         5.34077e+57
          1250.29620	         9.95997e+57
          1251.10250	         8.53401e+57
          1251.90880	         3.97785e+57
          1252.71510	         5.74441e+57
          1253.52140	         6.89434e+57
          1254.32770	         1.07563e+58
          1255.13400	         1.39113e+58
          1255.94030	         9.66528e+57
          1256.74660	         1.03823e+58
          1257.55290	         1.25526e+58
          1258.35920	         8.17261e+57
          1259.16550	         5.23380e+57
          1259.97180	         5.68987e+57
          1260.77810	         8.74408e+57
          1261.58440	         9.43697e+57
          1262.39070	         8.25207e+57
          1263.19700	         1.10647e+58
          1264.00330	         1.18401e+58
          1264.80960	         1.09756e+58
          1265.61590	         1.07329e+58
          1266.42220	         1.09928e+58
          1267.22850	         1.11567e+58
          1268.03480	         1.33712e+58
          1268.84110	         1.51430e+58
          1269.64740	         1.36685e+58
          1270.45370	         1.12145e+58
          1271.26000	         9.76936e+57
          1272.06630	         1.16034e+58
          1272.87260	         1.45690e+58
          1273.67890	         1.51808e+58
          1274.48520	         1.13439e+58
          1275.29150	         1.13413e+58
          1276.09780	         1.15467e+58
          1276.90410	         1.43047e+58
          1277.71040	         1.34386e+58
          1278.51670	         1.22861e+58
          1279.32300	         1.29168e+58
          1280.12930	         1.18630e+58
          1280.93560	         1.17915e+58
          1281.74190	         1.12365e+58
          1282.54820	         1.17428e+58
          1283.35450	         1.00989e+58
          1284.16080	         1.11431e+58
          1284.96710	         1.32015e+58
          1285.77340	         1.03573e+58
          1286.57970	         1.10494e+58
          1287.38600	         1.65677e+58
          1288.19230	         1.79417e+58
          1288.99860	         1.49199e+58
          1289.80490	         1.24942e+58
          1290.61120	         1.45220e+58
          1291.41750	         1.58058e+58
          1292.22380	         1.31561e+58
          1293.03010	         1.08092e+58
          1293.83640	         1.27395e+58
          1294.64270	         1.21515e+58
          1295.44900	         8.02569e+57
          1296.25530	         7.57983e+57
          1297.06160	         9.54473e+57
          1297.86790	         9.37089e+57
          1298.67420	         8.49273e+57
          1299.48050	         1.06307e+58
          1300.28680	         1.22121e+58
          1301.09310	         1.00449e+58
          1301.89940	         5.02388e+57
          1302.70570	         5.91188e+57
          1303.51200	         7.25312e+57
          1304.31830	         9.27826e+57
          1305.12460	         1.01472e+58
          1305.93090	         1.13498e+58
          1306.73720	         1.31776e+58
          1307.54350	         1.42309e+58
          1308.34980	         1.31404e+58
          1309.15610	         1.48464e+58
          1309.96240	         1.53686e+58
          1310.76870	         1.27034e+58
          1311.57500	         1.19518e+58
          1312.38130	         1.23234e+58
          1313.18760	         1.55021e+58
          1313.99390	         1.68581e+58
          1314.80020	         1.44885e+58
          1315.60650	         1.19052e+58
          1316.41280	         1.20180e+58
          1317.21910	         1.22364e+58
          1318.02540	         1.23790e+58
          1318.83170	         1.21081e+58
          1319.63800	         1.11014e+58
          1320.44430	         1.15312e+58
          1321.25060	         1.07018e+58
          1322.05690	         1.13251e+58
          1322.86320	         1.24718e+58
          1323.66950	         1.11694e+58
          1324.47580	         1.00102e+58
          1325.28210	         1.05946e+58
          1326.08840	         1.08902e+58
          1326.89470	         1.18976e+58
          1327.70100	         1.02287e+58
          1328.50730	         8.95588e+57
          1329.31360	         1.07339e+58
          1330.11990	         1.04439e+58
          1330.92620	         9.40660e+57
          1331.73250	         1.07132e+58
          1332.53880	         9.98736e+57
          1333.34510	         8.51735e+57
          1334.15140	         9.19112e+57
          1334.95770	         9.45752e+57
          1335.76400	         1.03189e+58
          1336.57030	         1.10598e+58
          1337.37660	         1.06595e+58
          1338.18290	         1.00351e+58
          1338.98920	         9.52303e+57
          1339.79550	         1.02954e+58
          1340.60180	         1.21086e+58
          1341.40810	         1.45154e+58
          1342.21440	         1.28606e+58
          1343.02070	         1.24563e+58
          1343.82700	         1.33524e+58
          1344.63330	         1.24131e+58
          1345.43960	         1.21471e+58
          1346.24590	         1.18038e+58
          1347.05220	         1.29423e+58
          1347.85850	         1.05975e+58
          1348.66480	         1.12805e+58
          1349.47110	         1.22672e+58
          1350.27740	         1.11320e+58
          1351.08370	         1.13154e+58
          1351.89000	         1.11306e+58
          1352.69630	         1.09582e+58
          1353.50260	         1.14305e+58
          1354.30890	         1.23670e+58
          1355.11520	         1.22741e+58
          1355.92150	         1.15804e+58
          1356.72780	         1.11034e+58
          1357.53410	         1.00037e+58
          1358.34040	         1.16075e+58
          1359.14670	         1.14756e+58
          1359.95300	         1.17651e+58
          1360.75930	         1.26836e+58
          1361.56560	         1.13880e+58
          1362.37190	         1.10815e+58
          1363.17820	         1.03403e+58
          1363.98450	         1.22856e+58
          1364.79080	         1.26440e+58
          1365.59710	         1.23220e+58
          1366.40340	         1.19188e+58
          1367.20970	         1.00783e+58
          1368.01600	         9.51167e+57
          1368.82230	         8.42254e+57
          1369.62860	         9.02105e+57
          1370.43490	         9.44032e+57
          1371.24120	         9.48003e+57
          1372.04750	         8.92406e+57
          1372.85380	         1.08847e+58
          1373.66010	         1.07835e+58
          1374.46640	         1.01771e+58
          1375.27270	         1.03761e+58
          1376.07900	         9.38375e+57
          1376.88530	         9.43067e+57
          1377.69160	         8.37984e+57
          1378.49790	         6.69902e+57
          1379.30420	         8.19865e+57
          1380.11050	         9.16387e+57
          1380.91680	         9.24103e+57
          1381.72310	         8.56886e+57
          1382.52940	         7.79051e+57
          1383.33570	         8.70686e+57
          1384.14200	         1.04658e+58
          1384.94830	         1.11228e+58
          1385.75460	         1.19311e+58
          1386.56090	         1.14239e+58
          1387.36720	         1.05027e+58
          1388.17350	         1.27368e+58
          1388.97980	         1.17848e+58
          1389.78610	         1.05358e+58
          1390.59240	         7.99904e+57
          1391.39870	         8.47344e+57
          1392.20500	         9.08282e+57
          1393.01130	         6.92026e+57
          1393.81760	         7.15835e+57
          1394.62390	         7.83636e+57
          1395.43020	         7.14331e+57
          1396.23650	         6.67635e+57
          1397.04280	         7.54352e+57
          1397.84910	         8.40110e+57
          1398.65540	         8.23778e+57
          1399.46170	         9.63140e+57
          1400.26800	         9.21179e+57
          1401.07430	         7.01892e+57
          1401.88060	         7.67754e+57
          1402.68690	         9.39089e+57
          1403.49320	         9.77493e+57
          1404.29950	         9.68430e+57
          1405.10580	         9.97479e+57
          1405.91210	         1.09330e+58
          1406.71840	         1.04028e+58
          1407.52470	         9.01461e+57
          1408.33100	         1.02215e+58
          1409.13730	         1.19053e+58
          1409.94360	         1.09333e+58
          1410.74990	         1.13543e+58
          1411.55620	         9.78822e+57
          1412.36250	         7.93265e+57
          1413.16880	         8.29488e+57
          1413.97510	         8.07359e+57
          1414.78140	         8.24768e+57
          1415.58770	         9.59005e+57
          1416.39400	         9.86721e+57
          1417.20030	         9.71840e+57
          1418.00660	         1.05801e+58
          1418.81290	         1.15494e+58
          1419.61920	         1.17748e+58
          1420.42550	         1.25205e+58
          1421.23180	         1.37668e+58
          1422.03810	         1.23664e+58
          1422.84440	         1.11201e+58
          1423.65070	         1.30806e+58
          1424.45700	         1.17665e+58
          1425.26330	         8.37532e+57
          1426.06960	         8.23120e+57
          1426.87590	         8.75704e+57
          1427.68220	         9.66000e+57
          1428.48850	         1.06499e+58
          1429.29480	         1.07919e+58
          1430.10110	         1.05328e+58
          1430.90740	         8.99029e+57
          1431.71370	         9.50912e+57
          1432.52000	         9.50152e+57
          1433.32630	         8.78423e+57
          1434.13260	         8.14555e+57
          1434.93890	         8.15515e+57
          1435.74520	         7.60169e+57
          1436.55150	         8.37377e+57
          1437.35780	         1.03874e+58
          1438.16410	         1.00973e+58
          1438.97040	         9.43334e+57
          1439.77670	         8.98876e+57
          1440.58300	         9.29482e+57
          1441.38930	         1.06856e+58
          1442.19560	         1.11696e+58
          1443.00190	         1.14204e+58
          1443.80820	         1.17617e+58
          1444.61450	         9.90877e+57
          1445.42080	         8.22119e+57
          1446.22710	         9.37897e+57
          1447.03340	         1.04012e+58
          1447.83970	         1.09957e+58
          1448.64600	         1.09667e+58
          1449.45230	         1.08958e+58
          1450.25860	         1.02856e+58
          1451.06490	         9.27619e+57
          1451.87120	         8.40181e+57
          1452.67750	         8.38028e+57
          1453.48380	         9.86386e+57
          1454.29010	         8.65296e+57
          1455.09640	         6.94594e+57
          1455.90270	         8.19522e+57
          1456.70900	         8.46327e+57
          1457.51530	         9.57531e+57
          1458.32160	         1.29349e+58
          1459.12790	         1.27469e+58
          1459.93420	         1.07095e+58
          1460.74050	         8.16955e+57
          1461.54680	         7.35081e+57
          1462.35310	         7.80168e+57
          1463.15940	         9.86354e+57
          1463.96570	         1.12407e+58
          1464.77200	         1.17047e+58
          1465.57830	         1.02220e+58
          1466.38460	         9.17070e+57
          1467.19090	         8.72492e+57
          1467.99720	         8.48232e+57
          1468.80350	         9.25727e+57
          1469.60980	         9.73401e+57
          1470.41610	         1.03278e+58
          1471.22240	         8.54930e+57
          1472.02870	         8.48934e+57
          1472.83500	         8.31781e+57
          1473.64130	         8.47483e+57
          1474.44760	         9.24463e+57
          1475.25390	         9.28619e+57
          1476.06020	         8.55793e+57
          1476.86650	         8.81285e+57
          1477.67280	         8.61796e+57
          1478.47910	         7.94105e+57
          1479.28540	         7.14104e+57
          1480.09170	         7.72031e+57
          1480.89800	         7.97169e+57
          1481.70430	         8.03630e+57
          1482.51060	         8.97266e+57
          1483.31690	         7.93951e+57
          1484.12320	         7.11610e+57
          1484.92950	         7.00832e+57
          1485.73580	         7.80802e+57
          1486.54210	         9.46083e+57
          1487.34840	         9.55887e+57
          1488.15470	         9.34736e+57
          1488.96100	         8.67884e+57
          1489.76730	         8.99338e+57
