#sample_403_stacked_spectrum_rest_UV-bands_median_H-alpha_noDC.txt
#median Lum: 1.67942e+42
#Rest-frame wavelength (A) | Luminosity (erg/s/A)
#
          1110.00000	         0.00000e+00
          1110.80630	         5.24924e+58
          1111.61260	         5.39395e+58
          1112.41890	        -3.34496e+58
          1113.22520	        -6.13572e+57
          1114.03150	        -1.47587e+59
          1114.83780	         9.93846e+58
          1115.64410	        -1.77816e+58
          1116.45040	         1.35033e+58
          1117.25670	         4.17719e+58
          1118.06300	         1.94997e+59
          1118.86930	         8.30097e+58
          1119.67560	         1.22748e+59
          1120.48190	         1.35178e+59
          1121.28820	        -7.09840e+58
          1122.09450	        -1.65781e+58
          1122.90080	         3.52220e+57
          1123.70710	        -2.94936e+58
          1124.51340	         4.27981e+58
          1125.31970	         6.10743e+58
          1126.12600	         4.33291e+58
          1126.93230	        -1.42522e+58
          1127.73860	        -6.90347e+58
          1128.54490	        -1.60883e+57
          1129.35120	         4.73896e+58
          1130.15750	        -2.87868e+58
          1130.96380	        -1.37881e+58
          1131.77010	         6.86967e+58
          1132.57640	         7.21691e+58
          1133.38270	         2.10412e+58
          1134.18900	         1.55173e+58
          1134.99530	         1.29195e+58
          1135.80160	         1.10965e+58
          1136.60790	         1.31084e+58
          1137.41420	         2.32431e+58
          1138.22050	         6.12161e+58
          1139.02680	         2.90077e+58
          1139.83310	         3.10767e+58
          1140.63940	        -8.49114e+56
          1141.44570	        -3.69930e+58
          1142.25200	        -2.76002e+58
          1143.05830	        -3.13128e+57
          1143.86460	         2.60802e+58
          1144.67090	         2.48947e+58
          1145.47720	         8.90776e+57
          1146.28350	         1.64300e+58
          1147.08980	         3.42669e+57
          1147.89610	         1.18756e+58
          1148.70240	         2.30142e+58
          1149.50870	         1.36841e+58
          1150.31500	        -2.56204e+57
          1151.12130	         3.50147e+57
          1151.92760	         3.15994e+57
          1152.73390	         5.18496e+57
          1153.54020	         1.18625e+58
          1154.34650	         1.84404e+58
          1155.15280	         1.14017e+58
          1155.95910	         1.66718e+58
          1156.76540	         1.80082e+58
          1157.57170	         1.05651e+58
          1158.37800	        -1.02977e+57
          1159.18430	        -1.99282e+57
          1159.99060	        -3.20683e+56
          1160.79690	         1.49952e+57
          1161.60320	         9.34049e+57
          1162.40950	         1.58365e+58
          1163.21580	         1.65137e+58
          1164.02210	         1.50271e+58
          1164.82840	         1.12038e+58
          1165.63470	         1.25756e+58
          1166.44100	         2.16252e+58
          1167.24730	         1.82576e+58
          1168.05360	         8.91446e+57
          1168.85990	         5.44263e+57
          1169.66620	         6.72318e+57
          1170.47250	         1.41020e+58
          1171.27880	         8.58738e+57
          1172.08510	         8.41845e+57
          1172.89140	         8.06980e+57
          1173.69770	         8.65052e+56
          1174.50400	         1.39871e+58
          1175.31030	         1.78471e+58
          1176.11660	         1.72121e+58
          1176.92290	         1.58960e+58
          1177.72920	         1.17451e+58
          1178.53550	         9.73531e+57
          1179.34180	         6.67689e+57
          1180.14810	         5.18829e+57
          1180.95440	         4.92738e+57
          1181.76070	         1.72492e+57
          1182.56700	         7.85739e+57
          1183.37330	         7.35402e+57
          1184.17960	         1.05806e+58
          1184.98590	         9.49176e+57
          1185.79220	         8.58526e+57
          1186.59850	         1.15945e+58
          1187.40480	         1.09410e+58
          1188.21110	         1.43369e+58
          1189.01740	         7.33217e+57
          1189.82370	         1.05993e+58
          1190.63000	         1.31932e+58
          1191.43630	         1.27617e+58
          1192.24260	         1.10635e+58
          1193.04890	         1.65241e+58
          1193.85520	         1.61358e+58
          1194.66150	         6.27774e+57
          1195.46780	         9.98428e+57
          1196.27410	         1.35830e+58
          1197.08040	         7.35597e+57
          1197.88670	         1.12443e+58
          1198.69300	         1.49868e+58
          1199.49930	         1.39425e+58
          1200.30560	         1.19165e+58
          1201.11190	         1.34753e+58
          1201.91820	         1.08357e+58
          1202.72450	         7.41549e+57
          1203.53080	         1.47109e+58
          1204.33710	         8.81845e+57
          1205.14340	         6.45585e+57
          1205.94970	         6.34985e+57
          1206.75600	         5.22097e+57
          1207.56230	         9.99146e+57
          1208.36860	         1.03502e+58
          1209.17490	         5.26784e+57
          1209.98120	         3.87609e+57
          1210.78750	         5.84103e+57
          1211.59380	         1.24615e+58
          1212.40010	         1.69485e+58
          1213.20640	         1.60591e+58
          1214.01270	         1.94941e+58
          1214.81900	         2.82055e+58
          1215.62530	         4.63190e+58
          1216.43160	         8.95261e+58
          1217.23790	         1.53149e+59
          1218.04420	         1.17707e+59
          1218.85050	         8.77993e+58
          1219.65680	         6.30664e+58
          1220.46310	         3.81146e+58
          1221.26940	         2.23738e+58
          1222.07570	         1.28518e+58
          1222.88200	         1.19248e+58
          1223.68830	         1.26822e+58
          1224.49460	         8.57893e+57
          1225.30090	         6.36240e+57
          1226.10720	         6.55817e+57
          1226.91350	         8.82292e+57
          1227.71980	         9.61473e+57
          1228.52610	         9.73448e+57
          1229.33240	         5.69709e+57
          1230.13870	         7.47905e+57
          1230.94500	         8.18304e+57
          1231.75130	         7.24693e+57
          1232.55760	         6.92583e+57
          1233.36390	         8.36731e+57
          1234.17020	         9.31548e+57
          1234.97650	         8.67521e+57
          1235.78280	         6.22466e+57
          1236.58910	         6.33355e+57
          1237.39540	         8.31569e+57
          1238.20170	         7.89746e+57
          1239.00800	         1.05453e+58
          1239.81430	         1.25852e+58
          1240.62060	         1.18676e+58
          1241.42690	         1.19236e+58
          1242.23320	         1.25917e+58
          1243.03950	         9.08331e+57
          1243.84580	         9.55427e+57
          1244.65210	         1.02746e+58
          1245.45840	         8.96989e+57
          1246.26470	         8.07100e+57
          1247.07100	         9.04180e+57
          1247.87730	         5.45063e+57
          1248.68360	         1.76019e+57
          1249.48990	         3.79993e+57
          1250.29620	         6.00458e+57
          1251.10250	         4.12808e+57
          1251.90880	         4.14639e+57
          1252.71510	         6.11668e+57
          1253.52140	         7.40784e+57
          1254.32770	         1.18443e+58
          1255.13400	         1.60593e+58
          1255.94030	         1.17328e+58
          1256.74660	         1.05826e+58
          1257.55290	         1.15391e+58
          1258.35920	         6.72574e+57
          1259.16550	         4.43372e+57
          1259.97180	         5.68943e+57
          1260.77810	         7.86033e+57
          1261.58440	         1.33472e+58
          1262.39070	         1.00459e+58
          1263.19700	         9.23031e+57
          1264.00330	         9.60031e+57
          1264.80960	         1.08666e+58
          1265.61590	         1.21694e+58
          1266.42220	         1.12204e+58
          1267.22850	         1.15844e+58
          1268.03480	         1.36806e+58
          1268.84110	         1.40909e+58
          1269.64740	         1.23965e+58
          1270.45370	         1.09397e+58
          1271.26000	         1.13379e+58
          1272.06630	         1.19132e+58
          1272.87260	         1.27730e+58
          1273.67890	         1.25175e+58
          1274.48520	         1.26815e+58
          1275.29150	         1.37641e+58
          1276.09780	         1.09636e+58
          1276.90410	         1.38718e+58
          1277.71040	         1.49058e+58
          1278.51670	         1.31681e+58
          1279.32300	         1.46254e+58
          1280.12930	         1.29359e+58
          1280.93560	         1.21633e+58
          1281.74190	         1.25185e+58
          1282.54820	         1.20214e+58
          1283.35450	         1.03145e+58
          1284.16080	         1.08030e+58
          1284.96710	         1.16074e+58
          1285.77340	         1.07944e+58
          1286.57970	         1.30291e+58
          1287.38600	         1.67386e+58
          1288.19230	         1.76831e+58
          1288.99860	         1.34211e+58
          1289.80490	         1.10538e+58
          1290.61120	         1.31874e+58
          1291.41750	         1.30599e+58
          1292.22380	         1.18514e+58
          1293.03010	         9.68264e+57
          1293.83640	         1.13363e+58
          1294.64270	         1.11558e+58
          1295.44900	         7.27631e+57
          1296.25530	         6.13111e+57
          1297.06160	         8.38073e+57
          1297.86790	         1.12003e+58
          1298.67420	         1.04598e+58
          1299.48050	         1.07568e+58
          1300.28680	         1.08449e+58
          1301.09310	         7.70408e+57
          1301.89940	         3.59545e+57
          1302.70570	         5.52859e+57
          1303.51200	         7.14267e+57
          1304.31830	         9.37991e+57
          1305.12460	         1.12074e+58
          1305.93090	         1.09786e+58
          1306.73720	         1.32874e+58
          1307.54350	         1.58048e+58
          1308.34980	         1.72502e+58
          1309.15610	         1.65576e+58
          1309.96240	         1.46253e+58
          1310.76870	         1.15735e+58
          1311.57500	         1.11118e+58
          1312.38130	         1.18342e+58
          1313.18760	         1.42240e+58
          1313.99390	         1.64763e+58
          1314.80020	         1.38799e+58
          1315.60650	         1.39394e+58
          1316.41280	         1.34075e+58
          1317.21910	         1.14729e+58
          1318.02540	         1.21720e+58
          1318.83170	         1.21731e+58
          1319.63800	         1.18675e+58
          1320.44430	         1.18726e+58
          1321.25060	         1.08178e+58
          1322.05690	         1.08731e+58
          1322.86320	         1.25772e+58
          1323.66950	         1.24392e+58
          1324.47580	         9.26924e+57
          1325.28210	         8.64035e+57
          1326.08840	         9.83526e+57
          1326.89470	         1.17348e+58
          1327.70100	         1.18588e+58
          1328.50730	         1.08893e+58
          1329.31360	         1.13060e+58
          1330.11990	         9.38154e+57
          1330.92620	         8.97855e+57
          1331.73250	         1.06424e+58
          1332.53880	         9.68666e+57
          1333.34510	         8.69034e+57
          1334.15140	         8.60444e+57
          1334.95770	         9.13426e+57
          1335.76400	         1.14866e+58
          1336.57030	         1.11602e+58
          1337.37660	         9.78236e+57
          1338.18290	         9.57688e+57
          1338.98920	         1.11049e+58
          1339.79550	         1.14517e+58
          1340.60180	         1.13082e+58
          1341.40810	         1.25215e+58
          1342.21440	         1.25548e+58
          1343.02070	         1.14374e+58
          1343.82700	         1.10161e+58
          1344.63330	         1.30970e+58
          1345.43960	         1.45832e+58
          1346.24590	         1.02601e+58
          1347.05220	         1.18877e+58
          1347.85850	         1.02616e+58
          1348.66480	         1.11553e+58
          1349.47110	         1.34802e+58
          1350.27740	         1.32655e+58
          1351.08370	         1.26525e+58
          1351.89000	         1.17781e+58
          1352.69630	         1.17966e+58
          1353.50260	         1.21376e+58
          1354.30890	         1.19958e+58
          1355.11520	         1.27514e+58
          1355.92150	         1.12432e+58
          1356.72780	         1.00458e+58
          1357.53410	         1.02645e+58
          1358.34040	         1.08406e+58
          1359.14670	         1.08614e+58
          1359.95300	         1.10351e+58
          1360.75930	         1.18179e+58
          1361.56560	         1.02645e+58
          1362.37190	         1.15735e+58
          1363.17820	         1.17414e+58
          1363.98450	         1.12032e+58
          1364.79080	         1.28445e+58
          1365.59710	         1.36656e+58
          1366.40340	         1.20178e+58
          1367.20970	         7.69875e+57
          1368.01600	         7.06057e+57
          1368.82230	         8.76921e+57
          1369.62860	         1.03119e+58
          1370.43490	         9.11492e+57
          1371.24120	         9.58607e+57
          1372.04750	         9.80152e+57
          1372.85380	         1.08907e+58
          1373.66010	         1.24658e+58
          1374.46640	         1.13320e+58
          1375.27270	         1.08063e+58
          1376.07900	         9.91707e+57
          1376.88530	         8.67346e+57
          1377.69160	         7.98945e+57
          1378.49790	         6.97533e+57
          1379.30420	         7.64725e+57
          1380.11050	         8.93420e+57
          1380.91680	         7.84296e+57
          1381.72310	         7.85632e+57
          1382.52940	         7.95122e+57
          1383.33570	         7.94905e+57
          1384.14200	         8.75969e+57
          1384.94830	         1.06985e+58
          1385.75460	         1.14404e+58
          1386.56090	         1.18892e+58
          1387.36720	         1.10769e+58
          1388.17350	         1.16743e+58
          1388.97980	         1.15036e+58
          1389.78610	         8.62808e+57
          1390.59240	         8.50284e+57
          1391.39870	         7.84002e+57
          1392.20500	         8.23552e+57
          1393.01130	         7.34331e+57
          1393.81760	         7.48427e+57
          1394.62390	         8.40478e+57
          1395.43020	         7.21577e+57
          1396.23650	         7.73811e+57
          1397.04280	         7.96488e+57
          1397.84910	         7.99450e+57
          1398.65540	         8.04402e+57
          1399.46170	         8.99153e+57
          1400.26800	         8.23859e+57
          1401.07430	         7.96033e+57
          1401.88060	         8.08207e+57
          1402.68690	         9.43692e+57
          1403.49320	         9.70696e+57
          1404.29950	         9.83681e+57
          1405.10580	         1.11881e+58
          1405.91210	         1.28473e+58
          1406.71840	         1.20861e+58
          1407.52470	         1.06792e+58
          1408.33100	         1.00921e+58
          1409.13730	         1.03905e+58
          1409.94360	         1.23522e+58
          1410.74990	         1.32935e+58
          1411.55620	         1.08176e+58
          1412.36250	         9.30887e+57
          1413.16880	         7.30247e+57
          1413.97510	         5.96801e+57
          1414.78140	         7.47213e+57
          1415.58770	         1.02040e+58
          1416.39400	         1.12742e+58
          1417.20030	         1.07760e+58
          1418.00660	         1.04770e+58
          1418.81290	         1.19912e+58
          1419.61920	         1.14797e+58
          1420.42550	         1.09530e+58
          1421.23180	         1.25463e+58
          1422.03810	         1.35884e+58
          1422.84440	         1.14304e+58
          1423.65070	         1.33998e+58
          1424.45700	         1.12663e+58
          1425.26330	         8.15078e+57
          1426.06960	         7.34145e+57
          1426.87590	         8.13781e+57
          1427.68220	         9.83737e+57
          1428.48850	         1.14082e+58
          1429.29480	         1.07013e+58
          1430.10110	         1.01111e+58
          1430.90740	         9.05453e+57
          1431.71370	         7.77263e+57
          1432.52000	         7.96217e+57
          1433.32630	         8.34696e+57
          1434.13260	         8.13305e+57
          1434.93890	         8.03763e+57
          1435.74520	         9.43724e+57
          1436.55150	         9.99491e+57
          1437.35780	         8.21505e+57
          1438.16410	         8.27453e+57
          1438.97040	         9.60667e+57
          1439.77670	         9.85270e+57
          1440.58300	         1.00946e+58
          1441.38930	         9.68715e+57
          1442.19560	         9.56423e+57
          1443.00190	         9.31427e+57
          1443.80820	         1.05884e+58
          1444.61450	         9.50895e+57
          1445.42080	         9.04614e+57
          1446.22710	         1.00010e+58
          1447.03340	         9.37936e+57
          1447.83970	         1.05591e+58
          1448.64600	         1.03627e+58
          1449.45230	         9.78214e+57
          1450.25860	         1.00811e+58
          1451.06490	         8.67634e+57
          1451.87120	         7.49149e+57
          1452.67750	         7.70073e+57
          1453.48380	         8.87255e+57
          1454.29010	         7.70666e+57
          1455.09640	         7.20138e+57
          1455.90270	         8.63570e+57
          1456.70900	         9.23412e+57
          1457.51530	         9.32883e+57
          1458.32160	         1.20479e+58
          1459.12790	         1.37596e+58
          1459.93420	         1.12803e+58
          1460.74050	         8.91371e+57
          1461.54680	         9.21018e+57
          1462.35310	         8.34566e+57
          1463.15940	         1.03468e+58
          1463.96570	         1.17307e+58
          1464.77200	         1.04672e+58
          1465.57830	         1.00430e+58
          1466.38460	         9.45875e+57
          1467.19090	         7.81184e+57
          1467.99720	         8.64289e+57
          1468.80350	         9.45560e+57
          1469.60980	         9.58554e+57
          1470.41610	         9.76869e+57
          1471.22240	         9.31360e+57
          1472.02870	         9.81491e+57
          1472.83500	         1.05138e+58
          1473.64130	         1.03614e+58
          1474.44760	         1.00954e+58
          1475.25390	         9.48638e+57
          1476.06020	         8.40655e+57
          1476.86650	         8.33122e+57
          1477.67280	         8.45090e+57
          1478.47910	         8.28700e+57
          1479.28540	         7.67298e+57
          1480.09170	         8.04672e+57
          1480.89800	         8.93266e+57
          1481.70430	         9.13772e+57
          1482.51060	         7.96261e+57
          1483.31690	         6.74822e+57
          1484.12320	         6.89784e+57
          1484.92950	         7.60771e+57
          1485.73580	         8.15267e+57
          1486.54210	         8.58458e+57
          1487.34840	         8.65601e+57
          1488.15470	         8.18275e+57
          1488.96100	         8.19829e+57
          1489.76730	         9.06028e+57
