#sample_430_stacked_spectrum_rest_UV-bands_median_H-alpha_noDC.txt
#median Lum: 1.68094e+42
#Rest-frame wavelength (A) | Luminosity (erg/s/A)
#
          1110.00000	         0.00000e+00
          1110.80630	        -1.44958e+59
          1111.61260	         1.92745e+59
          1112.41890	         7.45782e+58
          1113.22520	         2.94182e+59
          1114.03150	         1.18763e+59
          1114.83780	         1.00328e+59
          1115.64410	         1.66727e+59
          1116.45040	         2.91330e+58
          1117.25670	         3.91810e+58
          1118.06300	         1.39895e+59
          1118.86930	        -8.50886e+58
          1119.67560	         6.94434e+58
          1120.48190	        -9.96751e+57
          1121.28820	        -1.03426e+59
          1122.09450	         1.15306e+58
          1122.90080	         1.23069e+59
          1123.70710	         1.02252e+59
          1124.51340	         4.37950e+58
          1125.31970	        -1.94130e+58
          1126.12600	        -4.21098e+58
          1126.93230	        -4.23235e+58
          1127.73860	        -7.27056e+58
          1128.54490	        -9.92926e+56
          1129.35120	         2.69382e+58
          1130.15750	         4.30548e+58
          1130.96380	        -2.13388e+58
          1131.77010	         1.39286e+58
          1132.57640	         3.99468e+58
          1133.38270	         2.69887e+58
          1134.18900	         4.01846e+58
          1134.99530	         4.36507e+58
          1135.80160	         2.83726e+58
          1136.60790	         3.52508e+58
          1137.41420	         3.02412e+58
          1138.22050	         2.92270e+58
          1139.02680	         4.10441e+58
          1139.83310	         1.42804e+58
          1140.63940	         1.44917e+58
          1141.44570	        -1.18249e+58
          1142.25200	         8.58719e+57
          1143.05830	         3.71367e+58
          1143.86460	         3.65431e+58
          1144.67090	         3.70208e+58
          1145.47720	         1.43143e+58
          1146.28350	         7.22391e+57
          1147.08980	         6.89036e+57
          1147.89610	         6.72058e+57
          1148.70240	         2.03046e+58
          1149.50870	         3.38212e+58
          1150.31500	         2.75044e+58
          1151.12130	         1.43942e+58
          1151.92760	         5.53377e+57
          1152.73390	         1.79893e+56
          1153.54020	         4.22549e+57
          1154.34650	         2.58846e+58
          1155.15280	         2.40544e+58
          1155.95910	         8.55168e+56
          1156.76540	        -2.13732e+57
          1157.57170	        -1.04821e+58
          1158.37800	         1.71235e+57
          1159.18430	         4.15250e+57
          1159.99060	         1.13831e+58
          1160.79690	         1.02861e+58
          1161.60320	         1.70619e+58
          1162.40950	         1.91500e+58
          1163.21580	         7.98954e+57
          1164.02210	         1.41380e+58
          1164.82840	         6.21807e+57
          1165.63470	         1.96686e+58
          1166.44100	         3.14322e+58
          1167.24730	         1.04430e+58
          1168.05360	         7.84470e+57
          1168.85990	         1.05243e+58
          1169.66620	         7.56666e+57
          1170.47250	         7.27952e+57
          1171.27880	         1.28724e+58
          1172.08510	         1.04025e+58
          1172.89140	         4.57787e+57
          1173.69770	         1.16370e+58
          1174.50400	         1.07798e+58
          1175.31030	         1.73284e+58
          1176.11660	         2.26444e+58
          1176.92290	         1.59989e+58
          1177.72920	         5.95506e+57
          1178.53550	         4.32716e+57
          1179.34180	         5.23201e+57
          1180.14810	         1.08372e+58
          1180.95440	         1.18631e+58
          1181.76070	         8.35756e+57
          1182.56700	         9.34841e+57
          1183.37330	         9.80065e+57
          1184.17960	         8.22247e+57
          1184.98590	         7.70928e+57
          1185.79220	         5.76151e+57
          1186.59850	         4.78583e+57
          1187.40480	         8.14460e+57
          1188.21110	         1.50860e+58
          1189.01740	         1.11570e+58
          1189.82370	         9.30569e+57
          1190.63000	         7.75847e+57
          1191.43630	         1.18445e+58
          1192.24260	         1.41908e+58
          1193.04890	         1.31227e+58
          1193.85520	         1.20981e+58
          1194.66150	         8.40620e+57
          1195.46780	         1.45989e+58
          1196.27410	         1.67258e+58
          1197.08040	         1.03644e+58
          1197.88670	         1.37086e+58
          1198.69300	         1.32586e+58
          1199.49930	         1.36323e+58
          1200.30560	         1.23276e+58
          1201.11190	         1.50302e+58
          1201.91820	         1.10115e+58
          1202.72450	         6.26400e+57
          1203.53080	         1.84399e+58
          1204.33710	         8.57263e+57
          1205.14340	         1.11582e+58
          1205.94970	         8.12966e+57
          1206.75600	         4.56782e+57
          1207.56230	         4.34137e+57
          1208.36860	         4.80135e+57
          1209.17490	         7.13726e+57
          1209.98120	         1.01484e+58
          1210.78750	         8.55129e+57
          1211.59380	         9.17951e+57
          1212.40010	         1.84663e+58
          1213.20640	         2.11006e+58
          1214.01270	         1.88684e+58
          1214.81900	         2.52925e+58
          1215.62530	         4.66522e+58
          1216.43160	         9.01300e+58
          1217.23790	         1.51609e+59
          1218.04420	         1.10302e+59
          1218.85050	         8.35446e+58
          1219.65680	         5.88748e+58
          1220.46310	         3.31105e+58
          1221.26940	         2.26877e+58
          1222.07570	         1.55824e+58
          1222.88200	         1.33181e+58
          1223.68830	         9.66797e+57
          1224.49460	         8.85955e+57
          1225.30090	         8.22438e+57
          1226.10720	         7.74274e+57
          1226.91350	         6.40359e+57
          1227.71980	         6.78330e+57
          1228.52610	         1.10645e+58
          1229.33240	         9.73793e+57
          1230.13870	         1.03589e+58
          1230.94500	         9.02809e+57
          1231.75130	         6.18364e+57
          1232.55760	         8.27739e+57
          1233.36390	         8.59427e+57
          1234.17020	         5.59056e+57
          1234.97650	         6.62740e+57
          1235.78280	         7.63239e+57
          1236.58910	         8.70002e+57
          1237.39540	         8.26314e+57
          1238.20170	         9.16220e+57
          1239.00800	         1.35331e+58
          1239.81430	         1.34415e+58
          1240.62060	         1.09269e+58
          1241.42690	         1.05810e+58
          1242.23320	         1.27988e+58
          1243.03950	         1.00762e+58
          1243.84580	         1.03298e+58
          1244.65210	         1.04113e+58
          1245.45840	         1.06528e+58
          1246.26470	         1.05269e+58
          1247.07100	         7.69693e+57
          1247.87730	         4.06771e+57
          1248.68360	         2.92899e+57
          1249.48990	         5.29019e+57
          1250.29620	         9.12182e+57
          1251.10250	         1.05191e+58
          1251.90880	         7.35284e+57
          1252.71510	         6.97544e+57
          1253.52140	         6.14404e+57
          1254.32770	         1.11397e+58
          1255.13400	         1.43449e+58
          1255.94030	         1.15079e+58
          1256.74660	         9.76968e+57
          1257.55290	         1.25506e+58
          1258.35920	         9.43577e+57
          1259.16550	         5.30446e+57
          1259.97180	         6.46128e+57
          1260.77810	         8.06305e+57
          1261.58440	         1.00276e+58
          1262.39070	         8.88928e+57
          1263.19700	         8.44712e+57
          1264.00330	         1.05987e+58
          1264.80960	         1.01992e+58
          1265.61590	         1.11618e+58
          1266.42220	         1.33327e+58
          1267.22850	         1.17690e+58
          1268.03480	         1.27067e+58
          1268.84110	         1.42465e+58
          1269.64740	         1.29619e+58
          1270.45370	         1.23071e+58
          1271.26000	         1.03233e+58
          1272.06630	         9.26561e+57
          1272.87260	         1.07587e+58
          1273.67890	         1.23046e+58
          1274.48520	         1.28213e+58
          1275.29150	         1.23234e+58
          1276.09780	         1.26617e+58
          1276.90410	         1.49228e+58
          1277.71040	         1.31004e+58
          1278.51670	         1.13248e+58
          1279.32300	         1.37496e+58
          1280.12930	         1.38190e+58
          1280.93560	         1.01429e+58
          1281.74190	         9.94829e+57
          1282.54820	         1.29879e+58
          1283.35450	         1.17130e+58
          1284.16080	         1.16449e+58
          1284.96710	         1.41697e+58
          1285.77340	         1.21165e+58
          1286.57970	         1.08243e+58
          1287.38600	         1.42396e+58
          1288.19230	         1.61004e+58
          1288.99860	         1.38147e+58
          1289.80490	         1.15156e+58
          1290.61120	         1.15795e+58
          1291.41750	         1.29224e+58
          1292.22380	         1.20719e+58
          1293.03010	         1.03511e+58
          1293.83640	         1.00701e+58
          1294.64270	         9.33894e+57
          1295.44900	         7.02953e+57
          1296.25530	         7.37084e+57
          1297.06160	         1.02240e+58
          1297.86790	         9.34075e+57
          1298.67420	         8.42022e+57
          1299.48050	         9.95020e+57
          1300.28680	         1.03221e+58
          1301.09310	         8.18063e+57
          1301.89940	         4.81144e+57
          1302.70570	         5.42974e+57
          1303.51200	         7.96672e+57
          1304.31830	         9.54399e+57
          1305.12460	         9.91980e+57
          1305.93090	         1.13858e+58
          1306.73720	         1.32475e+58
          1307.54350	         1.37167e+58
          1308.34980	         1.48478e+58
          1309.15610	         1.63548e+58
          1309.96240	         1.61912e+58
          1310.76870	         1.25172e+58
          1311.57500	         1.00073e+58
          1312.38130	         1.25984e+58
          1313.18760	         1.59714e+58
          1313.99390	         1.58876e+58
          1314.80020	         1.50748e+58
          1315.60650	         1.52577e+58
          1316.41280	         1.38529e+58
          1317.21910	         1.01586e+58
          1318.02540	         1.09792e+58
          1318.83170	         1.29421e+58
          1319.63800	         1.15519e+58
          1320.44430	         1.08120e+58
          1321.25060	         1.14734e+58
          1322.05690	         1.26916e+58
          1322.86320	         1.23342e+58
          1323.66950	         1.11622e+58
          1324.47580	         9.89716e+57
          1325.28210	         9.69385e+57
          1326.08840	         1.08814e+58
          1326.89470	         1.16722e+58
          1327.70100	         1.06575e+58
          1328.50730	         9.35343e+57
          1329.31360	         1.01898e+58
          1330.11990	         1.05743e+58
          1330.92620	         8.50992e+57
          1331.73250	         1.05079e+58
          1332.53880	         1.05025e+58
          1333.34510	         8.19407e+57
          1334.15140	         7.29443e+57
          1334.95770	         8.27436e+57
          1335.76400	         1.08626e+58
          1336.57030	         1.12422e+58
          1337.37660	         1.10012e+58
          1338.18290	         1.13423e+58
          1338.98920	         1.22769e+58
          1339.79550	         1.15534e+58
          1340.60180	         1.21532e+58
          1341.40810	         1.26898e+58
          1342.21440	         1.17687e+58
          1343.02070	         1.14591e+58
          1343.82700	         1.22078e+58
          1344.63330	         1.17486e+58
          1345.43960	         1.22903e+58
          1346.24590	         1.12614e+58
          1347.05220	         1.13414e+58
          1347.85850	         9.45855e+57
          1348.66480	         1.01503e+58
          1349.47110	         1.27697e+58
          1350.27740	         1.15047e+58
          1351.08370	         1.14103e+58
          1351.89000	         1.14094e+58
          1352.69630	         1.21724e+58
          1353.50260	         1.11350e+58
          1354.30890	         1.07020e+58
          1355.11520	         1.18168e+58
          1355.92150	         1.17200e+58
          1356.72780	         1.01777e+58
          1357.53410	         1.03482e+58
          1358.34040	         1.11661e+58
          1359.14670	         1.08619e+58
          1359.95300	         1.18165e+58
          1360.75930	         1.17697e+58
          1361.56560	         9.72093e+57
          1362.37190	         1.09957e+58
          1363.17820	         1.08764e+58
          1363.98450	         1.15698e+58
          1364.79080	         1.36935e+58
          1365.59710	         1.46172e+58
          1366.40340	         1.30444e+58
          1367.20970	         1.13817e+58
          1368.01600	         1.03690e+58
          1368.82230	         9.97762e+57
          1369.62860	         1.16214e+58
          1370.43490	         1.01752e+58
          1371.24120	         8.80657e+57
          1372.04750	         7.93978e+57
          1372.85380	         1.01425e+58
          1373.66010	         1.07363e+58
          1374.46640	         1.01064e+58
          1375.27270	         9.31401e+57
          1376.07900	         8.43913e+57
          1376.88530	         8.34423e+57
          1377.69160	         7.58010e+57
          1378.49790	         7.01297e+57
          1379.30420	         7.28860e+57
          1380.11050	         8.15758e+57
          1380.91680	         8.67048e+57
          1381.72310	         8.35746e+57
          1382.52940	         7.44028e+57
          1383.33570	         9.17901e+57
          1384.14200	         1.14424e+58
          1384.94830	         1.11315e+58
          1385.75460	         1.04534e+58
          1386.56090	         1.10135e+58
          1387.36720	         1.02934e+58
          1388.17350	         1.18896e+58
          1388.97980	         1.21146e+58
          1389.78610	         9.24573e+57
          1390.59240	         7.76927e+57
          1391.39870	         7.36054e+57
          1392.20500	         8.36782e+57
          1393.01130	         8.06295e+57
          1393.81760	         7.93140e+57
          1394.62390	         9.38777e+57
          1395.43020	         7.94765e+57
          1396.23650	         7.10543e+57
          1397.04280	         7.80213e+57
          1397.84910	         8.90236e+57
          1398.65540	         8.20667e+57
          1399.46170	         1.02703e+58
          1400.26800	         9.25701e+57
          1401.07430	         8.17792e+57
          1401.88060	         7.58397e+57
          1402.68690	         8.11473e+57
          1403.49320	         8.64896e+57
          1404.29950	         8.40437e+57
          1405.10580	         9.56079e+57
          1405.91210	         9.13011e+57
          1406.71840	         9.86136e+57
          1407.52470	         1.07192e+58
          1408.33100	         1.08224e+58
          1409.13730	         1.18859e+58
          1409.94360	         1.28580e+58
          1410.74990	         1.23842e+58
          1411.55620	         1.04025e+58
          1412.36250	         8.69274e+57
          1413.16880	         7.55883e+57
          1413.97510	         8.67636e+57
          1414.78140	         1.00303e+58
          1415.58770	         1.03288e+58
          1416.39400	         9.89651e+57
          1417.20030	         1.00433e+58
          1418.00660	         9.49296e+57
          1418.81290	         8.98347e+57
          1419.61920	         9.53528e+57
          1420.42550	         1.21690e+58
          1421.23180	         1.45069e+58
          1422.03810	         1.31093e+58
          1422.84440	         1.23694e+58
          1423.65070	         1.41542e+58
          1424.45700	         1.25701e+58
          1425.26330	         9.02311e+57
          1426.06960	         9.64135e+57
          1426.87590	         1.02386e+58
          1427.68220	         9.65675e+57
          1428.48850	         1.04165e+58
          1429.29480	         9.96045e+57
          1430.10110	         8.57514e+57
          1430.90740	         8.47225e+57
          1431.71370	         8.67547e+57
          1432.52000	         8.57004e+57
          1433.32630	         9.06704e+57
          1434.13260	         8.45845e+57
          1434.93890	         8.29462e+57
          1435.74520	         9.67892e+57
          1436.55150	         1.00121e+58
          1437.35780	         9.18828e+57
          1438.16410	         9.04913e+57
          1438.97040	         8.74599e+57
          1439.77670	         8.98351e+57
          1440.58300	         8.86361e+57
          1441.38930	         8.98871e+57
          1442.19560	         9.74079e+57
          1443.00190	         9.69804e+57
          1443.80820	         1.06938e+58
          1444.61450	         1.02379e+58
          1445.42080	         9.32406e+57
          1446.22710	         9.43330e+57
          1447.03340	         1.03791e+58
          1447.83970	         1.08348e+58
          1448.64600	         1.11876e+58
          1449.45230	         1.07822e+58
          1450.25860	         9.95675e+57
          1451.06490	         9.42031e+57
          1451.87120	         8.48361e+57
          1452.67750	         7.94488e+57
          1453.48380	         9.34780e+57
          1454.29010	         8.87037e+57
          1455.09640	         7.23530e+57
          1455.90270	         8.16912e+57
          1456.70900	         7.81553e+57
          1457.51530	         8.39793e+57
          1458.32160	         1.18848e+58
          1459.12790	         1.24049e+58
          1459.93420	         1.12196e+58
          1460.74050	         9.12392e+57
          1461.54680	         7.45415e+57
          1462.35310	         7.45164e+57
          1463.15940	         8.87668e+57
          1463.96570	         1.03569e+58
          1464.77200	         1.15323e+58
          1465.57830	         1.11167e+58
          1466.38460	         9.24940e+57
          1467.19090	         8.38434e+57
          1467.99720	         7.93965e+57
          1468.80350	         8.37390e+57
          1469.60980	         9.78917e+57
          1470.41610	         1.11320e+58
          1471.22240	         9.74289e+57
          1472.02870	         8.98186e+57
          1472.83500	         9.79211e+57
          1473.64130	         1.06490e+58
          1474.44760	         1.01235e+58
          1475.25390	         9.56135e+57
          1476.06020	         9.26216e+57
          1476.86650	         7.90526e+57
          1477.67280	         7.37493e+57
          1478.47910	         6.53549e+57
          1479.28540	         6.90929e+57
          1480.09170	         7.96583e+57
          1480.89800	         8.59550e+57
          1481.70430	         9.29418e+57
          1482.51060	         8.32209e+57
          1483.31690	         9.08756e+57
          1484.12320	         8.48886e+57
          1484.92950	         7.96425e+57
          1485.73580	         8.67615e+57
          1486.54210	         9.78711e+57
          1487.34840	         9.17501e+57
          1488.15470	         7.22650e+57
          1488.96100	         8.10149e+57
          1489.76730	         9.76672e+57
