#sample_167_stacked_spectrum_rest_UV-bands_median_H-alpha_noDC.txt
#median Lum: 1.70767e+42
#Rest-frame wavelength (A) | Luminosity (erg/s/A)
#
          1110.00000	         0.00000e+00
          1110.80630	         2.78049e+59
          1111.61260	        -2.30590e+58
          1112.41890	         5.93157e+58
          1113.22520	        -8.73512e+57
          1114.03150	        -2.05650e+59
          1114.83780	         5.94028e+58
          1115.64410	         1.88096e+58
          1116.45040	         1.84318e+59
          1117.25670	         4.79760e+58
          1118.06300	        -1.73047e+58
          1118.86930	        -1.44483e+59
          1119.67560	         3.92322e+58
          1120.48190	         1.64728e+57
          1121.28820	        -6.66206e+58
          1122.09450	        -4.15574e+58
          1122.90080	        -3.29252e+57
          1123.70710	         1.05767e+59
          1124.51340	         2.70155e+58
          1125.31970	        -5.97009e+58
          1126.12600	        -4.92763e+58
          1126.93230	        -4.40652e+58
          1127.73860	        -9.11715e+58
          1128.54490	        -5.23523e+58
          1129.35120	        -1.03799e+58
          1130.15750	        -2.11998e+57
          1130.96380	        -1.79164e+56
          1131.77010	         7.81879e+58
          1132.57640	         5.18188e+58
          1133.38270	         4.84054e+58
          1134.18900	         1.63253e+58
          1134.99530	         2.70848e+58
          1135.80160	        -1.28179e+57
          1136.60790	         3.86967e+58
          1137.41420	        -2.41804e+57
          1138.22050	         2.82117e+58
          1139.02680	         2.87792e+58
          1139.83310	         1.23036e+58
          1140.63940	         3.65959e+57
          1141.44570	         1.82293e+57
          1142.25200	        -1.07075e+58
          1143.05830	         7.05382e+56
          1143.86460	         1.42468e+58
          1144.67090	         1.87072e+58
          1145.47720	         1.38120e+58
          1146.28350	         2.48777e+57
          1147.08980	         1.54040e+58
          1147.89610	         2.61714e+58
          1148.70240	         2.88197e+58
          1149.50870	         1.98796e+58
          1150.31500	         3.29153e+57
          1151.12130	         5.71365e+57
          1151.92760	         1.20975e+58
          1152.73390	         9.67032e+56
          1153.54020	        -7.07671e+57
          1154.34650	         1.57229e+58
          1155.15280	         1.26538e+58
          1155.95910	         9.97088e+57
          1156.76540	         6.50431e+57
          1157.57170	         3.86745e+57
          1158.37800	        -7.86653e+57
          1159.18430	        -6.17798e+57
          1159.99060	         1.12840e+58
          1160.79690	         5.90216e+57
          1161.60320	         1.89562e+58
          1162.40950	         1.68500e+58
          1163.21580	         1.96429e+58
          1164.02210	         1.74128e+58
          1164.82840	         3.20852e+57
          1165.63470	         1.87891e+58
          1166.44100	         2.80803e+58
          1167.24730	         2.32238e+58
          1168.05360	         5.80639e+57
          1168.85990	         6.32574e+57
          1169.66620	         6.77177e+57
          1170.47250	         1.27153e+58
          1171.27880	         1.03093e+58
          1172.08510	         1.68587e+58
          1172.89140	         3.35770e+57
          1173.69770	         9.71419e+57
          1174.50400	         3.89030e+57
          1175.31030	         9.94496e+57
          1176.11660	         1.95349e+58
          1176.92290	         9.81215e+57
          1177.72920	         1.15437e+58
          1178.53550	         7.69230e+57
          1179.34180	         4.20524e+57
          1180.14810	         5.32106e+57
          1180.95440	         8.39730e+57
          1181.76070	         1.00402e+58
          1182.56700	         9.76357e+57
          1183.37330	         7.00160e+57
          1184.17960	         9.87514e+57
          1184.98590	         8.51296e+57
          1185.79220	         5.80000e+57
          1186.59850	         6.35388e+57
          1187.40480	         7.19989e+57
          1188.21110	         1.52940e+58
          1189.01740	         8.54051e+57
          1189.82370	         1.19077e+58
          1190.63000	         1.17078e+58
          1191.43630	         1.28204e+58
          1192.24260	         1.13148e+58
          1193.04890	         1.19678e+58
          1193.85520	         1.39113e+58
          1194.66150	         1.03065e+58
          1195.46780	         1.34089e+58
          1196.27410	         1.25205e+58
          1197.08040	         7.42315e+57
          1197.88670	         1.52764e+58
          1198.69300	         1.75557e+58
          1199.49930	         1.78083e+58
          1200.30560	         1.46537e+58
          1201.11190	         9.77531e+57
          1201.91820	         8.16230e+57
          1202.72450	         1.11625e+58
          1203.53080	         1.43843e+58
          1204.33710	         7.98066e+57
          1205.14340	         5.10415e+57
          1205.94970	         6.69443e+57
          1206.75600	         5.63615e+57
          1207.56230	         5.87219e+57
          1208.36860	         7.30234e+57
          1209.17490	         3.13650e+57
          1209.98120	         4.78742e+57
          1210.78750	         7.56321e+57
          1211.59380	         1.15926e+58
          1212.40010	         1.75811e+58
          1213.20640	         2.27282e+58
          1214.01270	         1.99059e+58
          1214.81900	         2.72159e+58
          1215.62530	         4.74721e+58
          1216.43160	         9.03553e+58
          1217.23790	         1.50018e+59
          1218.04420	         1.21493e+59
          1218.85050	         8.88212e+58
          1219.65680	         6.04875e+58
          1220.46310	         3.61080e+58
          1221.26940	         2.00200e+58
          1222.07570	         1.16682e+58
          1222.88200	         1.11412e+58
          1223.68830	         1.24958e+58
          1224.49460	         9.34550e+57
          1225.30090	         6.26464e+57
          1226.10720	         5.47794e+57
          1226.91350	         6.53605e+57
          1227.71980	         7.69749e+57
          1228.52610	         1.05187e+58
          1229.33240	         7.57617e+57
          1230.13870	         6.46667e+57
          1230.94500	         9.14976e+57
          1231.75130	         8.08289e+57
          1232.55760	         7.64538e+57
          1233.36390	         9.13127e+57
          1234.17020	         8.80020e+57
          1234.97650	         8.95259e+57
          1235.78280	         8.90203e+57
          1236.58910	         7.95878e+57
          1237.39540	         1.07446e+58
          1238.20170	         1.07774e+58
          1239.00800	         1.15911e+58
          1239.81430	         1.29776e+58
          1240.62060	         1.26446e+58
          1241.42690	         1.24980e+58
          1242.23320	         1.31795e+58
          1243.03950	         9.14061e+57
          1243.84580	         8.34088e+57
          1244.65210	         9.32999e+57
          1245.45840	         9.47281e+57
          1246.26470	         9.47685e+57
          1247.07100	         7.30945e+57
          1247.87730	         4.64822e+57
          1248.68360	         2.65441e+57
          1249.48990	         6.32873e+57
          1250.29620	         8.09779e+57
          1251.10250	         7.13089e+57
          1251.90880	         6.43739e+57
          1252.71510	         5.93181e+57
          1253.52140	         5.83781e+57
          1254.32770	         9.21327e+57
          1255.13400	         1.31590e+58
          1255.94030	         1.38336e+58
          1256.74660	         1.14114e+58
          1257.55290	         9.73333e+57
          1258.35920	         7.78837e+57
          1259.16550	         6.45617e+57
          1259.97180	         4.34420e+57
          1260.77810	         7.72692e+57
          1261.58440	         1.21719e+58
          1262.39070	         8.99152e+57
          1263.19700	         8.33781e+57
          1264.00330	         9.61250e+57
          1264.80960	         1.01496e+58
          1265.61590	         1.15573e+58
          1266.42220	         1.21676e+58
          1267.22850	         1.11962e+58
          1268.03480	         1.39926e+58
          1268.84110	         1.50912e+58
          1269.64740	         1.28729e+58
          1270.45370	         1.39617e+58
          1271.26000	         1.15309e+58
          1272.06630	         1.20830e+58
          1272.87260	         1.33626e+58
          1273.67890	         1.22710e+58
          1274.48520	         1.07337e+58
          1275.29150	         1.17154e+58
          1276.09780	         1.05338e+58
          1276.90410	         1.24156e+58
          1277.71040	         1.19570e+58
          1278.51670	         1.17739e+58
          1279.32300	         1.42769e+58
          1280.12930	         1.42729e+58
          1280.93560	         1.04544e+58
          1281.74190	         1.13389e+58
          1282.54820	         1.16946e+58
          1283.35450	         8.76387e+57
          1284.16080	         8.67197e+57
          1284.96710	         1.33363e+58
          1285.77340	         1.14844e+58
          1286.57970	         9.20723e+57
          1287.38600	         1.39659e+58
          1288.19230	         1.76547e+58
          1288.99860	         1.49387e+58
          1289.80490	         9.60303e+57
          1290.61120	         1.28286e+58
          1291.41750	         1.31182e+58
          1292.22380	         1.01388e+58
          1293.03010	         1.06819e+58
          1293.83640	         1.10908e+58
          1294.64270	         8.39038e+57
          1295.44900	         6.27015e+57
          1296.25530	         7.13675e+57
          1297.06160	         1.02277e+58
          1297.86790	         1.06439e+58
          1298.67420	         8.48437e+57
          1299.48050	         7.92501e+57
          1300.28680	         1.00372e+58
          1301.09310	         8.01992e+57
          1301.89940	         3.75891e+57
          1302.70570	         5.76431e+57
          1303.51200	         8.33114e+57
          1304.31830	         8.86687e+57
          1305.12460	         9.79691e+57
          1305.93090	         1.07212e+58
          1306.73720	         1.27619e+58
          1307.54350	         1.49241e+58
          1308.34980	         1.46440e+58
          1309.15610	         1.39987e+58
          1309.96240	         1.34464e+58
          1310.76870	         1.34604e+58
          1311.57500	         1.39570e+58
          1312.38130	         1.13515e+58
          1313.18760	         1.32195e+58
          1313.99390	         1.67281e+58
          1314.80020	         1.49081e+58
          1315.60650	         1.40290e+58
          1316.41280	         1.28617e+58
          1317.21910	         1.00011e+58
          1318.02540	         1.16020e+58
          1318.83170	         1.26144e+58
          1319.63800	         1.19648e+58
          1320.44430	         1.13351e+58
          1321.25060	         1.16746e+58
          1322.05690	         1.13201e+58
          1322.86320	         1.17723e+58
          1323.66950	         1.05908e+58
          1324.47580	         8.94248e+57
          1325.28210	         1.05905e+58
          1326.08840	         1.24883e+58
          1326.89470	         1.30897e+58
          1327.70100	         1.10170e+58
          1328.50730	         8.51050e+57
          1329.31360	         8.56269e+57
          1330.11990	         1.04774e+58
          1330.92620	         9.71022e+57
          1331.73250	         1.13259e+58
          1332.53880	         1.06597e+58
          1333.34510	         8.86285e+57
          1334.15140	         8.65318e+57
          1334.95770	         8.82479e+57
          1335.76400	         1.05794e+58
          1336.57030	         1.03985e+58
          1337.37660	         1.08281e+58
          1338.18290	         1.15221e+58
          1338.98920	         1.04950e+58
          1339.79550	         1.12816e+58
          1340.60180	         1.32967e+58
          1341.40810	         1.44496e+58
          1342.21440	         1.33450e+58
          1343.02070	         1.42930e+58
          1343.82700	         1.36296e+58
          1344.63330	         1.22379e+58
          1345.43960	         1.38582e+58
          1346.24590	         1.09352e+58
          1347.05220	         1.10821e+58
          1347.85850	         1.09101e+58
          1348.66480	         1.18603e+58
          1349.47110	         1.19488e+58
          1350.27740	         1.06270e+58
          1351.08370	         1.12021e+58
          1351.89000	         1.24271e+58
          1352.69630	         1.16499e+58
          1353.50260	         1.17337e+58
          1354.30890	         1.11641e+58
          1355.11520	         1.09899e+58
          1355.92150	         1.11536e+58
          1356.72780	         1.02557e+58
          1357.53410	         9.87140e+57
          1358.34040	         1.02950e+58
          1359.14670	         1.15825e+58
          1359.95300	         1.10865e+58
          1360.75930	         1.02076e+58
          1361.56560	         9.57296e+57
          1362.37190	         1.11966e+58
          1363.17820	         1.11955e+58
          1363.98450	         1.13490e+58
          1364.79080	         1.29651e+58
          1365.59710	         1.28818e+58
          1366.40340	         1.23825e+58
          1367.20970	         1.11877e+58
          1368.01600	         9.57304e+57
          1368.82230	         9.77204e+57
          1369.62860	         9.65647e+57
          1370.43490	         8.60561e+57
          1371.24120	         9.31920e+57
          1372.04750	         9.36687e+57
          1372.85380	         1.12026e+58
          1373.66010	         1.19000e+58
          1374.46640	         1.18228e+58
          1375.27270	         1.21797e+58
          1376.07900	         1.02170e+58
          1376.88530	         8.41922e+57
          1377.69160	         8.32892e+57
          1378.49790	         8.18851e+57
          1379.30420	         8.67770e+57
          1380.11050	         9.71294e+57
          1380.91680	         8.85864e+57
          1381.72310	         8.31502e+57
          1382.52940	         8.26019e+57
          1383.33570	         8.98507e+57
          1384.14200	         9.15308e+57
          1384.94830	         1.00687e+58
          1385.75460	         1.02242e+58
          1386.56090	         1.00556e+58
          1387.36720	         1.05958e+58
          1388.17350	         1.22632e+58
          1388.97980	         1.06064e+58
          1389.78610	         9.51596e+57
          1390.59240	         7.74412e+57
          1391.39870	         6.72558e+57
          1392.20500	         8.04152e+57
          1393.01130	         8.75004e+57
          1393.81760	         8.63805e+57
          1394.62390	         7.39490e+57
          1395.43020	         6.08664e+57
          1396.23650	         6.17146e+57
          1397.04280	         7.94175e+57
          1397.84910	         9.36036e+57
          1398.65540	         8.28526e+57
          1399.46170	         9.65364e+57
          1400.26800	         9.22226e+57
          1401.07430	         7.04693e+57
          1401.88060	         7.73923e+57
          1402.68690	         9.03033e+57
          1403.49320	         1.00523e+58
          1404.29950	         1.08589e+58
          1405.10580	         1.15099e+58
          1405.91210	         1.10175e+58
          1406.71840	         1.01622e+58
          1407.52470	         1.02901e+58
          1408.33100	         1.08164e+58
          1409.13730	         1.21344e+58
          1409.94360	         1.24033e+58
          1410.74990	         1.22606e+58
          1411.55620	         9.49167e+57
          1412.36250	         8.95627e+57
          1413.16880	         9.39219e+57
          1413.97510	         8.72219e+57
          1414.78140	         8.46126e+57
          1415.58770	         9.94170e+57
          1416.39400	         1.06039e+58
          1417.20030	         1.08361e+58
          1418.00660	         9.47663e+57
          1418.81290	         9.30954e+57
          1419.61920	         9.48613e+57
          1420.42550	         1.07575e+58
          1421.23180	         1.30167e+58
          1422.03810	         1.24874e+58
          1422.84440	         1.17436e+58
          1423.65070	         1.25608e+58
          1424.45700	         1.02831e+58
          1425.26330	         8.03630e+57
          1426.06960	         8.78357e+57
          1426.87590	         1.02792e+58
          1427.68220	         1.03560e+58
          1428.48850	         1.07519e+58
          1429.29480	         9.88689e+57
          1430.10110	         9.80230e+57
          1430.90740	         8.67105e+57
          1431.71370	         8.24092e+57
          1432.52000	         8.19022e+57
          1433.32630	         7.13855e+57
          1434.13260	         7.73354e+57
          1434.93890	         8.30810e+57
          1435.74520	         8.73291e+57
          1436.55150	         8.75113e+57
          1437.35780	         8.59691e+57
          1438.16410	         8.57088e+57
          1438.97040	         8.98560e+57
          1439.77670	         9.48229e+57
          1440.58300	         9.26393e+57
          1441.38930	         9.84392e+57
          1442.19560	         8.81581e+57
          1443.00190	         8.58218e+57
          1443.80820	         9.99645e+57
          1444.61450	         8.84597e+57
          1445.42080	         8.25700e+57
          1446.22710	         1.05742e+58
          1447.03340	         1.01426e+58
          1447.83970	         1.03114e+58
          1448.64600	         1.12534e+58
          1449.45230	         1.16904e+58
          1450.25860	         1.09109e+58
          1451.06490	         9.11295e+57
          1451.87120	         8.04761e+57
          1452.67750	         7.66818e+57
          1453.48380	         8.67269e+57
          1454.29010	         7.74554e+57
          1455.09640	         6.64638e+57
          1455.90270	         7.81468e+57
          1456.70900	         8.30703e+57
          1457.51530	         8.99304e+57
          1458.32160	         1.10294e+58
          1459.12790	         1.22161e+58
          1459.93420	         1.07422e+58
          1460.74050	         7.43003e+57
          1461.54680	         8.66381e+57
          1462.35310	         9.16927e+57
          1463.15940	         1.16255e+58
          1463.96570	         1.27834e+58
          1464.77200	         1.19317e+58
          1465.57830	         1.11234e+58
          1466.38460	         9.90812e+57
          1467.19090	         9.30125e+57
          1467.99720	         8.70243e+57
          1468.80350	         8.24587e+57
          1469.60980	         9.03206e+57
          1470.41610	         1.05727e+58
          1471.22240	         1.00788e+58
          1472.02870	         9.87663e+57
          1472.83500	         9.44095e+57
          1473.64130	         9.34918e+57
          1474.44760	         1.03184e+58
          1475.25390	         1.00026e+58
          1476.06020	         8.86155e+57
          1476.86650	         8.55377e+57
          1477.67280	         7.87792e+57
          1478.47910	         6.92821e+57
          1479.28540	         7.52302e+57
          1480.09170	         8.67522e+57
          1480.89800	         9.52942e+57
          1481.70430	         1.00882e+58
          1482.51060	         9.55106e+57
          1483.31690	         8.34366e+57
          1484.12320	         8.26906e+57
          1484.92950	         7.64804e+57
          1485.73580	         8.06557e+57
          1486.54210	         9.26115e+57
          1487.34840	         7.94221e+57
          1488.15470	         7.96255e+57
          1488.96100	         9.11928e+57
          1489.76730	         9.20610e+57
