#sample_440_stacked_spectrum_rest_UV-bands_median_H-alpha_noDC.txt
#median Lum: 1.72693e+42
#Rest-frame wavelength (A) | Luminosity (erg/s/A)
#
          1110.00000	         0.00000e+00
          1110.80630	        -1.89704e+59
          1111.61260	        -6.44374e+58
          1112.41890	         4.00737e+58
          1113.22520	         2.45033e+58
          1114.03150	        -7.98617e+58
          1114.83780	         2.23410e+59
          1115.64410	         1.90411e+59
          1116.45040	         3.11423e+59
          1117.25670	         3.28289e+58
          1118.06300	        -4.60347e+58
          1118.86930	         2.65507e+58
          1119.67560	         9.22307e+58
          1120.48190	        -5.41852e+58
          1121.28820	        -1.08857e+59
          1122.09450	        -2.57489e+58
          1122.90080	        -2.43402e+58
          1123.70710	         5.71433e+58
          1124.51340	         4.36588e+58
          1125.31970	        -2.80050e+57
          1126.12600	        -4.91299e+58
          1126.93230	        -7.82630e+58
          1127.73860	        -8.90656e+58
          1128.54490	        -1.34848e+57
          1129.35120	         2.27374e+58
          1130.15750	        -2.07111e+58
          1130.96380	        -2.96509e+58
          1131.77010	         4.56206e+58
          1132.57640	         5.37552e+58
          1133.38270	         3.63842e+58
          1134.18900	         4.60580e+58
          1134.99530	         1.67321e+58
          1135.80160	         3.13781e+57
          1136.60790	         1.93901e+58
          1137.41420	         8.67399e+57
          1138.22050	         5.31577e+58
          1139.02680	         3.58547e+58
          1139.83310	         2.38127e+58
          1140.63940	         1.68837e+58
          1141.44570	        -4.36175e+57
          1142.25200	        -7.52831e+57
          1143.05830	         1.88502e+58
          1143.86460	         4.68234e+58
          1144.67090	        -3.46028e+56
          1145.47720	         5.91711e+57
          1146.28350	         2.30473e+58
          1147.08980	         1.18157e+58
          1147.89610	         1.94336e+58
          1148.70240	         2.07172e+58
          1149.50870	         1.32252e+58
          1150.31500	         1.32294e+58
          1151.12130	         7.84627e+57
          1151.92760	         4.91818e+57
          1152.73390	         1.06680e+58
          1153.54020	         4.83778e+56
          1154.34650	         1.64296e+58
          1155.15280	         2.58913e+58
          1155.95910	         8.43077e+57
          1156.76540	         5.25263e+57
          1157.57170	         2.81619e+57
          1158.37800	         8.83128e+57
          1159.18430	         5.45572e+57
          1159.99060	         4.30792e+57
          1160.79690	         5.52193e+57
          1161.60320	         1.19414e+58
          1162.40950	         1.62855e+58
          1163.21580	         1.26496e+58
          1164.02210	         1.28332e+58
          1164.82840	         1.26813e+58
          1165.63470	         2.55249e+58
          1166.44100	         3.30805e+58
          1167.24730	         1.46266e+58
          1168.05360	         3.92931e+57
          1168.85990	         5.07404e+57
          1169.66620	         1.24578e+58
          1170.47250	         1.29534e+58
          1171.27880	         1.38955e+58
          1172.08510	         1.88244e+58
          1172.89140	         1.23094e+58
          1173.69770	         6.39514e+57
          1174.50400	         1.30613e+58
          1175.31030	         1.43417e+58
          1176.11660	         1.77098e+58
          1176.92290	         1.69592e+58
          1177.72920	         9.15675e+57
          1178.53550	         6.63986e+57
          1179.34180	         7.76543e+56
          1180.14810	         5.04515e+57
          1180.95440	         1.02435e+58
          1181.76070	         1.03397e+58
          1182.56700	         7.61180e+57
          1183.37330	         5.71799e+57
          1184.17960	         1.22803e+58
          1184.98590	         8.52576e+57
          1185.79220	         3.17195e+57
          1186.59850	         6.73779e+57
          1187.40480	         7.50261e+57
          1188.21110	         1.42139e+58
          1189.01740	         9.48251e+57
          1189.82370	         1.24271e+58
          1190.63000	         1.38927e+58
          1191.43630	         1.58507e+58
          1192.24260	         1.30385e+58
          1193.04890	         1.60771e+58
          1193.85520	         1.10918e+58
          1194.66150	         7.34033e+57
          1195.46780	         1.10346e+58
          1196.27410	         1.60652e+58
          1197.08040	         1.18461e+58
          1197.88670	         1.34521e+58
          1198.69300	         1.40982e+58
          1199.49930	         1.62285e+58
          1200.30560	         1.10356e+58
          1201.11190	         8.81476e+57
          1201.91820	         7.19482e+57
          1202.72450	         7.49905e+57
          1203.53080	         1.50840e+58
          1204.33710	         1.06685e+58
          1205.14340	         5.68821e+57
          1205.94970	         7.69860e+57
          1206.75600	         8.15121e+57
          1207.56230	         3.99041e+57
          1208.36860	         8.19176e+57
          1209.17490	         4.03664e+57
          1209.98120	         4.51587e+57
          1210.78750	         9.22514e+57
          1211.59380	         1.44683e+58
          1212.40010	         1.91578e+58
          1213.20640	         2.11269e+58
          1214.01270	         1.84939e+58
          1214.81900	         2.56351e+58
          1215.62530	         4.59702e+58
          1216.43160	         9.33615e+58
          1217.23790	         1.51524e+59
          1218.04420	         1.17194e+59
          1218.85050	         8.93411e+58
          1219.65680	         5.60973e+58
          1220.46310	         2.95313e+58
          1221.26940	         2.04519e+58
          1222.07570	         1.36144e+58
          1222.88200	         1.36149e+58
          1223.68830	         1.00889e+58
          1224.49460	         6.01263e+57
          1225.30090	         4.92780e+57
          1226.10720	         8.74401e+57
          1226.91350	         7.33565e+57
          1227.71980	         9.19326e+57
          1228.52610	         1.03947e+58
          1229.33240	         7.08751e+57
          1230.13870	         4.96562e+57
          1230.94500	         7.15855e+57
          1231.75130	         8.10889e+57
          1232.55760	         1.02509e+58
          1233.36390	         8.94879e+57
          1234.17020	         8.92887e+57
          1234.97650	         9.45427e+57
          1235.78280	         8.50156e+57
          1236.58910	         9.00482e+57
          1237.39540	         1.06170e+58
          1238.20170	         8.66831e+57
          1239.00800	         1.20057e+58
          1239.81430	         1.52680e+58
          1240.62060	         1.20876e+58
          1241.42690	         1.15794e+58
          1242.23320	         1.21193e+58
          1243.03950	         8.39010e+57
          1243.84580	         9.93205e+57
          1244.65210	         1.32992e+58
          1245.45840	         1.35071e+58
          1246.26470	         1.14857e+58
          1247.07100	         9.03255e+57
          1247.87730	         5.08954e+57
          1248.68360	         4.13325e+57
          1249.48990	         5.96851e+57
          1250.29620	         9.40741e+57
          1251.10250	         8.52274e+57
          1251.90880	         4.75932e+57
          1252.71510	         7.26182e+57
          1253.52140	         7.03982e+57
          1254.32770	         8.04138e+57
          1255.13400	         1.08776e+58
          1255.94030	         8.69014e+57
          1256.74660	         8.60904e+57
          1257.55290	         8.67196e+57
          1258.35920	         8.37002e+57
          1259.16550	         7.05242e+57
          1259.97180	         5.83414e+57
          1260.77810	         8.00217e+57
          1261.58440	         9.95356e+57
          1262.39070	         1.00212e+58
          1263.19700	         7.93873e+57
          1264.00330	         8.61258e+57
          1264.80960	         1.15985e+58
          1265.61590	         1.23556e+58
          1266.42220	         1.25036e+58
          1267.22850	         1.22063e+58
          1268.03480	         1.52166e+58
          1268.84110	         1.56276e+58
          1269.64740	         1.42092e+58
          1270.45370	         1.31155e+58
          1271.26000	         1.04328e+58
          1272.06630	         9.58021e+57
          1272.87260	         1.00981e+58
          1273.67890	         1.16110e+58
          1274.48520	         1.31283e+58
          1275.29150	         1.22831e+58
          1276.09780	         9.91426e+57
          1276.90410	         1.27616e+58
          1277.71040	         1.28528e+58
          1278.51670	         1.19659e+58
          1279.32300	         1.41544e+58
          1280.12930	         1.17659e+58
          1280.93560	         1.04052e+58
          1281.74190	         1.14726e+58
          1282.54820	         1.29916e+58
          1283.35450	         1.30582e+58
          1284.16080	         1.35956e+58
          1284.96710	         1.36630e+58
          1285.77340	         1.11198e+58
          1286.57970	         9.95764e+57
          1287.38600	         1.41731e+58
          1288.19230	         1.63095e+58
          1288.99860	         1.46463e+58
          1289.80490	         1.21151e+58
          1290.61120	         1.40137e+58
          1291.41750	         1.35558e+58
          1292.22380	         1.09189e+58
          1293.03010	         1.09759e+58
          1293.83640	         1.03080e+58
          1294.64270	         7.99731e+57
          1295.44900	         6.11770e+57
          1296.25530	         7.49701e+57
          1297.06160	         1.02527e+58
          1297.86790	         1.17222e+58
          1298.67420	         1.08938e+58
          1299.48050	         1.07040e+58
          1300.28680	         9.39794e+57
          1301.09310	         7.70386e+57
          1301.89940	         3.00347e+57
          1302.70570	         3.57370e+57
          1303.51200	         7.51937e+57
          1304.31830	         9.37272e+57
          1305.12460	         1.05719e+58
          1305.93090	         1.26887e+58
          1306.73720	         1.25445e+58
          1307.54350	         1.42720e+58
          1308.34980	         1.46460e+58
          1309.15610	         1.39866e+58
          1309.96240	         1.33428e+58
          1310.76870	         1.10738e+58
          1311.57500	         7.74785e+57
          1312.38130	         1.05160e+58
          1313.18760	         1.35042e+58
          1313.99390	         1.46533e+58
          1314.80020	         1.38770e+58
          1315.60650	         1.44455e+58
          1316.41280	         1.30888e+58
          1317.21910	         9.32268e+57
          1318.02540	         1.06457e+58
          1318.83170	         1.37273e+58
          1319.63800	         1.30136e+58
          1320.44430	         1.21570e+58
          1321.25060	         1.28240e+58
          1322.05690	         1.09076e+58
          1322.86320	         1.09393e+58
          1323.66950	         1.05475e+58
          1324.47580	         9.58715e+57
          1325.28210	         9.85505e+57
          1326.08840	         1.11783e+58
          1326.89470	         1.10073e+58
          1327.70100	         1.12512e+58
          1328.50730	         9.34868e+57
          1329.31360	         8.79487e+57
          1330.11990	         8.57117e+57
          1330.92620	         8.75815e+57
          1331.73250	         1.07009e+58
          1332.53880	         1.05350e+58
          1333.34510	         9.65911e+57
          1334.15140	         8.51836e+57
          1334.95770	         8.21658e+57
          1335.76400	         8.20320e+57
          1336.57030	         1.10772e+58
          1337.37660	         1.16697e+58
          1338.18290	         1.09625e+58
          1338.98920	         1.07738e+58
          1339.79550	         1.06759e+58
          1340.60180	         1.20003e+58
          1341.40810	         1.26755e+58
          1342.21440	         1.24171e+58
          1343.02070	         1.22062e+58
          1343.82700	         1.30794e+58
          1344.63330	         1.31815e+58
          1345.43960	         1.40121e+58
          1346.24590	         1.15225e+58
          1347.05220	         1.18105e+58
          1347.85850	         1.27015e+58
          1348.66480	         1.30263e+58
          1349.47110	         1.20711e+58
          1350.27740	         1.15036e+58
          1351.08370	         1.23061e+58
          1351.89000	         1.17458e+58
          1352.69630	         1.17918e+58
          1353.50260	         1.20731e+58
          1354.30890	         1.10752e+58
          1355.11520	         1.13171e+58
          1355.92150	         1.10405e+58
          1356.72780	         1.04601e+58
          1357.53410	         1.11062e+58
          1358.34040	         1.21578e+58
          1359.14670	         1.03001e+58
          1359.95300	         1.08974e+58
          1360.75930	         1.28767e+58
          1361.56560	         1.20817e+58
          1362.37190	         1.18589e+58
          1363.17820	         1.11599e+58
          1363.98450	         1.11443e+58
          1364.79080	         1.36111e+58
          1365.59710	         1.44862e+58
          1366.40340	         1.27000e+58
          1367.20970	         9.87857e+57
          1368.01600	         9.15688e+57
          1368.82230	         1.02200e+58
          1369.62860	         1.12851e+58
          1370.43490	         8.66470e+57
          1371.24120	         8.96096e+57
          1372.04750	         1.04862e+58
          1372.85380	         1.22603e+58
          1373.66010	         1.26706e+58
          1374.46640	         1.25354e+58
          1375.27270	         1.14377e+58
          1376.07900	         9.35377e+57
          1376.88530	         8.19551e+57
          1377.69160	         7.76794e+57
          1378.49790	         7.31434e+57
          1379.30420	         7.07797e+57
          1380.11050	         8.63321e+57
          1380.91680	         8.95539e+57
          1381.72310	         8.21602e+57
          1382.52940	         7.46310e+57
          1383.33570	         7.98277e+57
          1384.14200	         9.70761e+57
          1384.94830	         1.11714e+58
          1385.75460	         9.65986e+57
          1386.56090	         9.10972e+57
          1387.36720	         9.58179e+57
          1388.17350	         1.05491e+58
          1388.97980	         8.69950e+57
          1389.78610	         7.11494e+57
          1390.59240	         7.17673e+57
          1391.39870	         7.47861e+57
          1392.20500	         8.80155e+57
          1393.01130	         8.51201e+57
          1393.81760	         7.54954e+57
          1394.62390	         8.22667e+57
          1395.43020	         7.28031e+57
          1396.23650	         5.99235e+57
          1397.04280	         5.21239e+57
          1397.84910	         6.03756e+57
          1398.65540	         9.00146e+57
          1399.46170	         1.03660e+58
          1400.26800	         8.08376e+57
          1401.07430	         7.21974e+57
          1401.88060	         7.72803e+57
          1402.68690	         8.72298e+57
          1403.49320	         9.45096e+57
          1404.29950	         8.55307e+57
          1405.10580	         9.24537e+57
          1405.91210	         1.11158e+58
          1406.71840	         1.10042e+58
          1407.52470	         1.05677e+58
          1408.33100	         1.04188e+58
          1409.13730	         1.13904e+58
          1409.94360	         1.12379e+58
          1410.74990	         1.10057e+58
          1411.55620	         1.02491e+58
          1412.36250	         9.01742e+57
          1413.16880	         7.89605e+57
          1413.97510	         7.66059e+57
          1414.78140	         9.02738e+57
          1415.58770	         1.10414e+58
          1416.39400	         1.08364e+58
          1417.20030	         1.05694e+58
          1418.00660	         1.06210e+58
          1418.81290	         1.21995e+58
          1419.61920	         1.19725e+58
          1420.42550	         1.23166e+58
          1421.23180	         1.36578e+58
          1422.03810	         1.23017e+58
          1422.84440	         1.17281e+58
          1423.65070	         1.19631e+58
          1424.45700	         1.04142e+58
          1425.26330	         8.18111e+57
          1426.06960	         8.61002e+57
          1426.87590	         9.99922e+57
          1427.68220	         1.03398e+58
          1428.48850	         1.03355e+58
          1429.29480	         9.50827e+57
          1430.10110	         9.35913e+57
          1430.90740	         8.01591e+57
          1431.71370	         8.14164e+57
          1432.52000	         9.03687e+57
          1433.32630	         9.13783e+57
          1434.13260	         8.10795e+57
          1434.93890	         8.02662e+57
          1435.74520	         8.94399e+57
          1436.55150	         8.52701e+57
          1437.35780	         7.71358e+57
          1438.16410	         8.62946e+57
          1438.97040	         9.05460e+57
          1439.77670	         9.22550e+57
          1440.58300	         9.68288e+57
          1441.38930	         9.63514e+57
          1442.19560	         1.04268e+58
          1443.00190	         1.08215e+58
          1443.80820	         1.10276e+58
          1444.61450	         9.24743e+57
          1445.42080	         8.31549e+57
          1446.22710	         9.52477e+57
          1447.03340	         9.37412e+57
          1447.83970	         1.00944e+58
          1448.64600	         1.00959e+58
          1449.45230	         1.01487e+58
          1450.25860	         1.01565e+58
          1451.06490	         9.55240e+57
          1451.87120	         8.33636e+57
          1452.67750	         7.07014e+57
          1453.48380	         8.90805e+57
          1454.29010	         7.41767e+57
          1455.09640	         5.96909e+57
          1455.90270	         6.74666e+57
          1456.70900	         8.25610e+57
          1457.51530	         9.76913e+57
          1458.32160	         1.09364e+58
          1459.12790	         1.14052e+58
          1459.93420	         9.68975e+57
          1460.74050	         8.14513e+57
          1461.54680	         8.70748e+57
          1462.35310	         6.97822e+57
          1463.15940	         7.40494e+57
          1463.96570	         9.26590e+57
          1464.77200	         1.05538e+58
          1465.57830	         9.78275e+57
          1466.38460	         8.56860e+57
          1467.19090	         7.63501e+57
          1467.99720	         7.94215e+57
          1468.80350	         9.62830e+57
          1469.60980	         8.64742e+57
          1470.41610	         8.81355e+57
          1471.22240	         9.08859e+57
          1472.02870	         9.32144e+57
          1472.83500	         9.48356e+57
          1473.64130	         1.00606e+58
          1474.44760	         1.00330e+58
          1475.25390	         9.19646e+57
          1476.06020	         8.42199e+57
          1476.86650	         8.25225e+57
          1477.67280	         7.97633e+57
          1478.47910	         6.99888e+57
          1479.28540	         6.96927e+57
          1480.09170	         8.43958e+57
          1480.89800	         9.06223e+57
          1481.70430	         8.85840e+57
          1482.51060	         7.59486e+57
          1483.31690	         7.36974e+57
          1484.12320	         7.31271e+57
          1484.92950	         7.38605e+57
          1485.73580	         8.62711e+57
          1486.54210	         8.86127e+57
          1487.34840	         7.86625e+57
          1488.15470	         8.18840e+57
          1488.96100	         8.34073e+57
          1489.76730	         9.27863e+57
