#sample_3_stacked_spectrum_rest_UV-bands_median_H-alpha_noDC.txt
#median Lum: 1.71808e+42
#Rest-frame wavelength (A) | Luminosity (erg/s/A)
#
          1110.00000	         0.00000e+00
          1110.80630	         2.99561e+59
          1111.61260	         3.97995e+59
          1112.41890	         4.40211e+59
          1113.22520	         1.63266e+59
          1114.03150	        -1.27953e+59
          1114.83780	         2.23282e+59
          1115.64410	         4.97413e+58
          1116.45040	         4.50304e+58
          1117.25670	        -1.72864e+58
          1118.06300	         2.97898e+59
          1118.86930	         3.27846e+58
          1119.67560	         8.80380e+58
          1120.48190	         8.13085e+58
          1121.28820	        -5.09907e+58
          1122.09450	         6.12605e+57
          1122.90080	         2.15983e+58
          1123.70710	         5.76137e+58
          1124.51340	         4.17543e+58
          1125.31970	         5.41439e+57
          1126.12600	         3.89570e+58
          1126.93230	        -1.98047e+58
          1127.73860	        -5.03203e+56
          1128.54490	         1.55800e+58
          1129.35120	         1.31214e+58
          1130.15750	        -2.32937e+58
          1130.96380	        -3.44426e+58
          1131.77010	         8.34770e+58
          1132.57640	         7.22740e+58
          1133.38270	        -3.05495e+57
          1134.18900	         1.08793e+58
          1134.99530	         3.58474e+58
          1135.80160	         2.51639e+58
          1136.60790	         1.32623e+58
          1137.41420	         5.96815e+57
          1138.22050	         2.74559e+58
          1139.02680	         3.92994e+58
          1139.83310	         1.52477e+58
          1140.63940	         2.32890e+58
          1141.44570	        -3.24197e+58
          1142.25200	        -1.67562e+58
          1143.05830	         1.13027e+58
          1143.86460	         2.08108e+58
          1144.67090	         1.84996e+58
          1145.47720	         1.22415e+58
          1146.28350	         2.79255e+58
          1147.08980	         1.38683e+58
          1147.89610	         9.62612e+57
          1148.70240	         1.95550e+58
          1149.50870	         1.24989e+58
          1150.31500	         1.13538e+58
          1151.12130	         3.42833e+56
          1151.92760	        -2.03370e+57
          1152.73390	         1.57695e+58
          1153.54020	         8.86365e+57
          1154.34650	         1.84970e+58
          1155.15280	         2.40399e+58
          1155.95910	         1.09735e+58
          1156.76540	         1.49053e+58
          1157.57170	         2.76827e+57
          1158.37800	         6.44718e+56
          1159.18430	        -1.93577e+57
          1159.99060	         5.94683e+57
          1160.79690	         8.84874e+57
          1161.60320	         1.81336e+58
          1162.40950	         2.02014e+58
          1163.21580	         1.64939e+58
          1164.02210	         1.66118e+58
          1164.82840	         5.85159e+57
          1165.63470	         1.67273e+58
          1166.44100	         3.18015e+58
          1167.24730	         1.81902e+58
          1168.05360	         8.49176e+57
          1168.85990	         7.60293e+57
          1169.66620	         1.20241e+58
          1170.47250	         2.15494e+58
          1171.27880	         2.20787e+58
          1172.08510	         2.34920e+58
          1172.89140	         1.43368e+58
          1173.69770	         5.47758e+57
          1174.50400	         9.60748e+57
          1175.31030	         1.71578e+58
          1176.11660	         1.88138e+58
          1176.92290	         1.69010e+58
          1177.72920	         7.98528e+57
          1178.53550	         2.57877e+57
          1179.34180	         7.27897e+57
          1180.14810	         1.06458e+58
          1180.95440	         8.51494e+57
          1181.76070	         7.41072e+57
          1182.56700	         1.04600e+58
          1183.37330	         7.87696e+57
          1184.17960	         1.13417e+58
          1184.98590	         1.76432e+58
          1185.79220	         1.28116e+58
          1186.59850	         1.31512e+58
          1187.40480	         9.00906e+57
          1188.21110	         9.09115e+57
          1189.01740	         1.42633e+58
          1189.82370	         1.68072e+58
          1190.63000	         1.75278e+58
          1191.43630	         1.67071e+58
          1192.24260	         1.00871e+58
          1193.04890	         1.59790e+58
          1193.85520	         7.56132e+57
          1194.66150	         1.68643e+57
          1195.46780	         1.36624e+58
          1196.27410	         1.52076e+58
          1197.08040	         7.54847e+57
          1197.88670	         1.20015e+58
          1198.69300	         1.32856e+58
          1199.49930	         1.78146e+58
          1200.30560	         1.42150e+58
          1201.11190	         1.29447e+58
          1201.91820	         1.35781e+58
          1202.72450	         7.15161e+57
          1203.53080	         1.63326e+58
          1204.33710	         1.21357e+58
          1205.14340	         8.51422e+57
          1205.94970	         9.67777e+57
          1206.75600	         6.21611e+57
          1207.56230	         6.89430e+57
          1208.36860	         1.27099e+58
          1209.17490	         1.10364e+58
          1209.98120	         8.37002e+57
          1210.78750	         4.26445e+56
          1211.59380	         1.17056e+58
          1212.40010	         2.00019e+58
          1213.20640	         1.88332e+58
          1214.01270	         2.11439e+58
          1214.81900	         2.93259e+58
          1215.62530	         4.94065e+58
          1216.43160	         9.28456e+58
          1217.23790	         1.53777e+59
          1218.04420	         1.14479e+59
          1218.85050	         8.96037e+58
          1219.65680	         5.63529e+58
          1220.46310	         3.23105e+58
          1221.26940	         2.31630e+58
          1222.07570	         1.43639e+58
          1222.88200	         1.05231e+58
          1223.68830	         1.24723e+58
          1224.49460	         9.12163e+57
          1225.30090	         4.63844e+57
          1226.10720	         3.54947e+57
          1226.91350	         5.46238e+57
          1227.71980	         8.45030e+57
          1228.52610	         1.21949e+58
          1229.33240	         9.28806e+57
          1230.13870	         9.07103e+57
          1230.94500	         1.07142e+58
          1231.75130	         7.48921e+57
          1232.55760	         9.31639e+57
          1233.36390	         9.24287e+57
          1234.17020	         8.62546e+57
          1234.97650	         8.39463e+57
          1235.78280	         6.82926e+57
          1236.58910	         5.94438e+57
          1237.39540	         9.91208e+57
          1238.20170	         1.04732e+58
          1239.00800	         1.05790e+58
          1239.81430	         1.44787e+58
          1240.62060	         1.36131e+58
          1241.42690	         1.21040e+58
          1242.23320	         1.19999e+58
          1243.03950	         8.67234e+57
          1243.84580	         9.23644e+57
          1244.65210	         1.30705e+58
          1245.45840	         1.11025e+58
          1246.26470	         1.03243e+58
          1247.07100	         9.01050e+57
          1247.87730	         7.64882e+57
          1248.68360	         3.52973e+57
          1249.48990	         8.19236e+57
          1250.29620	         1.25322e+58
          1251.10250	         8.57011e+57
          1251.90880	         2.67670e+57
          1252.71510	         3.45195e+57
          1253.52140	         7.71501e+57
          1254.32770	         1.24076e+58
          1255.13400	         1.39640e+58
          1255.94030	         1.02110e+58
          1256.74660	         1.00655e+58
          1257.55290	         1.17997e+58
          1258.35920	         7.94322e+57
          1259.16550	         4.60992e+57
          1259.97180	         5.69798e+57
          1260.77810	         9.31769e+57
          1261.58440	         1.21432e+58
          1262.39070	         8.97621e+57
          1263.19700	         7.29902e+57
          1264.00330	         9.30633e+57
          1264.80960	         1.17740e+58
          1265.61590	         1.36134e+58
          1266.42220	         1.13445e+58
          1267.22850	         1.10583e+58
          1268.03480	         1.40257e+58
          1268.84110	         1.48225e+58
          1269.64740	         1.50780e+58
          1270.45370	         1.65196e+58
          1271.26000	         1.49033e+58
          1272.06630	         1.36446e+58
          1272.87260	         1.34758e+58
          1273.67890	         1.57335e+58
          1274.48520	         1.44115e+58
          1275.29150	         1.18823e+58
          1276.09780	         1.07543e+58
          1276.90410	         1.54904e+58
          1277.71040	         1.49019e+58
          1278.51670	         1.01054e+58
          1279.32300	         1.23659e+58
          1280.12930	         1.19339e+58
          1280.93560	         1.01962e+58
          1281.74190	         1.25853e+58
          1282.54820	         1.32126e+58
          1283.35450	         1.23492e+58
          1284.16080	         1.31427e+58
          1284.96710	         1.32491e+58
          1285.77340	         1.19823e+58
          1286.57970	         1.16866e+58
          1287.38600	         1.37661e+58
          1288.19230	         1.63648e+58
          1288.99860	         1.43384e+58
          1289.80490	         1.15118e+58
          1290.61120	         1.48240e+58
          1291.41750	         1.60183e+58
          1292.22380	         1.46931e+58
          1293.03010	         1.29647e+58
          1293.83640	         1.22530e+58
          1294.64270	         8.19731e+57
          1295.44900	         5.48452e+57
          1296.25530	         6.81680e+57
          1297.06160	         1.08033e+58
          1297.86790	         1.10723e+58
          1298.67420	         8.61342e+57
          1299.48050	         1.01306e+58
          1300.28680	         1.12941e+58
          1301.09310	         7.15803e+57
          1301.89940	         4.96796e+57
          1302.70570	         8.16820e+57
          1303.51200	         9.22411e+57
          1304.31830	         1.08920e+58
          1305.12460	         1.17537e+58
          1305.93090	         1.16838e+58
          1306.73720	         1.34969e+58
          1307.54350	         1.55142e+58
          1308.34980	         1.49730e+58
          1309.15610	         1.48362e+58
          1309.96240	         1.61218e+58
          1310.76870	         1.37510e+58
          1311.57500	         1.12599e+58
          1312.38130	         1.03824e+58
          1313.18760	         1.28242e+58
          1313.99390	         1.56759e+58
          1314.80020	         1.56384e+58
          1315.60650	         1.45838e+58
          1316.41280	         1.36490e+58
          1317.21910	         1.16715e+58
          1318.02540	         1.22289e+58
          1318.83170	         1.31645e+58
          1319.63800	         1.33328e+58
          1320.44430	         1.11265e+58
          1321.25060	         1.20406e+58
          1322.05690	         1.26172e+58
          1322.86320	         1.28171e+58
          1323.66950	         1.27679e+58
          1324.47580	         1.04002e+58
          1325.28210	         1.10196e+58
          1326.08840	         1.26824e+58
          1326.89470	         1.37143e+58
          1327.70100	         1.10605e+58
          1328.50730	         9.54698e+57
          1329.31360	         1.05539e+58
          1330.11990	         9.17227e+57
          1330.92620	         9.60928e+57
          1331.73250	         1.14533e+58
          1332.53880	         1.06770e+58
          1333.34510	         9.47593e+57
          1334.15140	         8.94933e+57
          1334.95770	         9.82676e+57
          1335.76400	         1.11155e+58
          1336.57030	         1.20674e+58
          1337.37660	         1.15465e+58
          1338.18290	         1.13699e+58
          1338.98920	         1.20498e+58
          1339.79550	         1.10976e+58
          1340.60180	         1.21826e+58
          1341.40810	         1.47311e+58
          1342.21440	         1.32041e+58
          1343.02070	         1.29405e+58
          1343.82700	         1.44929e+58
          1344.63330	         1.24631e+58
          1345.43960	         1.26611e+58
          1346.24590	         1.25842e+58
          1347.05220	         1.07032e+58
          1347.85850	         9.34579e+57
          1348.66480	         1.17524e+58
          1349.47110	         1.26069e+58
          1350.27740	         1.13286e+58
          1351.08370	         1.02746e+58
          1351.89000	         1.10958e+58
          1352.69630	         1.16106e+58
          1353.50260	         1.24016e+58
          1354.30890	         1.35722e+58
          1355.11520	         1.32772e+58
          1355.92150	         1.22105e+58
          1356.72780	         1.20655e+58
          1357.53410	         1.05359e+58
          1358.34040	         1.01838e+58
          1359.14670	         1.11104e+58
          1359.95300	         1.22689e+58
          1360.75930	         1.39013e+58
          1361.56560	         1.30849e+58
          1362.37190	         1.15488e+58
          1363.17820	         1.09901e+58
          1363.98450	         1.23564e+58
          1364.79080	         1.32110e+58
          1365.59710	         1.30748e+58
          1366.40340	         1.21946e+58
          1367.20970	         1.01599e+58
          1368.01600	         1.04292e+58
          1368.82230	         9.33174e+57
          1369.62860	         9.50307e+57
          1370.43490	         9.02233e+57
          1371.24120	         8.41744e+57
          1372.04750	         8.01321e+57
          1372.85380	         1.04770e+58
          1373.66010	         1.14942e+58
          1374.46640	         1.21698e+58
          1375.27270	         1.24005e+58
          1376.07900	         8.96616e+57
          1376.88530	         9.46276e+57
          1377.69160	         1.04006e+58
          1378.49790	         8.16607e+57
          1379.30420	         8.03785e+57
          1380.11050	         9.93559e+57
          1380.91680	         9.31352e+57
          1381.72310	         8.11615e+57
          1382.52940	         8.90872e+57
          1383.33570	         8.40189e+57
          1384.14200	         8.39737e+57
          1384.94830	         1.09075e+58
          1385.75460	         1.12892e+58
          1386.56090	         1.17981e+58
          1387.36720	         1.17499e+58
          1388.17350	         1.25322e+58
          1388.97980	         1.12766e+58
          1389.78610	         1.00860e+58
          1390.59240	         8.71355e+57
          1391.39870	         8.66157e+57
          1392.20500	         9.55671e+57
          1393.01130	         9.35900e+57
          1393.81760	         8.85511e+57
          1394.62390	         7.98181e+57
          1395.43020	         8.90124e+57
          1396.23650	         8.05038e+57
          1397.04280	         7.97999e+57
          1397.84910	         8.71866e+57
          1398.65540	         8.70627e+57
          1399.46170	         9.20441e+57
          1400.26800	         8.45667e+57
          1401.07430	         8.37968e+57
          1401.88060	         8.44324e+57
          1402.68690	         1.01815e+58
          1403.49320	         9.78845e+57
          1404.29950	         9.77985e+57
          1405.10580	         1.05446e+58
          1405.91210	         1.10339e+58
          1406.71840	         1.19462e+58
          1407.52470	         1.05899e+58
          1408.33100	         1.04592e+58
          1409.13730	         1.20799e+58
          1409.94360	         1.09563e+58
          1410.74990	         1.10980e+58
          1411.55620	         1.12841e+58
          1412.36250	         9.08446e+57
          1413.16880	         9.16045e+57
          1413.97510	         8.79839e+57
          1414.78140	         7.86812e+57
          1415.58770	         9.11612e+57
          1416.39400	         1.15265e+58
          1417.20030	         1.28089e+58
          1418.00660	         1.17559e+58
          1418.81290	         1.19233e+58
          1419.61920	         1.14275e+58
          1420.42550	         1.39483e+58
          1421.23180	         1.51277e+58
          1422.03810	         1.25175e+58
          1422.84440	         9.53370e+57
          1423.65070	         1.20408e+58
          1424.45700	         1.22582e+58
          1425.26330	         9.60123e+57
          1426.06960	         9.37901e+57
          1426.87590	         1.08222e+58
          1427.68220	         1.11373e+58
          1428.48850	         1.24835e+58
          1429.29480	         1.11639e+58
          1430.10110	         1.02172e+58
          1430.90740	         9.45067e+57
          1431.71370	         9.98001e+57
          1432.52000	         9.70923e+57
          1433.32630	         8.74513e+57
          1434.13260	         7.92510e+57
          1434.93890	         7.59798e+57
          1435.74520	         8.40888e+57
          1436.55150	         9.58704e+57
          1437.35780	         9.49480e+57
          1438.16410	         1.02452e+58
          1438.97040	         1.02993e+58
          1439.77670	         9.74406e+57
          1440.58300	         9.70655e+57
          1441.38930	         1.00801e+58
          1442.19560	         1.03407e+58
          1443.00190	         1.00738e+58
          1443.80820	         1.12364e+58
          1444.61450	         1.04740e+58
          1445.42080	         9.31634e+57
          1446.22710	         1.05987e+58
          1447.03340	         9.67356e+57
          1447.83970	         1.04990e+58
          1448.64600	         1.14169e+58
          1449.45230	         1.01560e+58
          1450.25860	         9.61855e+57
          1451.06490	         9.18496e+57
          1451.87120	         7.63937e+57
          1452.67750	         7.42798e+57
          1453.48380	         8.40218e+57
          1454.29010	         8.01349e+57
          1455.09640	         8.26255e+57
          1455.90270	         9.74269e+57
          1456.70900	         8.89795e+57
          1457.51530	         1.06764e+58
          1458.32160	         1.32720e+58
          1459.12790	         1.19711e+58
          1459.93420	         1.02985e+58
          1460.74050	         8.41157e+57
          1461.54680	         8.51332e+57
          1462.35310	         9.26496e+57
          1463.15940	         9.09673e+57
          1463.96570	         9.66261e+57
          1464.77200	         1.21999e+58
          1465.57830	         1.14300e+58
          1466.38460	         9.32139e+57
          1467.19090	         9.67283e+57
          1467.99720	         1.00681e+58
          1468.80350	         9.63902e+57
          1469.60980	         1.11137e+58
          1470.41610	         1.24118e+58
          1471.22240	         1.00184e+58
          1472.02870	         9.28298e+57
          1472.83500	         9.50235e+57
          1473.64130	         9.61794e+57
          1474.44760	         9.86615e+57
          1475.25390	         9.16124e+57
          1476.06020	         8.20470e+57
          1476.86650	         8.15065e+57
          1477.67280	         8.31681e+57
          1478.47910	         8.19190e+57
          1479.28540	         8.16277e+57
          1480.09170	         8.91659e+57
          1480.89800	         8.92623e+57
          1481.70430	         9.17795e+57
          1482.51060	         8.82907e+57
          1483.31690	         8.30240e+57
          1484.12320	         8.10249e+57
          1484.92950	         7.28127e+57
          1485.73580	         7.60170e+57
          1486.54210	         8.58925e+57
          1487.34840	         9.34501e+57
          1488.15470	         7.81754e+57
          1488.96100	         9.49282e+57
          1489.76730	         1.00066e+58
