#sample_65_stacked_spectrum_rest_UV-bands_median_H-alpha_noDC.txt
#median Lum: 1.69936e+42
#Rest-frame wavelength (A) | Luminosity (erg/s/A)
#
          1110.00000	         0.00000e+00
          1110.80630	        -1.17249e+59
          1111.61260	        -1.73529e+59
          1112.41890	         1.29801e+59
          1113.22520	         8.98228e+58
          1114.03150	        -6.55699e+58
          1114.83780	         3.20448e+58
          1115.64410	         9.43151e+58
          1116.45040	         1.34812e+59
          1117.25670	        -8.31204e+58
          1118.06300	         2.04173e+59
          1118.86930	         9.07953e+58
          1119.67560	         1.23331e+59
          1120.48190	        -8.82318e+56
          1121.28820	        -1.22101e+59
          1122.09450	        -1.00098e+58
          1122.90080	        -1.64327e+58
          1123.70710	         5.76575e+58
          1124.51340	         1.19641e+59
          1125.31970	         2.29367e+58
          1126.12600	         4.03460e+58
          1126.93230	        -3.98897e+58
          1127.73860	        -9.27557e+58
          1128.54490	         2.68391e+58
          1129.35120	         3.71486e+58
          1130.15750	         1.56981e+58
          1130.96380	        -3.35220e+58
          1131.77010	         5.03668e+58
          1132.57640	         1.14542e+58
          1133.38270	         5.90183e+58
          1134.18900	         5.41754e+58
          1134.99530	         2.41280e+58
          1135.80160	         3.89787e+58
          1136.60790	         2.64450e+58
          1137.41420	         1.17754e+56
          1138.22050	         4.88685e+58
          1139.02680	         1.52487e+58
          1139.83310	         3.00684e+58
          1140.63940	         8.76021e+57
          1141.44570	        -1.29567e+58
          1142.25200	         2.49143e+58
          1143.05830	         3.77048e+58
          1143.86460	         3.52973e+58
          1144.67090	         3.45093e+58
          1145.47720	         1.86023e+58
          1146.28350	         9.27235e+57
          1147.08980	         1.58056e+58
          1147.89610	         1.43094e+58
          1148.70240	         2.17045e+58
          1149.50870	         2.75146e+58
          1150.31500	         1.21829e+58
          1151.12130	         8.41856e+56
          1151.92760	        -6.01484e+56
          1152.73390	         1.74109e+57
          1153.54020	         2.90509e+57
          1154.34650	         1.78962e+58
          1155.15280	         1.93418e+58
          1155.95910	         1.47334e+58
          1156.76540	         1.43514e+58
          1157.57170	        -1.54974e+57
          1158.37800	         1.77109e+57
          1159.18430	         7.70985e+57
          1159.99060	         1.24160e+58
          1160.79690	         1.19283e+58
          1161.60320	         1.30020e+58
          1162.40950	         1.60843e+58
          1163.21580	         1.65450e+58
          1164.02210	         9.38986e+57
          1164.82840	         1.45012e+58
          1165.63470	         1.69323e+58
          1166.44100	         3.40888e+58
          1167.24730	         2.19988e+58
          1168.05360	         1.49047e+58
          1168.85990	         4.46284e+57
          1169.66620	         5.51377e+57
          1170.47250	         9.89361e+57
          1171.27880	         1.47136e+58
          1172.08510	         1.41145e+58
          1172.89140	         1.39002e+58
          1173.69770	         8.01704e+57
          1174.50400	         8.00776e+57
          1175.31030	         1.40707e+58
          1176.11660	         1.67319e+58
          1176.92290	         1.30011e+58
          1177.72920	         8.70400e+57
          1178.53550	         1.54410e+58
          1179.34180	         3.74359e+57
          1180.14810	         8.01152e+57
          1180.95440	         1.16323e+58
          1181.76070	         9.26412e+57
          1182.56700	         8.35730e+57
          1183.37330	         6.34937e+57
          1184.17960	         9.62677e+57
          1184.98590	         5.86494e+57
          1185.79220	         2.16744e+57
          1186.59850	         7.26961e+57
          1187.40480	         9.12895e+57
          1188.21110	         1.38927e+58
          1189.01740	         6.78512e+57
          1189.82370	         1.76204e+57
          1190.63000	         9.35475e+57
          1191.43630	         1.51100e+58
          1192.24260	         9.85144e+57
          1193.04890	         1.16934e+58
          1193.85520	         1.01605e+58
          1194.66150	         8.28268e+57
          1195.46780	         1.61942e+58
          1196.27410	         1.73963e+58
          1197.08040	         6.67772e+57
          1197.88670	         1.08621e+58
          1198.69300	         1.67908e+58
          1199.49930	         1.66409e+58
          1200.30560	         1.10253e+58
          1201.11190	         1.13472e+58
          1201.91820	         7.15431e+57
          1202.72450	         5.68758e+57
          1203.53080	         1.30089e+58
          1204.33710	         1.04335e+58
          1205.14340	         5.46870e+57
          1205.94970	         5.12178e+57
          1206.75600	         5.54839e+57
          1207.56230	         3.64800e+57
          1208.36860	         1.19146e+58
          1209.17490	         7.29493e+57
          1209.98120	         9.60333e+57
          1210.78750	         1.18047e+58
          1211.59380	         1.37861e+58
          1212.40010	         1.66101e+58
          1213.20640	         2.11615e+58
          1214.01270	         2.31953e+58
          1214.81900	         2.91269e+58
          1215.62530	         4.39593e+58
          1216.43160	         8.91507e+58
          1217.23790	         1.53175e+59
          1218.04420	         1.15731e+59
          1218.85050	         8.63514e+58
          1219.65680	         5.54155e+58
          1220.46310	         3.35557e+58
          1221.26940	         2.40605e+58
          1222.07570	         1.34611e+58
          1222.88200	         1.24781e+58
          1223.68830	         1.18143e+58
          1224.49460	         8.52417e+57
          1225.30090	         7.18424e+57
          1226.10720	         7.20908e+57
          1226.91350	         6.85177e+57
          1227.71980	         1.01328e+58
          1228.52610	         1.19092e+58
          1229.33240	         1.25319e+58
          1230.13870	         1.08961e+58
          1230.94500	         6.09675e+57
          1231.75130	         5.07834e+57
          1232.55760	         7.91834e+57
          1233.36390	         6.97981e+57
          1234.17020	         8.88797e+57
          1234.97650	         8.46920e+57
          1235.78280	         8.48610e+57
          1236.58910	         9.19505e+57
          1237.39540	         1.02185e+58
          1238.20170	         9.58747e+57
          1239.00800	         1.17038e+58
          1239.81430	         1.51873e+58
          1240.62060	         1.07948e+58
          1241.42690	         1.08252e+58
          1242.23320	         1.22803e+58
          1243.03950	         8.63692e+57
          1243.84580	         6.74169e+57
          1244.65210	         9.17405e+57
          1245.45840	         7.83254e+57
          1246.26470	         7.12992e+57
          1247.07100	         7.55256e+57
          1247.87730	         7.29630e+57
          1248.68360	         4.48447e+57
          1249.48990	         5.31440e+57
          1250.29620	         5.40441e+57
          1251.10250	         6.36666e+57
          1251.90880	         5.98140e+57
          1252.71510	         7.32544e+57
          1253.52140	         8.61865e+57
          1254.32770	         1.14856e+58
          1255.13400	         1.52011e+58
          1255.94030	         1.24164e+58
          1256.74660	         1.07343e+58
          1257.55290	         1.08379e+58
          1258.35920	         6.57354e+57
          1259.16550	         3.08225e+57
          1259.97180	         6.18785e+57
          1260.77810	         8.92114e+57
          1261.58440	         1.07649e+58
          1262.39070	         7.54724e+57
          1263.19700	         8.50814e+57
          1264.00330	         8.69264e+57
          1264.80960	         9.96756e+57
          1265.61590	         1.28102e+58
          1266.42220	         1.24687e+58
          1267.22850	         9.85902e+57
          1268.03480	         1.39922e+58
          1268.84110	         1.39037e+58
          1269.64740	         1.13606e+58
          1270.45370	         1.22180e+58
          1271.26000	         1.24853e+58
          1272.06630	         1.47749e+58
          1272.87260	         1.30892e+58
          1273.67890	         1.27829e+58
          1274.48520	         1.31755e+58
          1275.29150	         1.32133e+58
          1276.09780	         1.33942e+58
          1276.90410	         1.55232e+58
          1277.71040	         1.28645e+58
          1278.51670	         1.18739e+58
          1279.32300	         1.51785e+58
          1280.12930	         1.52677e+58
          1280.93560	         1.39338e+58
          1281.74190	         1.19280e+58
          1282.54820	         1.22372e+58
          1283.35450	         1.01666e+58
          1284.16080	         8.32238e+57
          1284.96710	         1.03668e+58
          1285.77340	         1.02915e+58
          1286.57970	         1.15866e+58
          1287.38600	         1.65866e+58
          1288.19230	         1.81025e+58
          1288.99860	         1.41425e+58
          1289.80490	         1.11133e+58
          1290.61120	         1.41319e+58
          1291.41750	         1.54696e+58
          1292.22380	         1.24438e+58
          1293.03010	         1.09353e+58
          1293.83640	         1.13636e+58
          1294.64270	         1.04475e+58
          1295.44900	         4.66978e+57
          1296.25530	         5.78600e+57
          1297.06160	         1.10266e+58
          1297.86790	         1.19753e+58
          1298.67420	         9.86671e+57
          1299.48050	         1.02149e+58
          1300.28680	         1.05690e+58
          1301.09310	         7.88314e+57
          1301.89940	         2.47663e+57
          1302.70570	         4.38774e+57
          1303.51200	         7.19765e+57
          1304.31830	         9.17625e+57
          1305.12460	         1.05330e+58
          1305.93090	         1.09349e+58
          1306.73720	         1.11526e+58
          1307.54350	         1.33034e+58
          1308.34980	         1.44393e+58
          1309.15610	         1.54013e+58
          1309.96240	         1.49746e+58
          1310.76870	         1.28795e+58
          1311.57500	         1.19992e+58
          1312.38130	         1.32237e+58
          1313.18760	         1.61592e+58
          1313.99390	         1.79405e+58
          1314.80020	         1.62664e+58
          1315.60650	         1.54499e+58
          1316.41280	         1.42852e+58
          1317.21910	         9.84090e+57
          1318.02540	         1.01902e+58
          1318.83170	         1.31364e+58
          1319.63800	         1.19980e+58
          1320.44430	         1.09312e+58
          1321.25060	         1.05866e+58
          1322.05690	         1.12925e+58
          1322.86320	         1.23211e+58
          1323.66950	         1.04253e+58
          1324.47580	         8.70916e+57
          1325.28210	         9.57787e+57
          1326.08840	         1.03397e+58
          1326.89470	         1.13019e+58
          1327.70100	         1.05988e+58
          1328.50730	         7.76762e+57
          1329.31360	         8.74269e+57
          1330.11990	         1.01910e+58
          1330.92620	         1.04828e+58
          1331.73250	         1.11220e+58
          1332.53880	         9.84180e+57
          1333.34510	         9.68020e+57
          1334.15140	         1.02624e+58
          1334.95770	         9.85817e+57
          1335.76400	         9.85440e+57
          1336.57030	         1.08855e+58
          1337.37660	         9.40102e+57
          1338.18290	         1.07947e+58
          1338.98920	         1.24346e+58
          1339.79550	         1.03836e+58
          1340.60180	         1.08418e+58
          1341.40810	         1.32802e+58
          1342.21440	         1.14603e+58
          1343.02070	         1.06148e+58
          1343.82700	         1.12158e+58
          1344.63330	         1.27636e+58
          1345.43960	         1.48866e+58
          1346.24590	         1.26054e+58
          1347.05220	         1.17971e+58
          1347.85850	         9.89372e+57
          1348.66480	         1.05850e+58
          1349.47110	         1.30336e+58
          1350.27740	         1.29242e+58
          1351.08370	         1.30249e+58
          1351.89000	         1.17740e+58
          1352.69630	         1.03660e+58
          1353.50260	         1.01585e+58
          1354.30890	         1.26552e+58
          1355.11520	         1.40594e+58
          1355.92150	         1.32389e+58
          1356.72780	         1.20079e+58
          1357.53410	         1.12949e+58
          1358.34040	         9.76625e+57
          1359.14670	         9.47579e+57
          1359.95300	         1.09958e+58
          1360.75930	         1.17351e+58
          1361.56560	         1.08394e+58
          1362.37190	         1.12950e+58
          1363.17820	         1.05863e+58
          1363.98450	         1.13835e+58
          1364.79080	         1.32792e+58
          1365.59710	         1.31728e+58
          1366.40340	         1.24672e+58
          1367.20970	         1.04439e+58
          1368.01600	         9.21704e+57
          1368.82230	         8.57220e+57
          1369.62860	         9.38611e+57
          1370.43490	         9.32898e+57
          1371.24120	         9.81342e+57
          1372.04750	         9.02359e+57
          1372.85380	         9.82352e+57
          1373.66010	         1.08077e+58
          1374.46640	         1.02857e+58
          1375.27270	         1.06096e+58
          1376.07900	         9.55896e+57
          1376.88530	         8.48674e+57
          1377.69160	         7.85797e+57
          1378.49790	         6.33232e+57
          1379.30420	         7.01574e+57
          1380.11050	         9.23781e+57
          1380.91680	         9.73122e+57
          1381.72310	         9.08096e+57
          1382.52940	         8.28436e+57
          1383.33570	         7.67043e+57
          1384.14200	         9.55259e+57
          1384.94830	         1.11521e+58
          1385.75460	         1.09159e+58
          1386.56090	         9.35723e+57
          1387.36720	         8.94668e+57
          1388.17350	         1.14761e+58
          1388.97980	         1.12797e+58
          1389.78610	         9.54972e+57
          1390.59240	         7.69385e+57
          1391.39870	         7.15015e+57
          1392.20500	         9.20459e+57
          1393.01130	         7.63969e+57
          1393.81760	         6.56717e+57
          1394.62390	         7.41131e+57
          1395.43020	         7.90422e+57
          1396.23650	         7.27694e+57
          1397.04280	         7.76453e+57
          1397.84910	         8.30635e+57
          1398.65540	         8.07063e+57
          1399.46170	         8.49256e+57
          1400.26800	         7.99228e+57
          1401.07430	         7.84403e+57
          1401.88060	         7.76506e+57
          1402.68690	         8.67818e+57
          1403.49320	         9.26666e+57
          1404.29950	         9.05462e+57
          1405.10580	         1.04967e+58
          1405.91210	         1.16987e+58
          1406.71840	         1.08366e+58
          1407.52470	         1.03427e+58
          1408.33100	         1.06183e+58
          1409.13730	         1.20255e+58
          1409.94360	         1.23258e+58
          1410.74990	         1.09742e+58
          1411.55620	         9.86669e+57
          1412.36250	         9.32818e+57
          1413.16880	         9.03715e+57
          1413.97510	         8.00433e+57
          1414.78140	         7.36880e+57
          1415.58770	         9.02321e+57
          1416.39400	         1.11031e+58
          1417.20030	         1.20682e+58
          1418.00660	         9.79709e+57
          1418.81290	         9.21792e+57
          1419.61920	         1.00281e+58
          1420.42550	         1.30731e+58
          1421.23180	         1.28154e+58
          1422.03810	         1.21559e+58
          1422.84440	         1.10178e+58
          1423.65070	         1.23003e+58
          1424.45700	         1.07030e+58
          1425.26330	         9.60993e+57
          1426.06960	         1.06784e+58
          1426.87590	         9.51548e+57
          1427.68220	         8.09746e+57
          1428.48850	         9.24179e+57
          1429.29480	         1.02576e+58
          1430.10110	         1.01136e+58
          1430.90740	         8.45261e+57
          1431.71370	         7.71710e+57
          1432.52000	         8.82319e+57
          1433.32630	         7.88783e+57
          1434.13260	         7.77540e+57
          1434.93890	         8.32259e+57
          1435.74520	         8.12509e+57
          1436.55150	         9.06827e+57
          1437.35780	         9.14796e+57
          1438.16410	         9.08162e+57
          1438.97040	         8.85402e+57
          1439.77670	         9.67868e+57
          1440.58300	         1.02095e+58
          1441.38930	         9.84679e+57
          1442.19560	         1.06597e+58
          1443.00190	         1.02723e+58
          1443.80820	         1.01200e+58
          1444.61450	         9.29345e+57
          1445.42080	         8.90520e+57
          1446.22710	         1.06960e+58
          1447.03340	         1.00400e+58
          1447.83970	         1.03668e+58
          1448.64600	         1.05746e+58
          1449.45230	         1.04242e+58
          1450.25860	         8.97844e+57
          1451.06490	         7.65934e+57
          1451.87120	         7.45862e+57
          1452.67750	         7.12519e+57
          1453.48380	         8.72246e+57
          1454.29010	         8.62078e+57
          1455.09640	         8.10159e+57
          1455.90270	         9.13308e+57
          1456.70900	         9.00965e+57
          1457.51530	         8.96261e+57
          1458.32160	         1.15869e+58
          1459.12790	         1.14707e+58
          1459.93420	         9.25548e+57
          1460.74050	         7.21693e+57
          1461.54680	         7.07395e+57
          1462.35310	         7.18101e+57
          1463.15940	         9.41791e+57
          1463.96570	         1.07420e+58
          1464.77200	         1.10458e+58
          1465.57830	         9.58225e+57
          1466.38460	         8.92862e+57
          1467.19090	         8.83117e+57
          1467.99720	         8.77030e+57
          1468.80350	         9.19909e+57
          1469.60980	         9.32876e+57
          1470.41610	         1.08600e+58
          1471.22240	         9.66769e+57
          1472.02870	         9.49455e+57
          1472.83500	         1.01051e+58
          1473.64130	         1.04037e+58
          1474.44760	         9.65544e+57
          1475.25390	         8.73049e+57
          1476.06020	         9.44241e+57
          1476.86650	         8.79325e+57
          1477.67280	         7.25621e+57
          1478.47910	         7.65052e+57
          1479.28540	         7.59771e+57
          1480.09170	         7.97809e+57
          1480.89800	         9.20208e+57
          1481.70430	         9.27950e+57
          1482.51060	         7.08667e+57
          1483.31690	         7.08696e+57
          1484.12320	         8.36703e+57
          1484.92950	         7.98595e+57
          1485.73580	         7.58729e+57
          1486.54210	         9.03342e+57
          1487.34840	         8.37706e+57
          1488.15470	         7.75225e+57
          1488.96100	         9.03296e+57
          1489.76730	         8.42032e+57
