#sample_80_stacked_spectrum_rest_UV-bands_median_H-alpha_noDC.txt
#median Lum: 1.67599e+42
#Rest-frame wavelength (A) | Luminosity (erg/s/A)
#
          1110.00000	         0.00000e+00
          1110.80630	         5.86090e+59
          1111.61260	        -3.17114e+58
          1112.41890	        -7.01628e+58
          1113.22520	         5.10927e+58
          1114.03150	        -1.70230e+59
          1114.83780	        -6.43474e+58
          1115.64410	         3.66706e+58
          1116.45040	         4.58185e+58
          1117.25670	         6.13715e+58
          1118.06300	         1.29028e+59
          1118.86930	         7.11400e+58
          1119.67560	         9.43406e+58
          1120.48190	        -8.41371e+57
          1121.28820	        -1.56002e+59
          1122.09450	        -5.34034e+58
          1122.90080	         2.30463e+58
          1123.70710	         1.04584e+59
          1124.51340	         6.52487e+58
          1125.31970	        -4.05750e+57
          1126.12600	         2.72727e+58
          1126.93230	        -4.08933e+58
          1127.73860	        -5.82582e+58
          1128.54490	         2.02905e+58
          1129.35120	         1.95685e+58
          1130.15750	         1.75631e+58
          1130.96380	        -3.66353e+58
          1131.77010	         6.13143e+58
          1132.57640	         1.98805e+58
          1133.38270	         2.45639e+58
          1134.18900	         2.70000e+58
          1134.99530	         1.13762e+58
          1135.80160	         9.67543e+57
          1136.60790	         2.21578e+58
          1137.41420	         1.00633e+57
          1138.22050	         5.04330e+58
          1139.02680	         1.93416e+58
          1139.83310	         3.07877e+58
          1140.63940	         1.50267e+58
          1141.44570	        -1.61289e+58
          1142.25200	         4.14470e+57
          1143.05830	         1.60796e+58
          1143.86460	         9.18958e+57
          1144.67090	        -2.47325e+56
          1145.47720	         7.30961e+57
          1146.28350	         1.87119e+58
          1147.08980	         5.69329e+57
          1147.89610	         1.63995e+58
          1148.70240	         3.64074e+58
          1149.50870	         2.80228e+58
          1150.31500	         1.37089e+58
          1151.12130	        -7.20016e+56
          1151.92760	         4.04686e+57
          1152.73390	         7.97386e+57
          1153.54020	         3.74494e+57
          1154.34650	         2.34855e+58
          1155.15280	         2.28498e+58
          1155.95910	         1.19810e+58
          1156.76540	         1.19740e+58
          1157.57170	         5.08135e+57
          1158.37800	         1.35496e+57
          1159.18430	        -2.93510e+55
          1159.99060	         5.73292e+57
          1160.79690	         3.48836e+57
          1161.60320	         1.50851e+58
          1162.40950	         1.17791e+58
          1163.21580	         1.52766e+58
          1164.02210	         1.11016e+58
          1164.82840	         1.16553e+58
          1165.63470	         2.64759e+58
          1166.44100	         3.21655e+58
          1167.24730	         1.21916e+58
          1168.05360	         1.79962e+57
          1168.85990	         1.01656e+58
          1169.66620	         1.16957e+58
          1170.47250	         1.41424e+58
          1171.27880	         1.08363e+58
          1172.08510	         1.16456e+58
          1172.89140	         1.40675e+58
          1173.69770	         8.65464e+57
          1174.50400	         1.39215e+58
          1175.31030	         1.22622e+58
          1176.11660	         1.34397e+58
          1176.92290	         1.71946e+58
          1177.72920	         9.42007e+57
          1178.53550	         6.88253e+57
          1179.34180	         7.02545e+57
          1180.14810	         7.17240e+57
          1180.95440	         8.23121e+57
          1181.76070	         8.51720e+57
          1182.56700	         1.00140e+58
          1183.37330	         4.93611e+57
          1184.17960	         8.61969e+57
          1184.98590	         1.25340e+58
          1185.79220	         1.31427e+58
          1186.59850	         1.09675e+58
          1187.40480	         5.05512e+57
          1188.21110	         1.55747e+58
          1189.01740	         3.52077e+57
          1189.82370	         4.79064e+57
          1190.63000	         1.56553e+58
          1191.43630	         1.51986e+58
          1192.24260	         1.07788e+58
          1193.04890	         1.21286e+58
          1193.85520	         1.11429e+58
          1194.66150	         6.99915e+57
          1195.46780	         1.10066e+58
          1196.27410	         1.50505e+58
          1197.08040	         1.50715e+58
          1197.88670	         1.88795e+58
          1198.69300	         1.50117e+58
          1199.49930	         1.63830e+58
          1200.30560	         1.21483e+58
          1201.11190	         1.31099e+58
          1201.91820	         1.33645e+58
          1202.72450	         1.01327e+58
          1203.53080	         1.14782e+58
          1204.33710	         6.86536e+57
          1205.14340	         5.63285e+57
          1205.94970	         5.60440e+57
          1206.75600	         4.78363e+57
          1207.56230	         4.83393e+57
          1208.36860	         7.58628e+57
          1209.17490	         2.17579e+57
          1209.98120	         5.38380e+57
          1210.78750	         6.86193e+57
          1211.59380	         8.53579e+57
          1212.40010	         1.50691e+58
          1213.20640	         2.13751e+58
          1214.01270	         2.20972e+58
          1214.81900	         2.97701e+58
          1215.62530	         4.95472e+58
          1216.43160	         9.12089e+58
          1217.23790	         1.52294e+59
          1218.04420	         1.11293e+59
          1218.85050	         8.86497e+58
          1219.65680	         5.89791e+58
          1220.46310	         3.09765e+58
          1221.26940	         1.96021e+58
          1222.07570	         1.24367e+58
          1222.88200	         8.61543e+57
          1223.68830	         9.54116e+57
          1224.49460	         8.74267e+57
          1225.30090	         8.08815e+57
          1226.10720	         6.41025e+57
          1226.91350	         5.67703e+57
          1227.71980	         1.04889e+58
          1228.52610	         1.28928e+58
          1229.33240	         8.85096e+57
          1230.13870	         9.94710e+57
          1230.94500	         9.48756e+57
          1231.75130	         6.25919e+57
          1232.55760	         8.75087e+57
          1233.36390	         1.04343e+58
          1234.17020	         9.71202e+57
          1234.97650	         9.37456e+57
          1235.78280	         8.96111e+57
          1236.58910	         8.73618e+57
          1237.39540	         1.25937e+58
          1238.20170	         1.21375e+58
          1239.00800	         1.36607e+58
          1239.81430	         1.56838e+58
          1240.62060	         1.20635e+58
          1241.42690	         1.09811e+58
          1242.23320	         1.22140e+58
          1243.03950	         8.73529e+57
          1243.84580	         7.94790e+57
          1244.65210	         9.73275e+57
          1245.45840	         8.02178e+57
          1246.26470	         7.58448e+57
          1247.07100	         7.67407e+57
          1247.87730	         7.73769e+57
          1248.68360	         6.86657e+57
          1249.48990	         1.11029e+58
          1250.29620	         9.17699e+57
          1251.10250	         6.29194e+57
          1251.90880	         3.84957e+57
          1252.71510	         5.79252e+57
          1253.52140	         8.22628e+57
          1254.32770	         1.13696e+58
          1255.13400	         1.39532e+58
          1255.94030	         1.26395e+58
          1256.74660	         9.27801e+57
          1257.55290	         8.75842e+57
          1258.35920	         9.13234e+57
          1259.16550	         7.33777e+57
          1259.97180	         5.77108e+57
          1260.77810	         8.34556e+57
          1261.58440	         1.14207e+58
          1262.39070	         9.39771e+57
          1263.19700	         7.91294e+57
          1264.00330	         9.32843e+57
          1264.80960	         1.05819e+58
          1265.61590	         1.13109e+58
          1266.42220	         1.10120e+58
          1267.22850	         1.10729e+58
          1268.03480	         1.54267e+58
          1268.84110	         1.51957e+58
          1269.64740	         1.33026e+58
          1270.45370	         1.39738e+58
          1271.26000	         1.17467e+58
          1272.06630	         1.02786e+58
          1272.87260	         1.12311e+58
          1273.67890	         1.20176e+58
          1274.48520	         1.09672e+58
          1275.29150	         1.14666e+58
          1276.09780	         1.21319e+58
          1276.90410	         1.56743e+58
          1277.71040	         1.39513e+58
          1278.51670	         1.28165e+58
          1279.32300	         1.33736e+58
          1280.12930	         1.22020e+58
          1280.93560	         9.75680e+57
          1281.74190	         8.68559e+57
          1282.54820	         1.39888e+58
          1283.35450	         1.32092e+58
          1284.16080	         1.14958e+58
          1284.96710	         1.37178e+58
          1285.77340	         1.04759e+58
          1286.57970	         9.73824e+57
          1287.38600	         1.40957e+58
          1288.19230	         1.73931e+58
          1288.99860	         1.39368e+58
          1289.80490	         9.71411e+57
          1290.61120	         1.12675e+58
          1291.41750	         1.26915e+58
          1292.22380	         1.18802e+58
          1293.03010	         1.24983e+58
          1293.83640	         1.32359e+58
          1294.64270	         9.77204e+57
          1295.44900	         6.64528e+57
          1296.25530	         7.60974e+57
          1297.06160	         8.34128e+57
          1297.86790	         8.24785e+57
          1298.67420	         9.51458e+57
          1299.48050	         1.10822e+58
          1300.28680	         1.07802e+58
          1301.09310	         7.89611e+57
          1301.89940	         3.67751e+57
          1302.70570	         7.17515e+57
          1303.51200	         8.17511e+57
          1304.31830	         9.66155e+57
          1305.12460	         1.08672e+58
          1305.93090	         1.10406e+58
          1306.73720	         1.16790e+58
          1307.54350	         1.23145e+58
          1308.34980	         1.41906e+58
          1309.15610	         1.35856e+58
          1309.96240	         1.58353e+58
          1310.76870	         1.43099e+58
          1311.57500	         1.01673e+58
          1312.38130	         1.07645e+58
          1313.18760	         1.32954e+58
          1313.99390	         1.58344e+58
          1314.80020	         1.52170e+58
          1315.60650	         1.51920e+58
          1316.41280	         1.31687e+58
          1317.21910	         1.16883e+58
          1318.02540	         1.21264e+58
          1318.83170	         1.16455e+58
          1319.63800	         1.31168e+58
          1320.44430	         1.34751e+58
          1321.25060	         1.30896e+58
          1322.05690	         1.08358e+58
          1322.86320	         1.16681e+58
          1323.66950	         1.12517e+58
          1324.47580	         8.20005e+57
          1325.28210	         8.06705e+57
          1326.08840	         1.01965e+58
          1326.89470	         1.28058e+58
          1327.70100	         1.00603e+58
          1328.50730	         7.23668e+57
          1329.31360	         9.86411e+57
          1330.11990	         9.46069e+57
          1330.92620	         9.95297e+57
          1331.73250	         1.11937e+58
          1332.53880	         1.03064e+58
          1333.34510	         8.30805e+57
          1334.15140	         8.82800e+57
          1334.95770	         8.82764e+57
          1335.76400	         1.02638e+58
          1336.57030	         1.16177e+58
          1337.37660	         1.08888e+58
          1338.18290	         1.06032e+58
          1338.98920	         1.22651e+58
          1339.79550	         1.26738e+58
          1340.60180	         1.13423e+58
          1341.40810	         1.18793e+58
          1342.21440	         1.18385e+58
          1343.02070	         1.20555e+58
          1343.82700	         1.36062e+58
          1344.63330	         1.34610e+58
          1345.43960	         1.20816e+58
          1346.24590	         1.10308e+58
          1347.05220	         1.30286e+58
          1347.85850	         1.10726e+58
          1348.66480	         1.15384e+58
          1349.47110	         1.19911e+58
          1350.27740	         1.14789e+58
          1351.08370	         1.15687e+58
          1351.89000	         1.15995e+58
          1352.69630	         1.04607e+58
          1353.50260	         1.09956e+58
          1354.30890	         1.15789e+58
          1355.11520	         1.11848e+58
          1355.92150	         9.94322e+57
          1356.72780	         1.01269e+58
          1357.53410	         1.05331e+58
          1358.34040	         1.09372e+58
          1359.14670	         1.09480e+58
          1359.95300	         1.11054e+58
          1360.75930	         1.07891e+58
          1361.56560	         9.94511e+57
          1362.37190	         1.17590e+58
          1363.17820	         1.20803e+58
          1363.98450	         1.19830e+58
          1364.79080	         1.18315e+58
          1365.59710	         1.13854e+58
          1366.40340	         1.04114e+58
          1367.20970	         9.76159e+57
          1368.01600	         1.01404e+58
          1368.82230	         9.41032e+57
          1369.62860	         1.08365e+58
          1370.43490	         1.00781e+58
          1371.24120	         9.79659e+57
          1372.04750	         8.95483e+57
          1372.85380	         1.02990e+58
          1373.66010	         1.10850e+58
          1374.46640	         1.07766e+58
          1375.27270	         1.17564e+58
          1376.07900	         1.01861e+58
          1376.88530	         8.82652e+57
          1377.69160	         8.54821e+57
          1378.49790	         7.30995e+57
          1379.30420	         8.08344e+57
          1380.11050	         9.91082e+57
          1380.91680	         9.79843e+57
          1381.72310	         8.28074e+57
          1382.52940	         8.60812e+57
          1383.33570	         9.25709e+57
          1384.14200	         1.07475e+58
          1384.94830	         1.20628e+58
          1385.75460	         1.11654e+58
          1386.56090	         9.17714e+57
          1387.36720	         8.64018e+57
          1388.17350	         1.35964e+58
          1388.97980	         1.31653e+58
          1389.78610	         1.02453e+58
          1390.59240	         9.66311e+57
          1391.39870	         8.63977e+57
          1392.20500	         8.35476e+57
          1393.01130	         7.84101e+57
          1393.81760	         7.61758e+57
          1394.62390	         8.82397e+57
          1395.43020	         6.74622e+57
          1396.23650	         5.90302e+57
          1397.04280	         6.56571e+57
          1397.84910	         8.59010e+57
          1398.65540	         9.22088e+57
          1399.46170	         1.01591e+58
          1400.26800	         8.58580e+57
          1401.07430	         7.01320e+57
          1401.88060	         6.61707e+57
          1402.68690	         7.88178e+57
          1403.49320	         9.06646e+57
          1404.29950	         9.63267e+57
          1405.10580	         1.13744e+58
          1405.91210	         1.15003e+58
          1406.71840	         1.04428e+58
          1407.52470	         9.25770e+57
          1408.33100	         9.33408e+57
          1409.13730	         1.18257e+58
          1409.94360	         1.32040e+58
          1410.74990	         1.19527e+58
          1411.55620	         1.06720e+58
          1412.36250	         1.05121e+58
          1413.16880	         9.17196e+57
          1413.97510	         8.05664e+57
          1414.78140	         6.92638e+57
          1415.58770	         9.00944e+57
          1416.39400	         1.01582e+58
          1417.20030	         9.77111e+57
          1418.00660	         9.12230e+57
          1418.81290	         9.73433e+57
          1419.61920	         1.10918e+58
          1420.42550	         1.37697e+58
          1421.23180	         1.41209e+58
          1422.03810	         1.30125e+58
          1422.84440	         1.15326e+58
          1423.65070	         1.10921e+58
          1424.45700	         1.08352e+58
          1425.26330	         9.92599e+57
          1426.06960	         8.71128e+57
          1426.87590	         8.59909e+57
          1427.68220	         9.27086e+57
          1428.48850	         1.10676e+58
          1429.29480	         1.15755e+58
          1430.10110	         9.78761e+57
          1430.90740	         7.82544e+57
          1431.71370	         7.96779e+57
          1432.52000	         8.23431e+57
          1433.32630	         7.58475e+57
          1434.13260	         6.71710e+57
          1434.93890	         7.07320e+57
          1435.74520	         8.26607e+57
          1436.55150	         8.46456e+57
          1437.35780	         8.38246e+57
          1438.16410	         8.58194e+57
          1438.97040	         9.33145e+57
          1439.77670	         9.14915e+57
          1440.58300	         8.70886e+57
          1441.38930	         9.47114e+57
          1442.19560	         1.00716e+58
          1443.00190	         8.75282e+57
          1443.80820	         1.00982e+58
          1444.61450	         1.01418e+58
          1445.42080	         8.17948e+57
          1446.22710	         1.03572e+58
          1447.03340	         1.09732e+58
          1447.83970	         1.10596e+58
          1448.64600	         1.08167e+58
          1449.45230	         1.03667e+58
          1450.25860	         1.03115e+58
          1451.06490	         9.38486e+57
          1451.87120	         7.68302e+57
          1452.67750	         7.62129e+57
          1453.48380	         8.23211e+57
          1454.29010	         7.41307e+57
          1455.09640	         8.04452e+57
          1455.90270	         9.79694e+57
          1456.70900	         9.03529e+57
          1457.51530	         1.02334e+58
          1458.32160	         1.38593e+58
          1459.12790	         1.38063e+58
          1459.93420	         1.06809e+58
          1460.74050	         7.39566e+57
          1461.54680	         7.31860e+57
          1462.35310	         9.16678e+57
          1463.15940	         1.00744e+58
          1463.96570	         1.08271e+58
          1464.77200	         1.19355e+58
          1465.57830	         1.12844e+58
          1466.38460	         8.80135e+57
          1467.19090	         7.62273e+57
          1467.99720	         8.78873e+57
          1468.80350	         9.74727e+57
          1469.60980	         9.47419e+57
          1470.41610	         1.06497e+58
          1471.22240	         9.85699e+57
          1472.02870	         1.01007e+58
          1472.83500	         1.17521e+58
          1473.64130	         1.12625e+58
          1474.44760	         1.09420e+58
          1475.25390	         9.85759e+57
          1476.06020	         1.00686e+58
          1476.86650	         9.16769e+57
          1477.67280	         8.47732e+57
          1478.47910	         7.04591e+57
          1479.28540	         6.92728e+57
          1480.09170	         8.82600e+57
          1480.89800	         8.54591e+57
          1481.70430	         8.85112e+57
          1482.51060	         8.58259e+57
          1483.31690	         8.33564e+57
          1484.12320	         7.66785e+57
          1484.92950	         8.29892e+57
          1485.73580	         9.40332e+57
          1486.54210	         8.88802e+57
          1487.34840	         8.38673e+57
          1488.15470	         8.12163e+57
          1488.96100	         8.01822e+57
          1489.76730	         8.89129e+57
