#sample_290_stacked_spectrum_rest_UV-bands_median_H-alpha_noDC.txt
#median Lum: 1.68914e+42
#Rest-frame wavelength (A) | Luminosity (erg/s/A)
#
          1110.00000	         0.00000e+00
          1110.80630	        -1.20415e+59
          1111.61260	         6.64035e+58
          1112.41890	         1.37557e+59
          1113.22520	         2.38827e+59
          1114.03150	        -2.78241e+59
          1114.83780	         3.31550e+58
          1115.64410	        -2.09714e+58
          1116.45040	         2.01867e+59
          1117.25670	         1.03463e+59
          1118.06300	         9.15844e+58
          1118.86930	        -8.73685e+58
          1119.67560	        -1.26548e+58
          1120.48190	         2.62255e+58
          1121.28820	        -1.09990e+59
          1122.09450	        -3.57504e+58
          1122.90080	         2.19981e+58
          1123.70710	        -3.07358e+58
          1124.51340	         9.02563e+58
          1125.31970	         2.18554e+58
          1126.12600	         3.91470e+58
          1126.93230	        -2.23144e+58
          1127.73860	         4.08566e+57
          1128.54490	        -3.17137e+58
          1129.35120	        -2.60553e+58
          1130.15750	         1.38667e+57
          1130.96380	         6.29017e+57
          1131.77010	         5.65025e+58
          1132.57640	         3.16697e+58
          1133.38270	         3.78263e+58
          1134.18900	         6.38804e+58
          1134.99530	         5.10427e+58
          1135.80160	         2.77042e+58
          1136.60790	         1.67495e+58
          1137.41420	        -1.95078e+58
          1138.22050	         1.38064e+58
          1139.02680	         3.69717e+58
          1139.83310	         2.09690e+58
          1140.63940	         1.30255e+58
          1141.44570	        -2.47282e+58
          1142.25200	        -3.19208e+58
          1143.05830	         2.47320e+58
          1143.86460	         3.36275e+58
          1144.67090	         2.35681e+58
          1145.47720	         1.89353e+58
          1146.28350	         1.10883e+58
          1147.08980	         8.45899e+57
          1147.89610	         1.56980e+58
          1148.70240	         3.63434e+58
          1149.50870	         3.00883e+58
          1150.31500	         9.46818e+57
          1151.12130	         1.02433e+58
          1151.92760	         1.66511e+57
          1152.73390	         6.67155e+56
          1153.54020	        -3.43328e+56
          1154.34650	         2.52940e+58
          1155.15280	         1.33704e+58
          1155.95910	         1.48564e+58
          1156.76540	         1.84707e+58
          1157.57170	         1.21234e+57
          1158.37800	         2.29294e+57
          1159.18430	         2.12133e+57
          1159.99060	         1.23063e+58
          1160.79690	         8.98880e+56
          1161.60320	         9.70035e+57
          1162.40950	         1.54705e+58
          1163.21580	         1.58568e+58
          1164.02210	         8.76362e+57
          1164.82840	         1.10439e+58
          1165.63470	         1.94938e+58
          1166.44100	         3.12486e+58
          1167.24730	         1.86142e+58
          1168.05360	         7.08158e+57
          1168.85990	         1.13581e+58
          1169.66620	         1.37325e+58
          1170.47250	         1.11072e+58
          1171.27880	         8.10955e+57
          1172.08510	         1.38769e+58
          1172.89140	         1.46322e+57
          1173.69770	         1.23159e+58
          1174.50400	         1.47736e+58
          1175.31030	         1.50856e+58
          1176.11660	         1.77226e+58
          1176.92290	         1.60275e+58
          1177.72920	         1.20155e+58
          1178.53550	         6.45858e+57
          1179.34180	         6.06567e+57
          1180.14810	         8.99107e+57
          1180.95440	         7.72414e+57
          1181.76070	         3.41557e+57
          1182.56700	         9.60736e+57
          1183.37330	         1.10128e+58
          1184.17960	         1.48818e+58
          1184.98590	         1.30898e+58
          1185.79220	         7.37308e+57
          1186.59850	         8.14624e+57
          1187.40480	         7.21781e+57
          1188.21110	         1.47245e+58
          1189.01740	         1.25727e+58
          1189.82370	         9.93320e+57
          1190.63000	         1.09413e+58
          1191.43630	         1.59517e+58
          1192.24260	         1.29746e+58
          1193.04890	         1.29071e+58
          1193.85520	         1.05511e+58
          1194.66150	         2.75730e+57
          1195.46780	         7.07691e+57
          1196.27410	         1.59504e+58
          1197.08040	         1.06610e+58
          1197.88670	         1.19399e+58
          1198.69300	         1.62312e+58
          1199.49930	         1.75136e+58
          1200.30560	         1.10539e+58
          1201.11190	         8.39696e+57
          1201.91820	         6.93179e+57
          1202.72450	         9.19041e+57
          1203.53080	         1.58463e+58
          1204.33710	         1.07097e+58
          1205.14340	         6.43477e+57
          1205.94970	         7.35047e+57
          1206.75600	         6.70826e+57
          1207.56230	         2.90891e+57
          1208.36860	         8.02690e+57
          1209.17490	         9.14875e+57
          1209.98120	         6.28334e+57
          1210.78750	         6.85925e+57
          1211.59380	         1.25671e+58
          1212.40010	         1.70664e+58
          1213.20640	         1.74503e+58
          1214.01270	         1.97046e+58
          1214.81900	         2.49863e+58
          1215.62530	         4.33673e+58
          1216.43160	         8.73421e+58
          1217.23790	         1.47917e+59
          1218.04420	         1.21765e+59
          1218.85050	         8.66850e+58
          1219.65680	         5.47244e+58
          1220.46310	         3.11061e+58
          1221.26940	         2.11594e+58
          1222.07570	         1.52256e+58
          1222.88200	         1.48755e+58
          1223.68830	         1.27238e+58
          1224.49460	         4.78014e+57
          1225.30090	         5.99531e+57
          1226.10720	         2.93059e+57
          1226.91350	         3.25003e+57
          1227.71980	         6.48446e+57
          1228.52610	         1.04379e+58
          1229.33240	         7.82204e+57
          1230.13870	         6.96281e+57
          1230.94500	         5.05224e+57
          1231.75130	         2.96065e+57
          1232.55760	         6.67322e+57
          1233.36390	         8.80158e+57
          1234.17020	         6.26146e+57
          1234.97650	         6.87460e+57
          1235.78280	         8.16830e+57
          1236.58910	         9.19864e+57
          1237.39540	         1.05526e+58
          1238.20170	         8.87902e+57
          1239.00800	         1.02814e+58
          1239.81430	         1.32388e+58
          1240.62060	         1.23319e+58
          1241.42690	         1.07566e+58
          1242.23320	         1.14332e+58
          1243.03950	         9.48405e+57
          1243.84580	         9.99187e+57
          1244.65210	         1.01219e+58
          1245.45840	         8.13952e+57
          1246.26470	         7.76466e+57
          1247.07100	         7.62391e+57
          1247.87730	         6.90492e+57
          1248.68360	         5.25813e+57
          1249.48990	         8.85568e+57
          1250.29620	         1.24590e+58
          1251.10250	         9.59467e+57
          1251.90880	         4.91787e+57
          1252.71510	         6.37554e+57
          1253.52140	         8.46960e+57
          1254.32770	         1.03988e+58
          1255.13400	         1.17738e+58
          1255.94030	         1.22539e+58
          1256.74660	         1.10572e+58
          1257.55290	         1.12863e+58
          1258.35920	         9.81127e+57
          1259.16550	         5.51684e+57
          1259.97180	         6.18478e+57
          1260.77810	         1.09520e+58
          1261.58440	         1.19193e+58
          1262.39070	         8.77969e+57
          1263.19700	         9.30548e+57
          1264.00330	         9.58268e+57
          1264.80960	         9.80131e+57
          1265.61590	         1.29939e+58
          1266.42220	         1.10982e+58
          1267.22850	         8.87915e+57
          1268.03480	         1.18069e+58
          1268.84110	         1.35601e+58
          1269.64740	         1.36622e+58
          1270.45370	         1.34320e+58
          1271.26000	         1.20644e+58
          1272.06630	         1.12417e+58
          1272.87260	         1.27361e+58
          1273.67890	         1.24483e+58
          1274.48520	         1.19598e+58
          1275.29150	         1.28302e+58
          1276.09780	         1.21804e+58
          1276.90410	         1.44944e+58
          1277.71040	         1.27134e+58
          1278.51670	         1.33562e+58
          1279.32300	         1.27490e+58
          1280.12930	         1.12377e+58
          1280.93560	         1.19187e+58
          1281.74190	         1.22140e+58
          1282.54820	         1.29380e+58
          1283.35450	         1.19809e+58
          1284.16080	         1.00551e+58
          1284.96710	         1.35739e+58
          1285.77340	         1.32879e+58
          1286.57970	         1.19174e+58
          1287.38600	         1.46458e+58
          1288.19230	         1.66859e+58
          1288.99860	         1.55142e+58
          1289.80490	         1.14755e+58
          1290.61120	         1.40380e+58
          1291.41750	         1.43556e+58
          1292.22380	         1.12524e+58
          1293.03010	         9.84004e+57
          1293.83640	         1.18988e+58
          1294.64270	         9.78437e+57
          1295.44900	         4.71295e+57
          1296.25530	         3.57835e+57
          1297.06160	         7.95248e+57
          1297.86790	         1.06191e+58
          1298.67420	         9.19698e+57
          1299.48050	         8.49075e+57
          1300.28680	         1.06167e+58
          1301.09310	         9.95293e+57
          1301.89940	         5.11073e+57
          1302.70570	         6.85720e+57
          1303.51200	         9.10880e+57
          1304.31830	         1.02558e+58
          1305.12460	         1.07665e+58
          1305.93090	         1.16237e+58
          1306.73720	         1.22374e+58
          1307.54350	         1.24683e+58
          1308.34980	         1.39994e+58
          1309.15610	         1.67067e+58
          1309.96240	         1.59060e+58
          1310.76870	         1.29440e+58
          1311.57500	         1.19998e+58
          1312.38130	         1.14931e+58
          1313.18760	         1.33182e+58
          1313.99390	         1.47319e+58
          1314.80020	         1.49628e+58
          1315.60650	         1.69779e+58
          1316.41280	         1.47980e+58
          1317.21910	         1.28993e+58
          1318.02540	         1.21157e+58
          1318.83170	         1.33017e+58
          1319.63800	         1.20749e+58
          1320.44430	         1.13543e+58
          1321.25060	         1.24629e+58
          1322.05690	         1.32591e+58
          1322.86320	         1.18449e+58
          1323.66950	         1.12862e+58
          1324.47580	         1.01926e+58
          1325.28210	         9.74802e+57
          1326.08840	         1.11240e+58
          1326.89470	         1.38024e+58
          1327.70100	         1.23160e+58
          1328.50730	         9.38564e+57
          1329.31360	         1.02941e+58
          1330.11990	         1.14241e+58
          1330.92620	         1.00221e+58
          1331.73250	         1.13160e+58
          1332.53880	         1.05028e+58
          1333.34510	         9.38012e+57
          1334.15140	         9.21170e+57
          1334.95770	         8.98459e+57
          1335.76400	         1.08100e+58
          1336.57030	         1.10066e+58
          1337.37660	         9.98462e+57
          1338.18290	         1.03484e+58
          1338.98920	         1.17685e+58
          1339.79550	         1.13968e+58
          1340.60180	         1.16192e+58
          1341.40810	         1.31045e+58
          1342.21440	         1.32962e+58
          1343.02070	         1.25175e+58
          1343.82700	         1.37717e+58
          1344.63330	         1.46362e+58
          1345.43960	         1.41441e+58
          1346.24590	         1.22302e+58
          1347.05220	         1.23989e+58
          1347.85850	         1.11994e+58
          1348.66480	         1.16503e+58
          1349.47110	         1.21637e+58
          1350.27740	         1.19757e+58
          1351.08370	         1.09044e+58
          1351.89000	         1.20449e+58
          1352.69630	         1.21757e+58
          1353.50260	         1.29787e+58
          1354.30890	         1.32951e+58
          1355.11520	         1.17904e+58
          1355.92150	         1.13916e+58
          1356.72780	         1.03028e+58
          1357.53410	         9.65006e+57
          1358.34040	         1.11720e+58
          1359.14670	         1.05524e+58
          1359.95300	         1.07267e+58
          1360.75930	         1.07587e+58
          1361.56560	         1.10874e+58
          1362.37190	         1.19601e+58
          1363.17820	         1.18653e+58
          1363.98450	         1.18750e+58
          1364.79080	         1.14346e+58
          1365.59710	         1.34747e+58
          1366.40340	         1.34153e+58
          1367.20970	         1.09995e+58
          1368.01600	         1.04232e+58
          1368.82230	         1.06903e+58
          1369.62860	         1.20506e+58
          1370.43490	         9.47712e+57
          1371.24120	         9.46947e+57
          1372.04750	         9.57969e+57
          1372.85380	         9.78008e+57
          1373.66010	         9.63011e+57
          1374.46640	         1.01460e+58
          1375.27270	         1.12055e+58
          1376.07900	         1.03898e+58
          1376.88530	         1.03906e+58
          1377.69160	         9.61107e+57
          1378.49790	         7.57706e+57
          1379.30420	         7.58833e+57
          1380.11050	         9.76418e+57
          1380.91680	         8.61517e+57
          1381.72310	         6.61581e+57
          1382.52940	         7.93171e+57
          1383.33570	         9.10359e+57
          1384.14200	         1.02088e+58
          1384.94830	         1.10456e+58
          1385.75460	         1.19464e+58
          1386.56090	         1.19738e+58
          1387.36720	         1.16181e+58
          1388.17350	         1.45945e+58
          1388.97980	         1.19268e+58
          1389.78610	         9.48397e+57
          1390.59240	         8.55783e+57
          1391.39870	         6.90950e+57
          1392.20500	         8.58795e+57
          1393.01130	         8.00250e+57
          1393.81760	         6.65138e+57
          1394.62390	         7.58862e+57
          1395.43020	         7.36689e+57
          1396.23650	         6.39360e+57
          1397.04280	         6.44447e+57
          1397.84910	         8.03505e+57
          1398.65540	         8.14445e+57
          1399.46170	         9.33660e+57
          1400.26800	         9.67797e+57
          1401.07430	         7.96615e+57
          1401.88060	         7.63231e+57
          1402.68690	         9.55068e+57
          1403.49320	         1.02731e+58
          1404.29950	         1.09263e+58
          1405.10580	         1.11106e+58
          1405.91210	         1.13744e+58
          1406.71840	         1.12218e+58
          1407.52470	         1.20000e+58
          1408.33100	         1.26909e+58
          1409.13730	         1.23605e+58
          1409.94360	         1.28999e+58
          1410.74990	         1.29399e+58
          1411.55620	         1.01639e+58
          1412.36250	         9.23881e+57
          1413.16880	         9.63471e+57
          1413.97510	         8.69350e+57
          1414.78140	         8.40866e+57
          1415.58770	         1.04699e+58
          1416.39400	         1.04941e+58
          1417.20030	         1.04355e+58
          1418.00660	         1.00895e+58
          1418.81290	         1.04588e+58
          1419.61920	         9.89450e+57
          1420.42550	         1.16261e+58
          1421.23180	         1.38164e+58
          1422.03810	         1.31842e+58
          1422.84440	         1.05155e+58
          1423.65070	         1.19931e+58
          1424.45700	         1.14103e+58
          1425.26330	         8.52625e+57
          1426.06960	         8.65070e+57
          1426.87590	         1.04651e+58
          1427.68220	         9.51840e+57
          1428.48850	         9.59351e+57
          1429.29480	         1.16084e+58
          1430.10110	         1.15135e+58
          1430.90740	         9.85393e+57
          1431.71370	         9.20301e+57
          1432.52000	         9.72332e+57
          1433.32630	         9.40506e+57
          1434.13260	         8.19383e+57
          1434.93890	         8.45180e+57
          1435.74520	         1.04690e+58
          1436.55150	         9.65986e+57
          1437.35780	         8.95643e+57
          1438.16410	         9.47910e+57
          1438.97040	         9.30579e+57
          1439.77670	         8.89023e+57
          1440.58300	         9.81362e+57
          1441.38930	         1.04249e+58
          1442.19560	         1.03864e+58
          1443.00190	         1.03717e+58
          1443.80820	         1.08286e+58
          1444.61450	         9.81565e+57
          1445.42080	         8.28231e+57
          1446.22710	         9.02335e+57
          1447.03340	         8.63399e+57
          1447.83970	         9.78441e+57
          1448.64600	         9.80137e+57
          1449.45230	         9.81872e+57
          1450.25860	         1.03292e+58
          1451.06490	         9.01899e+57
          1451.87120	         7.29522e+57
          1452.67750	         8.08328e+57
          1453.48380	         9.61094e+57
          1454.29010	         8.71775e+57
          1455.09640	         8.06622e+57
          1455.90270	         9.10880e+57
          1456.70900	         9.09816e+57
          1457.51530	         1.00604e+58
          1458.32160	         1.28147e+58
          1459.12790	         1.18869e+58
          1459.93420	         9.20280e+57
          1460.74050	         8.80230e+57
          1461.54680	         8.61685e+57
          1462.35310	         7.37452e+57
          1463.15940	         9.58298e+57
          1463.96570	         1.15735e+58
          1464.77200	         1.12194e+58
          1465.57830	         8.74969e+57
          1466.38460	         7.80821e+57
          1467.19090	         8.65105e+57
          1467.99720	         8.70992e+57
          1468.80350	         8.81275e+57
          1469.60980	         9.89555e+57
          1470.41610	         9.97057e+57
          1471.22240	         8.29124e+57
          1472.02870	         9.73844e+57
          1472.83500	         1.07743e+58
          1473.64130	         1.02999e+58
          1474.44760	         9.60597e+57
          1475.25390	         1.02058e+58
          1476.06020	         9.59230e+57
          1476.86650	         8.13742e+57
          1477.67280	         7.66959e+57
          1478.47910	         6.91218e+57
          1479.28540	         7.83495e+57
          1480.09170	         8.67972e+57
          1480.89800	         8.02380e+57
          1481.70430	         8.11096e+57
          1482.51060	         7.72679e+57
          1483.31690	         7.10932e+57
          1484.12320	         8.59869e+57
          1484.92950	         8.67017e+57
          1485.73580	         8.07608e+57
          1486.54210	         8.66293e+57
          1487.34840	         9.04279e+57
          1488.15470	         9.11988e+57
          1488.96100	         9.13558e+57
          1489.76730	         9.72779e+57
